timestamps,eeg_1,eeg_2,eeg_3,eeg_4
1731305769.551473,800.9242444250378,775.2417433571114,619.6074808725702,789.5230407998896
1731305769.5670552,798.6238522232791,773.7359091699993,610.7673936918654,785.7979225310424
1731305769.5700278,800.1300974365644,772.3521785909828,588.4787143929165,780.7890175430387
1731305769.5724,806.975740986075,771.8261128178992,561.6803576404529,775.9742014759075
1731305769.5763,817.3861657886177,773.1436606494715,559.2597170431345,775.0634295382147
1731305769.5802004,827.1090165665676,776.3566264618948,601.4125654379608,780.3908822002808
1731305769.582638,831.724793134486,779.8299777680983,670.816583494237,789.884666516866
1731305769.5841007,829.1271810940082,781.0150835151758,715.1696729948579,797.9736557386183
1731305769.5853782,820.7199702800422,778.3991184088746,686.8578484027726,799.913398290294
1731305769.588001,810.6633698576401,772.923604685863,588.4472202270892,795.5102047442913
1731305769.5919013,803.6457236488488,767.3809658991332,480.1334293769174,788.7257040440797
1731305769.5958016,802.4533163864471,764.1098864046286,435.0959572386403,783.6450715592592
1731305769.5982206,806.7243671834475,763.0458381892863,477.9886613102874,780.784230501703
1731305769.599702,813.6522264575491,762.0239922884232,562.6660188043533,777.3183478692405
1731305769.6036024,820.1974219499727,759.1405118349983,612.2124583267843,770.9911801277756
1731305769.6042435,825.200463496168,754.9395814790944,586.0097402998305,763.8442500722173
1731305769.6050005,829.6793271141933,752.2754908892531,512.6562132578308,761.8333309127573
1731305769.6075027,835.0245082298756,753.8875913662264,460.51354974104646,770.0250507055724
1731305769.611403,840.7788463906493,759.8960524555232,476.1635710202801,787.2922053216159
1731305769.6138034,844.2925295892812,767.4922871421427,547.7352296020143,805.4709274860586
1731305769.6153033,842.8774551213967,773.0577141094594,622.3364875271967,814.5172716405671
1731305769.6192036,836.5608744240113,774.7819908124046,655.6446010192701,809.9317754626644
1731305769.623104,828.7071898301378,773.5441691121608,646.1208504907261,796.278137900713
1731305769.6231086,823.6366785295304,771.5133083831429,625.9651662850825,783.5519950043907
1731305769.627004,823.1729983281108,769.9648673862526,622.7637618538753,779.1741450231908
1731305769.629386,825.1043389586781,768.3730451886292,630.5995870013119,782.1995034646288
1731305769.6309044,824.9502957144819,765.5243909121145,617.4224197153504,784.5319597776229
1731305769.6348047,819.7339898443624,761.4614519814103,560.2889415534037,778.0955820495132
1731305769.638705,810.8884663293063,758.2733434629781,474.175169783528,762.040939564394
1731305769.6399727,803.9885984682346,758.815708897909,406.3942267762169,744.1148219637751
1731305769.641974,805.1565937980428,764.3676941389097,400.6583436209479,735.015668969256
1731305769.6426053,816.3825980602143,773.2368063722932,462.39369073339793,740.0343729071923
1731305769.6449685,833.1448894577628,781.5317251171293,554.8219476468767,754.4253474902094
1731305769.6465056,846.5592371954757,785.5337260769371,627.1076623058552,766.2989933393693
1731305769.650406,849.0931435790786,783.8963732214045,648.9910113327622,765.2220192006279
1731305769.6543062,839.7846737264666,778.1930694642384,624.5385017999347,750.1163734262786
1731305769.6582067,824.7577247163522,771.6836413652932,579.3346776656339,730.1485068486517
1731305769.6605513,812.4118434833028,767.3882327323017,537.9636909671096,717.6039739762163
1731305769.660839,807.1786469757842,766.7633800192218,511.90695521357037,718.3218525251142
1731305769.662107,807.0067328120344,769.5518768341353,502.89316897470576,727.4865769161253
1731305769.6660073,806.420549724938,774.4851586603646,511.09642442787407,734.2170952150893
1731305769.6699076,802.1146115167064,780.1223041353561,536.381871325672,731.0434905052126
1731305769.673808,796.0272077476039,785.3207862075817,572.3510293016063,720.3251320333185
1731305769.674945,793.3157404004367,789.3090038462418,603.2264332974014,712.3050840226933
1731305769.676134,797.2109733484191,791.6387239058114,611.5422863883291,716.4206969446158
1731305769.677708,805.3923677377577,792.2254505865317,592.3934765061397,732.9365498660408
1731305769.6797044,811.2111696139056,791.3964226396928,560.3340608864456,751.7290939405558
1731305769.6816084,808.989792000575,789.7415626987456,538.8937992557935,759.4986136598459
1731305769.6855087,799.0617983950268,787.7790036142752,538.6444100404078,750.0388252940306
1731305769.689409,788.1319,785.729486254712,543.6609829692177,729.4914293049728
1731305769.6917164,784.2339362269952,783.6351145486468,522.796545066778,712.1264879999871
1731305769.6933093,790.1589303219998,781.656810152303,460.34438255751473,709.6800982941298
1731305769.6972096,800.7541632194287,780.1147889172009,378.8934985776955,722.6514426049663
1731305769.6985698,806.4455411476953,779.1014795862666,329.20032943682213,740.5016488951829
1731305769.70111,800.2516129179957,778.085735009143,351.15927315366105,750.4378848182341
1731305769.7050102,782.8110220028896,776.1408057146191,439.92998034344873,747.536341818785
1731305769.7072992,761.7386782552961,772.8577410600673,549.4486557147691,738.1299417310738
1731305769.7089105,746.1680141424198,769.1431537188531,630.389744821695,734.0934877432161
1731305769.7099175,740.7772828077411,766.9414186140455,666.4674236931064,742.9723762392947
1731305769.7128108,743.4965359980906,767.8341097404723,676.4483756288021,761.9399150367075
1731305769.7167113,748.067277002235,771.6361574031099,684.8255569057648,780.1816716293667
1731305769.7174351,749.2020735370382,776.3124124044124,693.9776810759278,787.4397953409981
1731305769.7206116,746.5282076435846,779.4637354583435,685.6016036431098,781.6355694834491
1731305769.7228818,744.5721856383315,780.2252586238305,647.2739247648291,769.522864472282
1731305769.724512,748.9521858074454,779.9693540291081,594.2640793776555,760.2787641116331
1731305769.7284122,761.7504286450323,781.1448696396261,561.4949692377804,757.8028410401187
1731305769.7323124,779.6386709228343,785.1390483222393,570.491541330603,758.2877777734069
1731305769.7362127,796.0912300756627,790.9185412161988,603.0184617094134,754.7442111727668
1731305769.7363002,805.7132856108461,795.6269301553069,610.7062005935983,744.0539495741264
1731305769.7384646,807.2095973144432,796.7058933413157,557.6577356325769,730.2264787476702
1731305769.740113,803.0414487790575,793.7989369154083,458.99467767110525,721.2356322423532
1731305769.7440133,796.738580227055,788.8650102647189,376.5664830515761,722.4294739585237
1731305769.74489,790.4480092126155,784.5012898573073,370.2918964100393,732.0948870275481
1731305769.7479136,784.4987418435467,782.0488808321749,447.1381286804995,742.5945840682939
1731305769.751814,778.7027444532652,781.1318296477141,555.335781698801,745.9358151499231
1731305769.7540472,773.7331106205041,780.7793312848543,629.652724922221,739.4226836594344
1731305769.7551656,771.1815281164276,780.7356666191323,644.6171585473176,727.2697052412582
1731305769.7557142,772.2971876670733,781.5547314392705,626.4396473162595,717.1438287514752
1731305769.7596145,776.6626544747952,783.5347072815798,616.7952146939621,714.2738437911039
1731305769.7635148,782.1279229939013,785.8491264616911,628.1049422684008,717.5411012334663
1731305769.767415,786.1646126159561,786.9941397159615,634.3674253564512,720.535305920599
1731305769.7696297,787.4654417993329,786.2055265870068,603.1803862744089,716.7819507977463
1731305769.7713156,786.3830383856103,784.3706400294668,534.0820150320164,705.0485231345539
1731305769.7740307,783.9366018175721,783.3447666494042,464.06642324258905,690.5523536554897
1731305769.775216,780.4945255990723,784.1405710402025,434.1011959394112,681.1816849289069
1731305769.7791162,775.4949807465679,785.7042490672663,448.31816950839425,681.7798585450444
1731305769.7798624,768.4918547203852,785.6525185973514,465.89640230853104,690.9347684929926
1731305769.7830164,760.4952695329123,782.5695152047608,436.9121468862231,702.597085666109
1731305769.7852125,754.2196885925018,777.8274201243609,352.3467073801898,711.042138654214
1731305769.7869167,752.7139662407665,775.0466641204002,262.0920938701368,715.1444011713141
1731305769.790817,757.1948731708359,777.331049257319,240.58184277088344,718.5353008363517
1731305769.792896,765.7083663815712,784.5265277958439,326.770194452124,725.5435653046134
1731305769.7947173,773.8644249291827,792.9262858288841,490.116283695082,736.3989267187438
1731305769.7986176,777.4722979580268,797.8104400231575,651.9996535908962,746.0810891107166
1731305769.8007953,775.3735465853216,796.8027359805833,742.9468114354736,748.2849917933996
1731305769.802518,770.3427905785925,791.4076195199083,746.8656715609519,741.3431279055367
1731305769.8064182,767.1615068535593,785.685776013247,699.7884119954449,730.7178486505136
1731305769.8103185,769.1086874558125,783.2969306827869,652.7127042315312,725.3351733125911
1731305769.8117614,775.4677183590302,785.1885216402654,634.7647459647582,730.5476158644523
1731305769.8142188,781.993707663969,789.4241254580816,643.6140475120494,743.7916167016652
1731305769.8148348,784.0347470495728,792.9260683079364,660.8682180401959,756.8229176916086
1731305769.816378,779.9634579955737,793.6486246679707,671.6278179697762,762.704411754598
1731305769.818119,772.3902602181505,791.666835549816,672.4262372066238,761.6366557720733
1731305769.822019,766.3665535250126,788.6350954571016,667.5523191503293,760.7346890532007
1731305769.8259196,765.9878843169819,786.2374494821386,662.2477908188122,767.9152139837445
1731305769.8298202,771.7943082182646,784.8587896220803,658.9859930819913,784.8968741954911
1731305769.8306267,780.5728617433119,783.4252582673357,657.5365135024635,805.0731471497319
1731305769.8319604,787.43729617135,780.4324817941655,656.6610178384833,818.1658284057579
1731305769.8337204,788.7366209361985,775.2893879496315,655.4650038961803,818.1620993248251
1731305769.8376207,784.1090835907503,768.9302765489347,653.7617255415737,808.2981256213008
1731305769.841521,776.6238416083977,763.2939414885589,651.7856543244382,798.9709825629454
1731305769.8454213,770.9535819049136,760.1576143149694,649.8058898181012,799.9262270081535
1731305769.847543,770.5835629287482,760.2103520459816,647.9382798654282,812.6558002408467
1731305769.8493216,775.7719152591031,762.9220496443711,646.1603965711157,828.9319083391857
1731305769.8494918,783.7000679181893,767.1070687047605,644.4043639655557,836.7240982897616
1731305769.849807,790.7899689993709,771.6557367777468,642.625151916681,829.1071852290538
1731305769.853222,795.4045847331424,775.9370003766758,640.8156543442094,809.4958904940767
1731305769.8571222,798.6409889451685,779.7013139590536,638.989473225104,789.2342608834355
1731305769.8610225,802.4586337170849,782.6770677975903,637.1605790214044,779.2576843385147
1731305769.8631258,806.8841315546177,784.2819666069029,635.3343373588716,782.1649005436694
1731305769.8649228,809.1626724673303,783.8192263159707,633.5090280011311,790.9481520851922
1731305769.8683572,806.0912559714349,781.1136979288763,631.6809245465353,795.4059962744409
1731305769.8688233,797.6419611772827,777.0029487767988,629.8477306457893,790.8449159783179
1731305769.872723,788.3801886957618,773.0432494609355,628.0091627592263,781.6701083165236
1731305769.8766236,784.8651880406745,770.5333527626723,626.1659423168297,776.9527534313489
1731305769.8787084,790.7845430515719,769.7510729493582,624.3187339474074,782.1051706871169
1731305769.880524,803.7604112314592,770.0705126705205,622.4677239662765,793.9638305512822
1731305769.8844244,816.5811605009499,770.6617119092531,620.6127374476217,803.2181444609757
1731305769.8847797,822.0918947964384,771.0396942789613,618.7535136789934,801.7278970940372
1731305769.8872223,818.0972031361335,771.1428647731962,616.8898776705227,788.6156613209199
1731305769.8883247,808.6844175029385,771.121005958476,615.0217599704796,770.6350194750257
1731305769.892225,801.1739433304019,771.1182028617897,613.1491390383896,757.0462918746464
1731305769.8942907,801.107167741839,771.1850899033402,611.2719863393326,753.1289915615968
1731305769.8961253,808.8327534297532,771.3001707735699,609.39024668333,757.0386156052864
1731305769.9000256,819.7382946330263,771.4242623553638,607.5038456676474,762.0136788690833
1731305769.903926,827.4940723164717,771.5350158799466,605.6127041504797,761.9594948054774
1731305769.9060876,827.8892772702186,771.6312587432628,603.7167476554109,755.9697649366743
1731305769.9078262,820.8848741940694,771.7216366334369,601.8159095601178,748.2857915344792
1731305769.9098735,809.9283074311744,771.8135994648432,599.9101309893944,743.9459220192832
1731305769.9117265,799.3428080952169,771.9094154664178,597.9993577884479,743.9681839956984
1731305769.9156268,791.716243906134,772.0076961689281,596.0835321620048,744.2765866532559
1731305769.9195273,786.9789107514858,772.1063370978719,594.1625798762276,739.3211305362007
1731305769.919752,783.4191874079106,772.2042294931701,592.2364038069105,727.2516183528867
1731305769.923427,779.4318420587512,772.3013742486099,590.3049020435407,712.1573464168152
1731305769.924953,774.5689703616748,772.3982379086647,588.3680181470443,701.3910706443588
1731305769.9254563,769.4391406523409,772.4951852996963,586.4257942404454,700.1173104374006
1731305769.9273276,765.0012662435732,772.5922996327582,584.4783539977183,707.5243988810415
1731305769.931228,761.9522646857537,772.6894815657316,582.5257473826643,717.8316560549763
1731305769.9351282,760.4705348438703,772.7866062588179,580.5676995262102,725.3329539969226
1731305769.9390285,760.2526778439776,772.8836071990438,578.603501846899,729.2510255731004
1731305769.941039,760.74080420764,772.980476176006,576.6323927209796,734.0636216833195
1731305769.942929,761.4179125374449,773.077227316312,574.6545241134374,744.6960663922035
1731305769.9438183,762.0012494552575,773.173868307987,572.6718866520622,760.6635687664713
1731305769.9468293,762.4446939377536,773.2703928284462,570.6877935842025,774.667101407166
1731305769.9507296,762.8194144855457,773.3667866972213,568.7037624191818,777.6181105837022
1731305769.95463,763.1982226473853,773.4630355636123,566.7148756660021,766.4075037402827
1731305769.9547243,763.6077444978964,773.5591277712657,564.7083475621998,747.9415861444503
1731305769.9566216,764.0376664198748,773.6550533106276,562.6716336283217,735.6352931903426
1731305769.9585302,764.4680985326679,773.7508032455133,560.6109537910633,740.5074818168417
1731305769.9624305,764.8874208660727,773.846372639362,558.5671174334694,763.3742711354239
1731305769.9626834,765.2948206322028,773.941765177665,556.6020699547419,793.9787015513236
1731305769.9663308,765.6946421333422,774.0369925908113,554.7368889835014,817.8176431834097
1731305769.9702313,766.0907407797937,774.1320618175482,552.8669907709073,825.7681462304287
1731305769.9722042,766.4843643032282,774.2269525524011,550.7476699827823,819.573463215339
1731305769.974131,766.874873126896,774.3216056961855,548.1645719330759,809.3781474373519
1731305769.9780316,767.2612307541433,774.4159543760719,545.2874588017241,805.4875700588084
1731305769.9815488,767.6428940008739,774.5100089777629,542.9387827972565,810.7939351814795
1731305769.981932,768.0198892799128,774.6039441093825,542.2817365813022,819.5495495329835
1731305769.9858322,768.3924914408016,774.6980635219844,543.6361089448349,823.0226456159679
1731305769.987787,768.7609319345945,774.7925320466135,545.0630308438181,817.15322490708
1731305769.9896967,769.1253007677968,774.886955190846,542.7053302680137,805.9237169389415
1731305769.9897325,769.4855920135823,774.9802154843129,534.8169956221639,797.8412877316573
1731305769.9936328,769.8417834031585,775.0711440803419,527.2376304856473,798.6901089819783
1731305769.997533,770.1938846591644,775.1601592904385,532.2702266645034,806.7944124872462
1731305770.000414,770.5419474375035,775.2507727239441,555.973010831058,814.7866879658367
1731305770.0014336,770.8860534456795,775.3485977336021,583.6606565373343,816.1678365516306
1731305770.0033696,771.2262900342655,775.4559876795452,582.6448808076855,810.7826125264289
1731305770.005334,771.562713746007,775.5642992111998,527.9665731494323,804.440811421358
1731305770.0092342,771.8953149795244,775.6518709621893,431.1667197108364,803.2506962937163
1731305770.0131345,772.2240252606905,775.6982194751693,342.57355236722003,807.9100075162282
1731305770.0170348,772.5488141330317,775.7152724608828,318.5598681462326,813.0431360890537
1731305770.018952,772.8698593777847,775.7726638880894,378.9479001298756,812.019176196215
1731305770.0192792,773.1876444425963,775.9719116628091,492.00709024018556,802.8815853833154
1731305770.0209353,773.5027456443001,776.337573869324,600.3281903291154,790.2530882836465
1731305770.0246692,773.8152057612378,776.6684553283873,662.9395757585521,781.6892334922553
1731305770.024835,774.1238545865417,776.4967178529093,675.788865371678,781.5861965249659
1731305770.0287356,774.426493132698,775.3099380894909,657.3253643710171,787.6139377604945
1731305770.032636,774.7218193491091,772.982027202647,621.5453570041392,792.5084839100983
1731305770.0345347,775.0126063033543,770.0804402248447,569.706647963675,789.7761204111891
1731305770.0365362,775.3071742157492,767.7113308701187,506.36191959971165,778.7809248034623
1731305770.0381446,775.6147530386772,766.8778921059097,455.3346110162031,765.204448793448
1731305770.0404365,775.9333722034812,767.6864880759484,450.28645531266915,756.6221819493674
1731305770.0443368,776.2379684756676,768.9546204902404,503.3311548027728,756.9113393358942
1731305770.048237,776.4862871585851,768.7010396656456,582.4464206143061,764.0020078022401
1731305770.0501175,776.6575970213509,765.4549076521663,625.051656572239,772.3538257843878
1731305770.0521374,776.8114541227591,759.5548541403458,583.1758082538245,777.4007186603691
1731305770.056038,777.1076435835223,753.3363028961362,464.7685473649935,778.0582636681479
1731305770.0570097,777.7066826716157,749.789850685252,334.3903338743428,775.9914817315147
1731305770.0596416,778.5366883079502,750.5153213685619,267.5449268835696,773.3898038780662
1731305770.0599382,779.0870239923858,754.555351387013,292.03971647434525,771.4544476161974
1731305770.0638385,778.5604837206434,759.1733966610913,364.62759792380353,770.261479616821
1731305770.0657003,776.6268897830389,762.0852180610932,406.0569279891945,769.3721010454847
1731305770.0677388,774.445005083261,763.3190922315777,368.77872054314685,768.4056518062921
1731305770.0716393,774.8492009991587,765.0535183165048,279.87453206353524,767.2459934987968
1731305770.0755394,780.7436914873924,769.4998196997122,219.799926784354,765.9637717802552
1731305770.075875,792.4287606301426,776.6685984167274,254.08598350050414,764.6659154861936
1731305770.0794396,806.1992260391047,783.9892749869467,378.3260586535446,763.4081536098346
1731305770.0812829,815.9413163308169,788.1000450468626,523.8425655503335,762.189364265767
1731305770.08334,817.0179164079165,787.2872395171665,615.0926754965661,760.9846551716396
1731305770.0872402,809.7593100669859,782.672894261108,625.7433082881007,759.7744310028795
1731305770.0911405,799.862466375261,777.4232952997942,588.1349271199001,758.5535762111052
1731305770.094614,794.9906389975363,774.7387293774038,556.7376794821271,757.3263536066967
1731305770.0947404,799.6862360213732,776.0367805335003,563.6929379029505,756.0983506090168
1731305770.0950408,812.2676708372334,780.378099291532,602.7874820547886,754.8721894904714
1731305770.0968654,826.1202417893408,785.3043901302351,646.481850823924,753.647538252318
1731305770.098941,834.4102550146321,788.4239494449681,672.6988703920836,752.4229662920301
1731305770.1028414,834.5036114614202,788.7033264332202,677.6006147875522,751.1974338643903
1731305770.1067417,828.7370294134588,786.740104436048,670.3678150425827,749.9706870879215
1731305770.110642,821.4573601145187,784.1103611932999,661.6314919360138,748.7429230779428
1731305770.1124482,815.4103559379985,782.501568692711,656.6119599117923,747.5143418963894
1731305770.1136055,810.6310625739895,783.170819690328,655.1400255340507,746.2849430172532
1731305770.1145425,806.0937687656213,786.6237543402858,654.9001790036659,745.0545991478667
1731305770.1184428,801.6952207384871,792.2230332536478,654.1223025521942,743.8232569377953
1731305770.1223433,798.4197279502534,797.9895677720705,652.3837531045896,742.5910627839174
1731305770.1262434,797.0409580203275,801.2658973378317,650.1075894881864,741.358245203009
1731305770.1280308,797.242825927614,800.289443057086,647.8169888166208,740.1247271454704
1731305770.1295865,798.0238671652593,795.582176011322,645.7517371492814,738.889725656416
1731305770.1301436,798.5789103774637,789.8344426476935,643.8803038923327,737.6518922087438
1731305770.1324708,798.6878569533884,786.1570356793596,642.0745090409223,736.4104750716804
1731305770.134044,798.5297244180531,786.0389574033303,640.2449732556906,735.1671492781288
1731305770.1379442,798.3465289071347,788.5887245076805,638.375088843628,733.926736850115
1731305770.1418445,798.257236028653,791.4891775571167,636.4901498045805,732.6943048619418
1731305770.1436136,798.2539575527562,792.7302738795076,634.6179011459442,731.4680615702483
1731305770.1457448,798.2793435767643,791.762933298173,632.7700501729427,730.2328060436571
1731305770.149645,798.2906751214462,789.383517537851,630.9443399517075,728.9641872897895
1731305770.1513362,798.2782444206182,786.7032259562177,629.1341651202553,727.6519199021735
1731305770.1535454,798.2526190306352,784.1725836769073,627.3354210964272,726.3333563352214
1731305770.1574457,798.2264946597347,781.4487006703147,625.5478843120964,725.1023597529082
1731305770.159196,798.2055627830123,778.1144929440551,623.773379126817,724.0478436105486
1731305770.161346,798.1889597962281,774.5176443611408,622.0137087485431,723.1181120092722
1731305770.164559,798.1735540745999,771.9220557776554,620.2697773524794,722.0100531239435
1731305770.1652462,798.1572040151248,771.810468501886,618.5417725485038,720.2780711249276
1731305770.1691468,798.1395380664954,774.9035557631236,616.8296894232765,717.7984723119282
1731305770.1702013,798.1211822635709,780.586573295977,615.133673791971,715.3936858268377
1731305770.1730473,798.1028031220585,786.9935510064946,613.4540731059753,714.9453247738695
1731305770.1747787,798.0846691996101,791.6081547555851,611.7913297415379,718.2287390539764
1731305770.1769474,798.0667095429334,792.2143871812923,610.1458730700311,724.6982413282408
1731305770.1808476,798.0487491903579,788.0083836061583,608.5180783028292,730.3287682850493
1731305770.184748,798.0306736306957,780.3514238860724,606.9082796196052,729.9537308115382
1731305770.1886482,798.0124599714558,772.4361925898728,605.3167982994762,722.1870608625732
1731305770.1890666,797.994131347075,767.692209304313,603.7439596032249,712.1002522789264
1731305770.1903615,797.9757068291141,767.824927449651,602.1900941576272,708.0367485736269
1731305770.1925485,797.9571807104807,771.8795373352524,600.6555317048995,714.7663155330561
1731305770.1964488,797.9385273705498,777.0111372236588,599.1405953729977,729.0301489456089
1731305770.1995313,797.9197141087614,780.3543322046223,597.6455996521247,741.4872478080562
1731305770.200349,797.9007093991756,780.6785343996588,596.1708511358718,743.5913845566746
1731305770.2042494,797.8814840354014,778.8482756075026,594.7166498996637,734.0096087887897
1731305770.205944,797.8620085217761,776.9838916259118,593.2832902085107,719.7203819094107
1731305770.207932,797.8422504999158,776.9433594923493,591.8710604152994,711.0313543646243
1731305770.2081497,797.8221738188772,779.0451742687684,590.4802424998999,714.2059816707084
1731305770.21205,797.8017389158839,781.8250419620857,589.1111116709951,727.102349856448
1731305770.2159505,797.7809035489934,783.0456698572192,587.7639361765065,741.0670668988597
1731305770.2198503,797.759623252259,781.3203052164772,586.4389772584909,747.6982209187348
1731305770.2215266,797.7378514153004,777.1671990844166,585.1364891379817,745.2920577727646
1731305770.2237508,797.7155391745644,772.6777652863227,583.8567189649419,739.8796591203135
1731305770.226797,797.6926353090971,770.0733224355207,582.5999067301639,739.9580236021346
1731305770.2276514,797.6690862253869,770.2978205627736,581.3662851642406,749.0937930946557
1731305770.2315516,797.6448360351054,772.6687707694311,580.1560796450007,762.4001770912321
1731305770.2345035,797.6198267045069,775.6517820739,578.9695081196359,769.924717575625
1731305770.235452,797.5939982358797,777.938133893754,577.8067810371601,764.5203314308869
1731305770.2371094,797.567288791254,778.9434137998405,576.6681012848239,748.0497738840446
1731305770.2393522,797.5396346260585,778.5508174723292,575.55366412505,730.7937401933157
1731305770.2432525,797.5109697765154,776.6598455596554,574.4636571326886,724.1499425494592
1731305770.2456625,797.48122571351,773.1856554179781,573.3982601337333,732.1809356441141
1731305770.2471528,797.4503315078181,768.557070987983,572.3576451463306,748.7713158151496
1731305770.251053,797.4182150404353,764.0867185359298,571.341976324104,762.7587281301118
1731305770.252692,797.3848049898113,761.5376099863919,570.3514099012903,766.8269718349677
1731305770.2549534,797.3500318482767,761.9541962553952,569.3860941391239,762.7991744148286
1731305770.2588537,797.3138253155547,764.7131409745607,568.4461692730758,759.1176832677105
1731305770.262754,797.2761071677292,767.7958250930559,567.5317674607055,763.0597326498975
1731305770.2645278,797.2367840838874,769.2372088865984,566.6430127299286,774.6047995218347
1731305770.2666545,797.1957509234076,768.5401278586626,565.7800209274938,787.0253660141913
1731305770.2682748,797.152913677896,766.8191573977352,564.9428996674808,793.1380795074086
1731305770.2694762,797.1082249605585,765.6401288380207,564.1317482797174,791.4032332744522
1731305770.2705543,797.0616972059628,765.715010940421,563.3466577580705,786.700173164181
1731305770.2744548,797.0133449594799,766.6094968109716,562.5877107084457,785.5736782412508
1731305770.2783551,796.9630462238194,767.5179933554653,561.85498129595,790.4492830687768
1731305770.2822556,796.9104171909855,768.134508862649,561.1485351902813,797.8894883057574
1731305770.283393,796.8549003628531,768.7079349295485,560.4684295085588,802.2404156700662
1731305770.283857,796.7962211766488,769.3720615238605,559.8147127560314,801.2725798751156
1731305770.286156,796.7350383297826,769.6701764737709,559.187424767048,798.6326454758234
1731305770.2900562,796.6730995395193,768.9425830072909,558.5865966494665,800.6620822142298
1731305770.2939565,796.612020424291,767.1987909393747,558.0122507326661,810.1928854380025
1731305770.2978568,796.5506353626687,765.4405035282406,557.4644005118221,822.9098165289181
1731305770.29944,796.4828773308686,764.9092366987813,556.9430505740821,829.9238317621814
1731305770.301757,796.3999710235453,765.8942064497506,556.4481964965976,824.8265087209783
1731305770.3022585,796.2994741377626,767.3138870332485,555.9798247307947,809.428524633515
1731305770.3044486,796.1971114969764,767.63246459242,555.5379125229802,793.2546259912463
1731305770.3056574,796.1279143669987,766.3893129619469,555.1224279314454,786.8953882912431
1731305770.3095577,796.120854394281,764.9406607835064,554.7333299360033,794.2532681121113
1731305770.313458,796.1487864924451,765.6248744437869,554.3705684921866,809.6348748979665
1731305770.3150227,796.0940225290387,769.9532839609542,554.0340842626492,821.936375929645
1731305770.3173585,795.8012620621488,777.3339858199873,553.7238078684817,822.7638845275881
1731305770.3211236,795.259727484013,785.4065746171992,553.4396589879753,812.3465792816554
1731305770.3212583,794.830081608912,791.6722839083166,553.1815462820318,798.8112841544975
1731305770.3251588,795.2732051806904,795.008809782983,552.949369217951,791.5250461551412
1731305770.3290591,797.3608840453832,795.8559462488594,552.7430215205118,793.8258726362162
1731305770.3306053,801.2196993533277,795.153728715047,552.5623932491094,800.859937265672
1731305770.3329594,805.9602152161428,793.2755507645232,552.4073665106805,804.0258226691974
1731305770.3368597,809.9858703943578,790.0859113285658,552.2778024448214,798.1654484944889
1731305770.339421,811.7787504124171,785.9657271009346,552.1735266643952,785.6197339804228
1731305770.3399887,810.643536183946,782.5112274932294,552.09433210369,774.1049577591737
1731305770.3407602,807.0339577532109,781.8563185742256,552.0400180560806,770.4254116156139
1731305770.3446603,802.3442133924361,785.0088958776024,552.0104564840985,775.1460089567323
1731305770.346188,798.2891662453471,790.7514927407383,552.0056252047123,782.3263547041133
1731305770.3485608,796.1884789063382,796.2785356574431,552.0255155813354,784.3776282217634
1731305770.352461,796.4565733600018,799.1312352773301,552.0698822472086,778.1831258383157
1731305770.3563614,798.4019953613165,798.7514869673246,552.1379889373522,767.6835461900856
1731305770.358854,800.3241253862124,796.364195349139,552.228714546206,760.8479001226518
1731305770.3602617,799.98868857586,793.5060635940755,552.3413428785797,763.3195426570068
1731305770.3617706,795.6043787277063,790.7188639642407,552.476794766657,773.7107253098474
1731305770.364162,787.0767706952563,787.5759562522658,552.638098027779,784.3497978689823
1731305770.3680625,776.7305340106229,783.7785653947809,552.828400837117,787.0390360389324
1731305770.3719623,768.5657838048947,780.0275184450304,553.0461575010911,779.3534608336962
1731305770.3743932,765.990485614757,777.712248037259,553.2807339417657,766.4889886987817
1731305770.3758628,769.3994780337526,777.7258348225632,553.515377829648,757.1757366950238
1731305770.3773532,775.6164913998116,779.6121136498539,553.7430053496699,756.904531346343
1731305770.3777194,780.0904181953072,781.9190433752584,553.9888582814792,763.8514526719786
1731305770.3797631,780.4271847174082,783.442364584195,554.3162125470288,770.7344715312728
1731305770.3836634,778.3407780694088,784.1800014818621,554.7843694438561,771.0845782876384
1731305770.3875637,778.1009487188734,785.1208158816128,555.3567377816221,764.7670610874954
1731305770.391464,782.5476443440683,787.147286173237,555.8265417196145,758.045221273794
1731305770.392936,790.0944949545091,790.1724256646521,555.891904809131,757.9478391555147
1731305770.3953643,795.4825922776906,793.3092392406653,555.4704568338921,765.6664357028714
1731305770.3965845,793.8153865840266,795.7620478412382,555.1173739918063,774.8371370746197
1731305770.3992648,784.5901259339904,797.4415336454242,556.0871787313317,776.5717524267075
1731305770.403165,772.5323004397853,798.7388797953872,559.5101844806056,767.2261509082103
1731305770.4070654,764.6607672588182,799.8693336780606,564.8087336660648,752.221048766091
1731305770.4085186,765.7259741734167,800.5777957498483,568.9621244436586,742.2567604863316
1731305770.4093657,775.0510897971878,800.4417091048877,569.1186557699174,744.6415272250401
1731305770.4109657,786.7438533478918,799.2831838867465,568.1900871430752,756.865453108236
1731305770.414866,793.1896461216967,797.1847414109534,577.0754994513953,768.1183442286546
1731305770.41545,789.7431848080129,794.2103406097812,606.8466544821428,768.0374860854787
1731305770.4187665,777.6297100302155,790.3301678715501,654.7724913434766,755.7138975963378
1731305770.4226663,763.0413097300845,785.7418232716421,698.4056002176441,741.2616907495869
1731305770.424101,752.9700957552371,781.1968379848342,707.7396379948946,738.1170878560349
1731305770.4265668,750.7005732411295,777.82557826371,668.9429086906349,752.063582907554
1731305770.4304671,754.142171338295,776.4528425000088,600.2237407044844,776.0606149986867
1731305770.4343152,758.0168496803788,776.9487632438213,543.6271863621804,795.3611462190456
1731305770.4343674,758.0336606853763,778.1946172340386,535.1950260991592,798.8813177460055
1731305770.4382677,753.8250886636486,778.7625008155974,575.8560603268348,787.5982354608552
1731305770.439684,748.5614697873767,777.8613913135218,628.5558822197424,773.2678603751907
1731305770.442168,745.8520164212068,775.8954327521285,647.0498054863226,768.7076476073883
1731305770.444338,746.6787484798878,774.2117690283917,613.6429510494629,777.5880843761529
1731305770.4460683,748.9654356696072,774.1424236744726,553.4329631071861,791.7996185572284
1731305770.4499686,749.9818106997075,775.9790510277339,512.9289876316574,798.2141385916575
1731305770.4531803,749.1289884579436,778.6701756130802,523.1339126124915,789.2154016013999
1731305770.453869,748.2521711841227,780.5438076227022,579.778169835321,768.591127853974
1731305770.4552665,749.1030767893805,780.5055463828817,654.5179830375528,748.3148017341881
1731305770.4577694,750.6371504956317,778.7071000841045,721.1003487891602,739.1436345501703
1731305770.4616697,749.2635687204106,776.1510727282723,770.0100391757105,742.8018882826206
1731305770.46557,742.2711772777983,773.7018502450499,801.8178246415853,751.8568256552174
1731305770.4694705,731.2877762377612,771.5001467760363,813.06416052178,756.7498410978247
1731305770.4708493,722.2684933482345,769.288926951101,794.4104561917832,753.6274895799619
1731305770.4720457,721.5452359504982,767.1823478871644,744.712521554467,746.542633432414
1731305770.4733706,730.9706621085046,765.9645258348902,684.4469531703662,742.8665861539623
1731305770.4772708,746.0463422259814,766.5188955298726,648.9506309874524,746.4035945162599
1731305770.4793105,758.6155702948402,768.9105462688971,661.0486249058977,754.077185463882
1731305770.4811711,762.2367303041608,772.0521901846988,706.5313171749556,758.6484196323066
1731305770.4850714,756.3546958665078,774.3865115518822,739.494125831222,754.9514568416065
1731305770.4864318,746.2607904133213,775.0782784057549,719.5143544390851,744.4576350112989
1731305770.4889717,738.9399004690591,774.689691062047,649.933227933087,734.4057053862172
1731305770.490911,737.9795022956939,774.6997206403698,579.7129068182022,732.0938582831417
1731305770.492872,741.4104890735837,776.2205932797415,562.5162931556241,738.9178268198226
1731305770.4967723,744.0322657650745,779.0042713381736,608.8781179948496,749.1262420715865
1731305770.5006726,742.1862550935936,781.6156875278973,677.3643753504601,754.4648510983648
1731305770.5020144,736.9754186253252,782.6074953952206,714.3388190453577,750.8904756005122
1731305770.5045729,733.2748913006056,781.6254077827591,703.973934049317,741.7048127477179
1731305770.5084734,735.4601048617623,779.5040196009054,680.002688785198,734.5302105028042
1731305770.509776,743.5315198629245,777.4318592837903,689.1840111258371,734.8233095223609
1731305770.5123737,752.8884267259792,776.0842063101561,743.5980554162222,741.4316116691298
1731305770.5142827,757.8751208527425,775.4367073865709,807.7237351420061,747.7704936657183
1731305770.516274,756.1603597596657,775.1522604685948,830.8736101968831,747.4630872884741
1731305770.5175972,750.503869516338,774.9747784091649,792.6541397637857,739.7483024110517
1731305770.5201745,746.6732992352097,774.8223422671907,718.7619625041925,730.2700274308048
1731305770.5240746,749.2204527139697,774.695387647816,653.8810676362214,726.5724440787512
1731305770.5279748,758.2270750904405,774.5962362681613,619.1440914672019,731.8610781143105
1731305770.5286417,769.1642578740419,774.5122325988614,596.0096065149727,742.0975512515002
1731305770.5318751,775.6962038160689,774.4275118726542,552.7819956904581,748.9731322774454
1731305770.5331798,773.4030109797224,774.3332039110254,487.53185635590876,746.5683860777898
1731305770.5357754,762.1156206145155,774.2284703340599,442.754140292431,736.3458735237716
1731305770.5396757,745.6803945868495,774.1162649959625,472.99374563205214,726.2921532854004
1731305770.543576,729.571204039355,773.9992515194531,593.560582353179,724.7466321178298
1731305770.5474763,717.931521602558,773.8782664759511,759.2592315308766,733.8375504380001
1731305770.5475068,711.8155223006961,773.752813379922,894.350584677101,747.7782766142494
1731305770.5487626,709.5325129649977,773.6221132551561,946.6830473602854,757.3249616639115
1731305770.5492554,708.5767226621334,773.4857355314706,918.8794087977208,756.8167964073518
1731305770.5513766,707.5732512132244,773.3436535718437,854.6870987975284,748.2875711082999
1731305770.5552769,706.7955740990931,773.1960179735703,799.6216454292737,739.4676878403179
1731305770.5591772,707.1034167988055,773.0429501779453,771.9415324963618,737.2463739651403
1731305770.5630774,708.5854336550013,772.8844737936578,762.8388184700667,741.8245896210776
1731305770.5643451,710.4287756682154,772.7205480389083,756.0778486372055,746.4682679730698
1731305770.566372,712.2084298299408,772.5511241452842,744.1415140690648,743.3769028263964
1731305770.566978,715.1227709889426,772.3761763161925,727.5280233324415,731.0064230900056
1731305770.5708785,721.499739840581,772.1957023913014,703.0660370114736,716.6060433098291
1731305770.5747786,732.5974570324308,772.0097112590233,657.8163857541068,711.4064759923425
1731305770.5786788,746.6759479956023,771.8182128549461,578.7872540044352,721.9683738183135
1731305770.5799277,759.3951172601876,771.6212159133738,471.5406261611429,744.5249899977771
1731305770.5825791,766.5435157190453,771.418730260204,368.7294997408371,766.8606754993816
1731305770.5842278,766.923713134319,771.2107683830068,315.53597121321957,776.3518790283748
1731305770.5852373,763.0460597270677,770.9973438755712,339.78179145447587,768.1861127304651
1731305770.5864794,759.190425521098,770.7784690011632,430.9818636180722,747.9283804774108
1731305770.5903797,758.5261639392386,770.5541567446678,547.0149596612931,727.0085929541953
1731305770.59428,761.5100024906053,770.3244309945994,642.7616612103474,714.8636830526797
1731305770.5955105,766.4961271238814,770.0893401190125,695.7704421135098,713.6261818817823
1731305770.5981803,771.668419144044,769.8489578642359,709.5414734944044,718.8612496115501
1731305770.6020806,776.5282685390198,769.6033531145791,698.6757757052712,724.8152873388937
1731305770.6041026,781.7935675632458,769.3525312788362,675.6297233134117,729.1516573744043
1731305770.6059809,788.0621380454494,769.0963951312486,650.4805470430966,733.2137631753059
1731305770.6098812,794.721282263817,768.8348080213258,635.5546157174884,738.3614291345497
1731305770.611093,800.350593600346,768.5678034156047,640.6044842183098,742.5945542058713
1731305770.6137817,804.3465457244016,768.2958302610215,658.5496307795293,741.1645429746156
1731305770.6176815,808.0485692699748,768.0197249888623,658.7712998751347,730.8622350061961
1731305770.6192002,813.8482408663424,767.7400882545993,603.1392358878302,714.0137721585932
1731305770.6215825,822.7086335688688,767.456182873061,478.4818598652656,698.2464492709261
1731305770.6229675,832.3729746897432,767.1653200276868,318.9000290226611,691.6877010341265
1731305770.6254826,838.2914819472023,766.8642741747265,193.82905986611365,697.2114076633605
1731305770.6266756,836.9453353254776,766.5533622602884,164.52743647459744,710.2987232452512
1731305770.6293828,828.9378035695261,766.2407956637738,240.9461146495005,722.3147665432633
1731305770.6332831,819.1487579908176,765.9413526862461,375.0258967973642,726.7718538068355
1731305770.6371834,813.5622591825985,765.6638056240287,497.41902703885216,723.7750402261042
1731305770.6410837,815.0903631488919,765.390579813884,566.372477471993,719.2107744542092
1731305770.6418333,821.549813560085,765.0692714972588,586.9950003551176,719.3714655711373
1731305770.6422584,827.3027167498437,764.6451993751336,588.443434823516,725.4058999450071
1731305770.644984,827.364224588484,764.1455274206396,586.977960442509,732.2295642646436
1731305770.6488843,821.0749054618669,763.7716174754715,573.4461629121398,732.9555873470131
1731305770.6527846,812.8347697939727,763.8967120905642,534.8172018672357,725.2843852100309
1731305770.654173,809.4497056687242,764.862028667907,482.0148623235416,714.4353783041618
1731305770.6566849,815.866685640384,766.5900713095858,449.3428656179357,709.8429281274068
1731305770.657841,832.0143184312901,768.2911094809705,461.2818901507345,717.9659984420682
1731305770.6605852,852.6363451737044,768.6919834668549,499.15600951597355,736.9326111103129
1731305770.6606984,870.1067329341304,766.9127785040993,505.1736716787908,757.4569666631726
1731305770.6644857,878.4746885147235,763.4253631319184,427.7071182575977,769.5029778295916
1731305770.6683855,876.3479237719877,760.1414924975034,270.744398517587,769.562996130539
1731305770.672286,866.9986651687032,759.2227676145237,102.0320934286267,762.9115768893539
1731305770.6734238,855.8837144479008,761.3786922491337,8.468413616520138,759.1634680602482
1731305770.6761863,847.4758726122426,765.0990165525596,33.56902237361942,764.6791461646075
1731305770.6795635,843.5691790612667,767.6380981498191,147.91459419013768,777.6851593440996
1731305770.6800869,843.7557010943989,767.0783156658174,274.9499155557383,789.7388972701997
1731305770.6839871,846.9337280840175,763.8086424941486,348.05777751292436,792.3027972056468
1731305770.6878874,852.2319449146096,760.2103836910641,351.9998153084313,783.4426179612095
1731305770.6890063,858.848765539294,758.8436602927236,320.02192832550605,769.6722556495637
1731305770.689145,865.5866770379503,760.6210328327863,297.07498876212196,761.555215256703
1731305770.6917875,870.9894931423082,764.325044811317,304.20619829988965,766.2176939485777
1731305770.695688,874.1221716257704,767.6118533926942,331.1167245663743,782.2502384087761
1731305770.6984289,875.278484590288,768.5126873589896,355.1610172542384,800.88706837727
1731305770.6995883,875.95610337438,766.3412022709947,363.22343660550416,812.7611806457544
1731305770.7034886,878.0643373506391,761.7122700387018,355.9048687107836,815.1055554307228
1731305770.704589,882.8760828216284,756.1261827467116,335.32507804492263,813.5483787010268
1731305770.7073889,890.3007337659332,751.5420669843417,295.5246827696236,816.7564979377884
1731305770.7112892,898.7530980963918,749.8282880064987,229.91971124328734,828.2138257498708
1731305770.7151897,905.65228360253,751.8466385886351,148.7123986636874,842.2427556798332
1731305770.7172942,908.5627708360335,756.5560949257479,84.42835588985082,848.1019531859904
1731305770.7190895,906.767569307858,761.116672246097,73.3456869840117,839.0816679446785
1731305770.7201717,902.3527446474429,762.5002358848715,125.88579606285936,818.9701422314298
1731305770.72299,899.4713433153375,759.7136589859495,213.31509174379818,800.234904290505
1731305770.7241175,901.5467256807281,754.8207815946788,285.0783094267026,795.1830546012875
1731305770.7268903,908.3893613839847,751.6827777293915,303.0011975571255,807.2671685101963
1731305770.7307906,916.1512307448047,753.2395187250859,263.6734599451121,829.4684476767045
1731305770.7346911,920.9237051567151,759.4463674002735,192.99339531396168,850.5521450937827
1731305770.7357545,923.0744484509167,767.4038655386125,123.0950382335231,863.3918835577293
1731305770.736159,927.9282313270269,773.3583610700426,74.85799902436344,868.3275366975962
1731305770.7385914,941.2442452477891,774.881157898282,57.65059611856998,869.5547541927765
1731305770.7424915,962.927268623371,771.7532164303848,76.80828024175707,868.9905412956268
1731305770.746392,984.8196666363222,765.3965740342729,132.52961364066687,863.9404561829814
1731305770.7502923,995.5330115132394,757.8063708386678,208.513868981666,850.731475690105
1731305770.7513373,989.1811521854825,751.0083538711472,267.42787632910915,830.4769048885767
1731305770.7541926,970.9042679210768,747.1907030058894,269.5007860541351,810.9934429050235
1731305770.755025,954.0773019083207,748.6689225691306,206.49883091090317,802.4278113408028
1731305770.7580929,950.7692076982177,756.7945857986471,119.73366912729574,809.9262384744644
1731305770.75909,962.7935846026577,770.1729952853266,76.51798367252297,829.4538277387426
1731305770.7619932,980.5401070652983,784.0061225728709,116.40001961424394,850.3399091063131
1731305770.7658937,990.6085857212865,792.1620463057257,213.17178718254678,862.6247656087224
1731305770.7669196,986.1095054553359,791.2175470732276,292.39600564424967,863.4688713574755
1731305770.7697935,971.3530159856834,783.3170988642989,295.24005370160296,857.7990692021068
1731305770.773694,957.4175043744183,775.0347628034731,232.14828272563597,853.0904382626089
1731305770.77389,952.7427936935314,772.7361994384762,174.24324700588892,852.7865357120186
1731305770.7775943,956.7989853685804,778.1437674557309,187.82459068815996,853.7042055206556
1731305770.7814946,961.7157416889631,787.6763507231362,273.23717460010664,849.3684198537472
1731305770.7825022,959.6329120199101,795.7811742931831,366.49061997546147,836.4100446227554
1731305770.785395,949.0066677750826,799.172500298476,401.5194062541253,818.6986406777671
1731305770.7892952,934.8213574067673,798.576832947885,373.0110649892835,805.6070992350495
1731305770.7927551,923.2769910933977,797.103220903776,341.033364985382,805.3653212174323
1731305770.7931955,915.8282495373583,797.1430245767004,375.27817571148444,818.4106764536677
1731305770.7940624,907.431893180368,798.4907829096677,491.87936740958196,835.9802715839598
1731305770.797096,890.3300572092021,798.9610697631848,639.1771634906069,845.512607243948
1731305770.798085,860.4315760862755,796.637413817175,742.2096597674965,839.2708644835193
1731305770.8009963,821.1675871183614,791.7259688788247,764.3732779084692,819.8081929488043
1731305770.8048966,781.423962436478,786.5131620034769,732.8933373297937,797.9328445629641
1731305770.808797,749.1491822913812,783.5562296170764,709.3060684298367,784.5915946906513
1731305770.8116205,726.49121363644,783.6447486735865,734.62538894619,783.0898975896794
1731305770.8126972,711.2139909570058,785.2159959155891,798.7808974190115,787.8657979998072
1731305770.8136675,702.7504716445923,785.7360817139412,858.9239323209868,790.4731198611898
1731305770.8165977,705.749815725109,783.9581913755802,885.2663710069304,787.2821849748506
1731305770.8204978,725.8044091625101,781.1517365706992,889.1876678508671,782.1353895021157
1731305770.824398,760.3486434191751,780.1192957295654,908.2628180897982,781.8694999243156
1731305770.8282983,794.1526960428967,782.6881805994402,965.8621498445475,789.0133038510979
1731305770.8290348,805.9983473816382,787.836053742081,1046.2108979065974,798.4662669285229
1731305770.82925,782.9150983773072,792.2226067574344,1108.0150188544574,801.4348345074503
1731305770.8304858,730.5911112540429,792.824281618421,1121.6500690608486,793.4253144653117
1731305770.8321986,670.9961514140031,789.4604306712966,1094.6117240290496,779.2696219746533
1731305770.836099,628.7433735381362,785.0391545952912,1063.7095269680399,770.391631984147
1731305770.8399992,616.6538846546257,783.317750868312,1063.380732104034,776.0542760726945
1731305770.8438995,630.6301241350209,786.0772837175879,1098.7593906173443,795.5844702717902
1731305770.844833,655.4875388241287,791.9869984214378,1145.4191150184374,817.9500089818475
1731305770.8478,675.2374431237666,797.8557593315509,1173.5651858151255,829.1080677050769
1731305770.8493507,680.3011933971701,800.981222409364,1174.1193733079904,821.4252190034535
1731305770.8517003,669.0645940260675,800.6778692903408,1163.9131186109848,798.176132242612
1731305770.8556006,645.7635145042441,798.1140700178511,1166.40072005858,770.3079728401211
1731305770.859501,617.4131337311417,795.0752758493766,1186.4698877978549,748.6480841628082
1731305770.8604157,591.095212440842,792.8224412342015,1203.7054352745508,737.7562804620046
1731305770.8634012,572.0571118547552,791.6917990680341,1191.638177657917,735.3940130615304
1731305770.8640072,562.8931733500676,791.3473844844428,1145.3921715878278,736.422547106399
1731305770.8673017,563.6460840459104,791.2707550738033,1090.8406448509654,736.9130245050438
1731305770.8682165,572.2353702793296,791.1203743296863,1065.3952855645255,735.6354728986967
1731305770.8712018,584.9820589931801,790.8158584674838,1087.8315661643014,733.2022134519334
1731305770.875102,597.6832163824295,790.4301336176324,1144.5519631034658,730.6066648834413
1731305770.8759985,607.3158170331061,790.0535034280425,1202.7558302007824,728.3760567854766
1731305770.8790023,613.2348570854195,789.7263818819048,1235.74476428049,726.5046789972984
1731305770.8829026,616.7602517674227,789.4422067227899,1237.6843941013772,724.7601879851749
1731305770.886803,619.6631698087247,789.1782543574551,1219.3680237869658,722.9575250952605
1731305770.8870816,622.9870904997589,788.9190491771718,1194.6812030690867,721.0473230379548
1731305770.8907032,626.8706697229466,788.6619160047073,1171.5097300613593,719.0691936630825
1731305770.8915808,630.9963157454222,788.4113726236423,1151.3896985679048,717.0760797452972
1731305770.8946035,635.0548706798022,788.1722242583901,1132.8379218656332,715.0934220129177
1731305770.8985038,638.9357883099158,787.9464132783345,1112.9171696052035,713.1187996902786
1731305770.8989794,642.683394766449,787.733450847664,1087.0814127124736,711.1391907572537
1731305770.902404,646.3808786879677,787.5321182822427,1050.738430975115,709.1450205169846
1731305770.9059467,650.0760111136173,787.3416510211472,1003.7586210640359,707.1340517377398
1731305770.9063046,653.7713142158942,787.161960396108,954.3783491131353,705.1084779043813
1731305770.9071634,657.4481071309357,786.9933032348878,917.0926728740567,703.0709113886152
1731305770.910205,661.0900990447761,786.8359205590365,903.2137131592609,701.0224035196935
1731305770.9141052,664.6920495111517,786.6898887405475,910.3578891747209,698.9625753333013
1731305770.9180057,668.2566002821688,786.5551549726899,921.0358349419913,696.8905740579586
1731305770.9219058,671.7880029929985,786.4316297941587,914.6751901105323,694.8057870638903
1731305770.9227462,675.2884319367312,786.3192463191825,884.7262211659576,692.708005539938
1731305770.924812,678.7577119526679,786.2179681442585,845.2756415864924,690.5972493042985
1731305770.925806,682.1946842742916,786.1277702525026,819.5299440397384,688.4735553095155
1731305770.9297063,685.5984229967696,786.0486202455241,819.8258757134431,686.3368828310713
1731305770.9336066,688.9686272391732,785.9804714513058,837.7214400557395,684.1871287512113
1731305770.933952,692.3054139363911,785.9232654556805,852.8655977829729,682.0241817518865
1731305770.937507,695.6089824315127,785.8769371116632,850.7092069257699,679.8479600039736
1731305770.9383287,698.879433475592,785.8414174791047,831.4985193378193,677.658416870174
1731305770.9414072,702.1167676111692,785.8166340179874,803.7209958480872,675.455525404407
1731305770.9436774,705.3209615746472,785.8025094667762,771.644315337905,673.2392593390232
1731305770.9453075,708.4920303846823,785.7989608924433,731.4256608677938,671.0095859091186
1731305770.9492078,711.6300443589538,785.805899525064,679.838586399304,668.766480537942
1731305770.953108,714.7351159870357,785.8232311890397,625.7058771626804,666.5099613680711
1731305770.9539113,717.807381896951,785.8508567638079,590.2528225700594,664.2401189105195
1731305770.9570084,720.8469938157247,785.8886721112924,592.033322794347,661.9570946808556
1731305770.960909,723.8541188664101,785.9365672652867,626.7153188234611,659.6609753092525
1731305770.9625423,726.8289435030592,785.9944254030637,659.780372317441,657.3516448811487
1731305770.9648092,729.7716763494432,786.062122925989,643.5303028145834,655.0287540993538
1731305770.9687097,732.6825485800816,786.1395319978062,551.202640106065,652.692005021864
1731305770.9689243,735.561812782851,786.2265250928101,403.6405283739492,650.3417553862778
1731305770.969494,738.4097416454118,786.32297763674,264.1419255450644,647.9794877013621
1731305770.9726098,741.2266271438832,786.4287624449373,199.70306979780366,645.6072817172384
1731305770.97651,744.0127802045193,786.5437332545712,235.77033271834705,643.2257349617014
1731305770.9804103,746.7685305229925,786.6677069141969,339.9742027303049,640.8312953570497
1731305770.981408,749.4942262965275,786.8004684248442,447.04679286546815,638.4161035371192
1731305770.9843106,752.1902338022613,786.9418218998625,502.35177243428564,635.9739040336641
1731305770.985077,754.8569368723543,787.0916743621846,488.58758433105567,633.5114861558891
1731305770.988211,757.4947363458829,787.2500742160557,420.42864338916866,631.0563696222777
1731305770.9921112,760.1040495633799,787.4170884406906,322.22733898352067,628.644616668704
1731305770.9960115,762.6853099416885,787.592483193544,213.80517448600528,626.2802362806068
1731305770.9999118,765.2389666135994,787.7754114583407,113.06850895767002,623.8878533520311
1731305771.000273,767.7654840270094,787.9645712783756,42.92926406231982,621.3195696127943
1731305771.0006597,770.2653413235994,788.1592289771077,26.375210254394574,618.481181849792
1731305771.003812,772.7390313851952,788.360767662537,69.19281422429458,615.5626120590744
1731305771.0038967,775.1870597501373,788.5732074818471,146.99773711005344,613.2065977400907
1731305771.0077124,777.6099440421592,788.8005792573739,213.5179751631846,612.3832159834334
1731305771.011613,780.0082146507067,789.040801008205,228.96172937413115,614.0163743450333
1731305771.0155127,782.3824165560417,789.2803371558484,187.47837286111485,618.9783531184971
1731305771.016242,784.7331103815076,789.4984951189696,120.66367523797055,629.034638435224
1731305771.0191383,787.0608693294821,789.6880591262571,73.25483936113358,647.9007929873438
1731305771.0194137,789.366270200494,789.8844342117117,70.88201990348341,680.1963408343978
1731305771.0233138,791.649882902675,790.1737495367349,106.22221837857313,727.4096359998833
1731305771.027214,793.9122708955169,790.644925865683,152.7677263910001,783.6448916111718
1731305771.0311143,796.1540156212824,791.2954981415883,190.28865821341094,835.7693812352255
1731305771.0318246,798.3757604206352,791.9974413563544,216.70171015549676,869.685891324628
1731305771.0350146,800.5782351301193,792.6784435494321,236.7169660684322,879.0035570597685
1731305771.0380037,802.7621991690199,793.7137456129192,242.90739905681733,869.5408415911048
1731305771.0388691,804.9282769148699,796.1739809205793,213.78468295690192,855.7579216558486
1731305771.038915,807.0767809915327,801.4176059535926,135.73426034310052,851.313925303202
1731305771.0428152,809.2077635160368,809.9661028681929,28.283625400645747,860.5073043298663
1731305771.0467155,811.3215224009926,820.4431032013285,-56.15628258573156,876.7359471353362
1731305771.0474074,813.4194295540304,829.6898260509824,-64.87656660977075,888.7482724925618
1731305771.0506158,815.5043032417005,834.3553943563122,15.92003063533275,889.5057370433047
1731305771.054516,817.5791778469479,832.8968603616045,150.44569170675533,880.6905324559154
1731305771.0568688,819.6441327219628,826.4072414260104,280.8761651274313,869.7616664146009
1731305771.0584164,821.6932145572848,817.674186524115,367.3702651948455,862.7261845505005
1731305771.062317,823.71605046835,809.4121600161935,405.83259668061555,859.0780159646683
1731305771.06299,825.7080284509348,803.1431044865064,414.0470142529665,852.9820634240116
1731305771.0662167,827.6856099315969,799.2917065429364,407.8140433180156,839.1647459396553
1731305771.0701172,829.6913212819014,797.8315677650735,393.23416252343577,818.2013323826884
1731305771.0738416,831.7674745571833,798.5479229945415,377.97920871167946,796.9099667082762
1731305771.0740178,833.8953318131194,800.7093565714787,380.89177570037674,783.8399825384548
1731305771.075734,835.9422925439771,802.7119418946468,420.97175522930456,783.4907846458893
1731305771.077918,837.7044708343145,802.3747147427869,491.768580429724,793.422829926467
1731305771.0785728,839.1091546228034,798.0770007524216,549.144007746251,806.1415071659299
1731305771.0818183,840.494458788726,790.1806254101532,534.3805070393468,814.3582481024682
1731305771.0857186,842.660617372083,781.5786183342236,422.02488341909964,815.8363333152917
1731305771.0896187,846.3110404630992,776.3938575144314,252.28681185547288,814.0952456584283
1731305771.0935192,850.8726878999166,777.1952517057005,113.23049634708877,814.3189859159799
1731305771.0941553,853.5457444900744,782.7297496138539,79.66050809915993,817.9900128552213
1731305771.0945995,850.1406723766656,788.2924711389193,157.2656161157252,821.2746265726873
1731305771.0974195,838.4643614269214,788.8253077583505,280.66356122369393,818.9761125680978
1731305771.1013198,822.1380261735059,782.382260924107,368.1846358251204,810.5309954718592
1731305771.10522,810.5279233038168,771.2140511688086,385.74790239319884,802.224807542009
1731305771.108814,813.0798242892585,759.8517714383391,365.16500514610203,802.9932724205925
1731305771.1091204,832.1693552394754,752.0757113371105,365.5084329019456,816.954252631624
1731305771.109738,860.6478693225475,749.1718928325157,417.60419139060036,838.9006403765494
1731305771.113021,886.1208682710105,750.2396111429921,502.4224698216349,856.756206051957
1731305771.1134646,898.5054541716861,753.442002569039,577.3399261683014,859.4901600505151
1731305771.1169207,895.4662671708606,756.7849049541958,618.9811187741805,844.6791232569192
1731305771.1208212,882.4456411375897,758.1949431327947,640.4236639140456,820.0814736252688
1731305771.1247215,867.967117093557,755.7807247457384,669.7891102136508,798.083258531215
1731305771.125321,857.9807845283398,748.9182044768826,715.2604211667967,787.2450117381532
1731305771.1286218,853.237562732137,739.4932088789983,752.9608223919435,787.2224787289196
1731305771.13233,850.9475481689918,731.7836485673906,750.5749604313561,790.4963549587604
1731305771.1325223,848.5454286685671,730.2514226662233,704.1171368083634,789.0962415516289
1731305771.1364226,846.106745164198,736.4497554306334,650.8263829283321,781.0608606417369
1731305771.1403227,845.646933284652,747.4644140765143,642.0120968576765,772.0240278379101
1731305771.1409032,848.3777855714045,757.3896349229325,697.6712203741432,771.0177145103621
1731305771.1437864,852.5673502250512,760.9376539184207,784.213558254027,783.5673590257998
1731305771.1442232,854.0080302767108,756.5695219139095,837.7411037291125,807.0253414679618
1731305771.1481235,849.00634801525,747.0212605729984,814.4668552995769,831.7476145825713
1731305771.1511953,837.742413651155,737.1960823880721,725.2204287603436,847.6885693194769
1731305771.1520238,825.1912841041717,731.2099436550008,625.5798266376715,851.7046043732391
1731305771.155924,818.2810959286659,730.5782151816442,572.6099892777446,849.748041639143
1731305771.1564858,820.9130508371242,734.2988664821936,586.3427208148526,851.8253691224064
1731305771.1598244,830.653287410212,740.1373078456683,645.3924083204774,863.5798594895435
1731305771.163725,840.0913941525455,745.8688487110817,713.0328867334654,881.4480429084826
1731305771.167625,842.209855938451,749.7946100695701,765.6181223656458,895.4434610608164
1731305771.1700604,835.6514370512807,750.784976242234,800.184500715919,897.1139075035912
1731305771.1715252,825.708891034581,748.4689318150673,822.608317927705,885.9478097131914
1731305771.1720686,820.3260234605964,743.6939011270518,834.9292879956408,869.1842806120048
1731305771.1754255,824.3059330664664,738.6600001200129,834.9707239789882,855.7690595173723
1731305771.1787589,836.0403292110027,736.0649125497157,823.5718568094846,849.8292339858804
1731305771.1793258,848.8554537477911,737.4067272818295,807.1931951046578,848.8231936689413
1731305771.183226,855.6043624301165,741.6044143172724,793.0532985480802,847.1762984103822
1731305771.1871264,853.0504018335447,745.2986815912504,784.0723049947976,841.6439032981109
1731305771.1876512,843.1585022519367,745.1154218745238,778.8103045050498,833.577352992069
1731305771.1889255,830.9503211589558,740.4316987372277,774.4952007143796,826.4225850749829
1731305771.1910267,821.0499334201919,734.2832589614972,769.3981187950506,821.3124278502494
1731305771.1949272,815.570585249714,731.2024759588351,763.2810982988416,815.372574469379
1731305771.1988275,814.3573080638033,733.4395905135153,756.6834749089157,804.6030855352028
1731305771.2027278,816.4461137578069,738.8160102036059,750.1377656327177,788.5248521852452
1731305771.203234,820.9003341129574,742.3040613252571,743.8395921097465,771.8596481135662
1731305771.206628,826.3710160669169,740.0743115827087,737.7171819440298,761.3156139080792
1731305771.207791,830.3801454090055,732.4568022442917,731.6285995989382,760.2290368917618
1731305771.2105284,829.7290997243604,723.3567352772261,725.4904500772003,765.7762183154355
1731305771.2137313,822.2895132085221,716.9528526845561,719.2966473835655,771.115311664013
1731305771.214429,808.9351292636335,714.6930581908981,713.0781822067125,770.6476302216563
1731305771.218329,793.8822502582498,714.8831162444602,706.8626596991178,764.2001583243044
1731305771.2188165,782.626919276577,714.7190138492822,700.6590158269556,756.8758513473554
1731305771.2222292,778.4094572155755,712.8152254928231,694.4626040623576,754.5966743201159
1731305771.2261295,779.5937073044644,710.2918912940156,688.2658628423831,758.6961171635998
1731305771.2266562,780.2944544941478,709.7773769615347,682.0647252393135,763.9939504646476
1731305771.2300298,774.441407504482,713.1578769872843,675.8592013986764,762.4061310225151
1731305771.23393,760.4562353514882,719.7603625279825,669.651086073747,749.5407298215513
1731305771.2343993,742.664799978091,726.4337520053159,663.4418325546973,728.6556305251474
1731305771.2378304,728.1317300586096,729.6694011957591,657.231784195854,708.2755899509852
1731305771.2417307,721.7014945196169,728.2687074778268,651.0204606161014,695.6826705700042
1731305771.2455215,723.4703380009339,724.4748220330141,644.8071998739108,692.3666587874842
1731305771.2456312,730.1900684917564,722.5980219234367,638.5917258270212,694.8528808321258
1731305771.2487037,738.3114398114265,726.0930605726953,632.374463941566,698.6595065448923
1731305771.2495315,745.5512061491247,735.1630651494252,626.1564010885664,701.2447441014644
1731305771.249982,750.369769877562,746.495780284115,619.9382405214114,702.3498799362543
1731305771.2534318,751.2760329924853,755.270889581752,613.7190151158443,702.8139527544081
1731305771.257332,747.6222222572075,758.1793335324118,607.4952857015178,703.4088405479395
1731305771.2612324,741.2195541481938,755.5637019948889,601.2627847678199,704.3904239364176
1731305771.264387,736.6504651870141,751.2190408716676,595.0213678052045,705.6312964893995
1731305771.265133,739.2424084628858,749.8485599270966,588.7805034471525,706.918342514925
1731305771.2655644,752.0086747699676,753.9080215482937,582.5580659810903,708.1345361987565
1731305771.269033,773.9088647817147,762.192971732554,576.3653072800296,709.2771528008656
1731305771.2729332,800.5506396193889,771.1703135350967,570.1815134799776,710.3942123616391
1731305771.2768335,826.3488418226693,777.7281667468644,563.9414964667404,711.5254657276718
1731305771.2807338,846.2861911489233,780.9765642649687,557.5711291433644,712.6821992480654
1731305771.2811472,856.4561668979795,781.9907480578323,551.0830102546411,713.8563411831086
1731305771.283252,854.2244317249348,782.3736559945061,544.6729905415187,715.0364721002492
1731305771.283676,839.2062236948277,783.1187019526612,538.6784861371999,716.2167983745186
1731305771.284634,814.760762978593,784.3949574942421,533.2761464766888,717.3974931577502
1731305771.2885344,788.007483574124,785.9305523828427,528.0135773068205,718.5811130780905
1731305771.2924347,766.864879109984,787.4401959385794,521.6386651281575,719.7695680449847
1731305771.296335,755.4976100763755,788.813164856379,512.8784580410389,720.9632257030075
1731305771.2967298,751.8664242456858,790.0836785890755,502.3228605977055,722.1614977061579
1731305771.3002353,749.7846590617736,791.3271620135631,494.2262075726769,723.3636973554746
1731305771.302117,743.8666327780247,792.5897674128839,495.76280991143216,724.5694685710939
1731305771.3041358,733.2286542825632,793.8763252519096,512.2533266341286,725.7787432922412
1731305771.308036,721.4201336469371,795.1709689601175,541.3357121917335,726.9915087436574
1731305771.3119364,713.7599610616242,796.4589267868882,572.6034144496498,728.2076570630744
1731305771.3123124,714.9175495099021,797.7352021971905,594.795866011017,729.4270320693047
1731305771.315837,727.9745914744211,799.0021957783063,603.6721289888758,730.649615171938
1731305771.3186486,754.003463788297,800.264060047899,602.9437188595246,731.875653950021
1731305771.319737,791.2034382638732,801.5231772515281,599.1359572379184,733.1054894516353
1731305771.3209827,834.3297806664209,802.7797503686885,596.6261270878747,734.3389966265338
1731305771.3236372,875.822246212003,804.0329877060691,596.3669900122281,735.5749807700981
1731305771.3275375,908.5889503056001,805.2822321672847,597.3199150403153,736.8113563148906
1731305771.3278952,928.6762089917975,806.5273609738535,598.2638091067132,738.0468734930869
1731305771.3314378,936.181456580986,807.7686218170994,598.6699537490947,739.2839230920454
1731305771.335338,934.3760109055386,809.0063289138349,598.6399852903074,740.5297670573619
1731305771.3392384,928.0868295191892,810.240688673225,598.4836057439584,741.7923194151388
1731305771.3398478,922.1459214708138,811.4717902189146,598.4064916801428,743.0693851458932
1731305771.3431387,920.1758936317624,812.6996731277342,598.4409604866006,744.3383246266475
1731305771.3434775,923.9520112317942,813.9243861820528,598.5244274690857,745.5617341625835
1731305771.347039,933.5543845228885,815.1460046589857,598.5924055415663,746.7221330608621
1731305771.3509393,947.9556974141427,816.3646168310564,598.619659951578,747.8737196059354
1731305771.353621,965.2003793496124,817.5803035454448,598.6133685132011,749.1586292074797
1731305771.3548396,981.8449275654796,818.7931285135008,598.5899279601019,750.7170585063068
1731305771.3587132,992.5688369376403,820.003145818154,598.5592237952203,752.4813851403738
1731305771.35874,991.3994450937349,821.2104201222841,598.5219371772088,754.000510577015
1731305771.3590603,974.8402095706731,822.4150430818997,598.474138427349,754.5924054139331
1731305771.3626404,945.1196598081536,823.6171208452677,598.4121425472393,754.0462758384014
1731305771.366541,910.7877847901769,824.8167171101727,598.3344436859304,753.6067062201499
1731305771.370441,883.2658054824963,826.013777608017,598.2411855734749,756.2570139556332
1731305771.3743412,870.8886250078342,827.208120729435,598.132903971058,765.1874001255168
1731305771.374643,874.1749757405303,828.3995943777667,598.0097421955081,780.7130210015544
1731305771.3775785,885.6906501536388,829.5883906433617,597.8713603481319,798.182282029253
1731305771.3782415,894.9507780936335,830.7752700032629,597.7171996082695,809.8131288811836
1731305771.3821418,895.1916730996871,831.9612492999665,597.5467341919341,810.1903456780055
1731305771.386042,887.1897323233229,833.146495993017,597.3595608454954,801.1002825722613
1731305771.3885934,877.2898639715074,834.3289832907235,597.1553629856899,791.1164307446908
1731305771.3899424,871.3124591693036,835.5045439680815,596.9338438199766,789.647151999105
1731305771.3902256,869.34953306003,836.6700999875721,596.6946881926921,799.9563080760126
1731305771.3938427,865.5682371262963,837.8295858004128,596.4375604147614,816.6061047334765
1731305771.3964436,852.8077097932453,838.9975277857529,596.1621182580411,829.271339566841
1731305771.397743,827.9959575545411,840.1919666803964,595.8680247498336,830.0332652015592
1731305771.4016433,794.3585484458375,841.412872902002,595.5549527876516,818.7956680714452
1731305771.4055436,759.3923391059423,842.6181822209234,595.2225872149339,802.9547265951849
1731305771.4058084,730.5380372897183,843.7291135335695,594.8706286609103,791.6562285072442
1731305771.409444,711.32990590559,844.6958253117504,594.4987959089881,788.9133759777526
1731305771.413344,699.9283696963334,845.6078328728604,594.1068171873148,790.7385988540243
1731305771.415309,690.6136516581097,846.7475121598515,593.6944053364197,788.498193701142
1731305771.417245,677.4211091614817,848.4317580477112,593.2612313375299,775.9494536750681
1731305771.421145,657.7345928539884,850.5858616314622,592.8069340097395,754.4722618139222
1731305771.421391,633.3931971300657,852.2981615010181,592.3312014585593,732.320894583795
1731305771.4235656,608.7123200711139,851.9291405223262,591.8339021762785,718.4274670854792
1731305771.4250453,587.5283505300988,848.203510266542,591.3151416522528,715.6790747086565
1731305771.4289455,572.0597804185156,841.7373181229102,590.7750637698301,719.0967033940839
1731305771.4328458,564.0214052244526,835.3855178386614,590.2133476200363,720.4401628216699
1731305771.4341743,565.6246742668093,832.299822256217,589.6287277964622,715.4602759156938
1731305771.436746,578.1973861915594,832.8831694313964,589.0192673802691,707.6489728693667
1731305771.4369736,599.204929690476,833.5360740251315,588.3839859738838,705.1263649899144
1731305771.4406464,621.0149100889145,828.9291460645051,587.725274339077,713.2010056466423
1731305771.4445467,633.8158464744666,816.2924485058027,587.0496296331778,729.087161941394
1731305771.448447,631.4163377790715,798.0581166345308,586.3634153394738,743.5434910970405
1731305771.4523473,615.7548443294029,780.4147706890252,585.6632104764776,748.1328697838401
1731305771.4525564,596.5071250942459,768.9255288137086,584.9276007412548,741.850227840667
1731305771.4530394,585.66667175314,764.9079788602274,584.1242587811615,731.5051076031934
1731305771.4562476,590.5822265862525,765.3910544619781,583.2423050358708,725.7392295651997
1731305771.458538,610.043876622082,766.1837295014501,582.3364479902043,727.9034813271421
1731305771.460148,635.9091013196879,765.1176614115645,581.534380362617,733.7520441600718
1731305771.464048,658.9034991606985,762.9158825940798,580.9479883945838,735.7519748663169
1731305771.4679484,674.3154652971305,761.5552332415647,580.4900095604469,730.3148638729592
1731305771.4681387,683.51852506754,761.9959165558893,579.7377148915228,721.7744585516353
1731305771.471849,690.5230738577571,763.1950898030855,578.1056307489135,719.4174479994532
1731305771.4719048,696.6091166902709,762.8613215977934,575.4906907410356,729.5138888079981
1731305771.4757493,697.6202069857012,759.0219548809843,573.0925746659527,748.728713698331
1731305771.4796495,686.6082576770482,751.2339779401889,573.4919107055125,764.7994048379715
1731305771.4835498,660.4844543658975,740.9479189512573,579.0198715994622,764.8784919968147
1731305771.4837215,625.8074234456337,731.172045946413,588.9278420757878,745.565778717947
1731305771.48745,598.4045253383636,725.6024448374956,598.38640692366,716.6936995674057
1731305771.49077,595.180633406022,727.1510610635347,602.1392600066438,695.3719241421975
1731305771.4913504,622.4431857934437,736.0879839464494,599.9732227932009,694.2921763084013
1731305771.4935105,669.0919892001798,748.8614794554319,596.3544902459342,712.8515205489715
1731305771.4952507,711.0724793367901,759.0155453272818,591.9708382584068,737.6800315220344
1731305771.499151,725.6838283745772,760.4794702027184,576.4356689211986,752.2187731355214
1731305771.4993043,706.2357475877429,751.4216871423897,533.7827571836223,748.326568878284
1731305771.5030513,666.2904674699375,735.8334062900138,459.825476496113,731.4333480153741
1731305771.5069516,630.2951932459339,721.3805513465263,375.32721655418874,715.6077025269439
1731305771.5096352,617.8427591990711,714.8660159139203,318.3949770006142,712.5187255895926
1731305771.510852,633.1865079970935,718.4322849739784,317.19260738096875,722.9187964742472
1731305771.514752,666.4831346764541,728.9266502777771,364.79190861445517,737.2456486732531
1731305771.5148869,703.5889207040624,740.4399262363651,420.64664455346315,744.5590502680366
1731305771.5186524,735.5304230887346,747.9615482628693,441.5098400692302,742.0859310187815
1731305771.5225527,761.0284170661668,749.7633019574331,416.5159512332816,737.1058451437096
1731305771.526453,782.419052082731,747.395064168651,374.41924366600733,739.6281104150596
1731305771.528483,800.4385736012856,743.8864341291987,355.36844620468173,752.5919286645629
1731305771.5285006,812.8583294998049,741.7060977258877,373.4653679419809,768.6156112817602
1731305771.5303535,817.4196026664015,741.7509693729569,405.9469234450428,776.3703965806382
1731305771.5304697,815.4363881850877,743.5652071755331,419.10794187667466,770.8823885835975
1731305771.5342538,812.1789416313511,746.1074055979905,404.7276795582269,758.5278208868921
1731305771.538154,813.5026771295393,748.3550285707275,389.9673819560975,752.310669135286
1731305771.5420544,821.8455244768846,749.6014613876026,409.63380821704436,761.6247277309313
1731305771.5459547,835.2052878293232,749.6516445080815,467.21846974163896,785.2501158863034
1731305771.5460522,849.6304977902563,748.9008981402937,523.6489806562523,813.0078312131656
1731305771.547366,862.3645697442677,748.014594588424,527.760497356889,833.8535048709356
1731305771.549855,872.6561455460455,747.2405723375851,463.1346415626757,843.3394957424866
1731305771.5537553,880.3021482780013,746.0063295393711,368.53859456242265,845.0363273560249
1731305771.5576556,884.5291123432701,743.4414837539742,310.470601600055,846.1191090738099
1731305771.561556,884.9150596542411,739.5414406218523,328.71021492577904,851.5211571945772
1731305771.5616348,883.0399497715416,735.8157557182493,401.91748022048176,860.9618671659617
1731305771.563455,882.2871510448078,734.5543641978062,465.156385570718,870.1030428332821
1731305771.5654562,885.2960763369346,737.1388909829061,465.81348803587736,874.1751339669945
1731305771.566231,891.4411377580232,742.82429506589,408.9062672439063,871.4215811108429
1731305771.5693564,896.9358186189107,749.1191384137721,351.06250223415225,864.3647207699219
1731305771.5732567,897.5408849618592,753.573387971015,349.03623558701923,858.2188553144373
1731305771.577157,891.4529553108814,755.5829343502407,410.6942594701469,857.2327649621836
1731305771.5772176,880.2179390300588,756.7195097737842,493.1318460622457,861.0639683156726
1731305771.5810573,867.5999308777087,759.2263672003996,546.564179670782,863.8294484763096
1731305771.5849578,857.7020194717918,763.8767733993876,559.5124570858687,857.3656310367138
1731305771.5850964,853.3605114029137,769.0811822953763,562.8140172729742,837.3061818494787
1731305771.588858,855.1165570167288,772.1625131310683,592.4651109373995,807.4623923430956
1731305771.5927584,860.942190968612,771.7555113720608,650.1006977735032,778.0522882141457
1731305771.5928,866.9813819717376,769.1423448051057,698.8577744457268,758.5065775139386
1731305771.5966587,869.244171683426,767.2516653950653,696.8151475508165,751.3480716885498
1731305771.5984278,865.6519120629561,768.2199462678602,635.8732387561173,752.4250524089607
1731305771.600559,857.4603157414406,771.6904266708298,550.7127100203439,755.7681787839706
1731305771.6039617,848.9569056040426,775.1965974834836,490.2896020850185,757.7099803568105
1731305771.6044593,844.8116764883157,776.0414099804568,477.4388110508528,757.6537202204141
1731305771.6083596,846.1302677328831,773.0194015433202,492.20383655953816,756.6270634322353
1731305771.6083827,848.2849514006568,766.9100335943236,493.1638930924709,755.6915510298134
1731305771.61226,843.4058785894697,759.8899929757442,456.8357615989924,755.2527777692491
1731305771.6161602,826.7043828940471,754.5598035684802,399.05428370198615,755.1786178781579
1731305771.6200604,801.5104414401003,753.01272382141,359.8689135167046,755.187608618182
1731305771.6228268,777.9901991773638,756.055622520866,368.3816755529738,755.1097103040614
1731305771.6239607,765.9338633183215,762.7597931560184,421.2391390460959,754.928931673248
1731305771.6239655,767.6535977424804,770.67227743857,491.4209861712931,754.7054489563262
1731305771.627861,777.0414031650237,776.8401899305951,552.8003123201397,754.4945545505961
1731305771.6317613,785.1616712874918,779.2887165992646,594.5214673426652,754.3148755052149
1731305771.6334002,787.0866441914245,778.1054470668496,616.2640898489095,754.1576248146213
1731305771.6356616,784.2495715662202,775.2932859096074,617.5989039247039,754.0077079429436
1731305771.639548,781.1371148903247,773.3050928958739,596.8902716731928,753.8567340183981
1731305771.639562,780.0091164416076,773.246885424455,558.8960270170569,753.7044125848824
1731305771.6416922,778.3957590798851,774.1576646740216,517.7811226824427,753.554082208827
1731305771.6434624,771.1944905107754,773.9639004728349,488.9663627266076,753.4085162557742
1731305771.6473627,755.2899002870341,771.2908328399533,478.56823347205363,753.2684864880512
1731305771.651263,732.8724603496253,766.6193690319883,481.72534096088486,753.1334303844098
1731305771.6551309,710.9406440757512,761.9406486431637,489.4436971528804,753.0026029568429
1731305771.6551633,697.4081380713087,759.3604604671127,495.5299540515324,752.8756635599997
1731305771.6590636,696.5557824700918,759.8173216818121,498.52588573519853,752.7525594137071
1731305771.6605575,706.8557872654944,762.7495360432168,499.8101726403183,752.6331287000999
1731305771.662964,722.5060905895853,766.7245440424301,501.08433449378856,752.51695403531
1731305771.6668642,737.4569395634334,770.4450592599025,503.1145919579866,752.4037638514374
1731305771.6683726,748.8640484417267,773.4152800195446,505.7833520973577,752.2941857512835
1731305771.6707134,757.2195816714824,775.8163438304698,508.66612309772825,752.1900569936016
1731305771.6707644,763.1647816793047,777.7152955185371,511.47207029578817,752.0932650785694
1731305771.6746647,764.2757107459287,778.3540733962238,514.1501273200278,752.0029351851238
1731305771.678565,755.7591080514783,776.3681470447481,516.7848706493195,751.9129204691541
1731305771.6794226,735.5671193345862,771.0196209694693,519.4670303801345,751.8136590765506
1731305771.6824653,709.5224487359428,763.4262811559973,522.2339869723801,751.7014761159795
1731305771.6862962,690.5940089488792,756.4581994897534,525.0775202836951,751.5916664907274
1731305771.6863656,690.9311661584703,753.0017408843028,527.975619715372,751.5213473315467
1731305771.690266,712.2713597034141,753.8441686692554,530.9147618380424,751.5243625902966
1731305771.6941662,743.0867244052272,757.0068621197864,533.894177530842,751.5776476751029
1731305771.6980667,765.8670886041422,759.264595813332,536.9197183619378,751.559155312912
1731305771.698288,769.3071341389498,758.7204953259305,539.9970810239714,751.2938053291083
1731305771.7018788,755.864734718066,756.3175813947274,543.1289650775617,750.7373129899972
1731305771.701967,739.0856249596234,754.9614777994051,546.3156597502067,750.2132136747646
1731305771.7033453,733.4047107711922,756.9014167941706,549.556723385228,750.4280063252066
1731305771.7058673,744.5593129349124,761.5781001307114,552.8521420920302,751.9447377003097
1731305771.7097676,767.3617028161442,765.9157489722303,556.202683873831,754.1516301138166
1731305771.713668,791.3258353604833,766.9644618748314,559.6098159290495,754.5236839636364
1731305771.7171533,808.8044460771,764.5397571059993,563.0753954076043,749.54231667451
1731305771.717461,819.2161211709292,761.2843817016479,566.6009825554172,737.8372575884665
1731305771.7175682,826.9807552216573,759.9629672825747,570.1867434342854,723.4967504803328
1731305771.7214684,836.1531201851907,760.6301751341639,573.8306938979715,715.5235957689212
1731305771.7253687,846.8055290236497,760.6029324799224,577.5298228020138,721.9108348655833
1731305771.729269,855.7091112595183,757.3999818007593,581.2840709437255,742.5640774020527
1731305771.733044,859.8337192750588,751.7633113220832,585.1012684157881,767.552031823021
1731305771.7331693,859.3902941660682,747.7065347175723,588.9971526968354,782.7110999682458
1731305771.7360184,858.2862080550792,749.3903276600881,592.9838951254097,778.2931951838258
1731305771.7370696,861.9322438660399,757.599898740536,597.0485413310164,754.323396856612
1731305771.7383175,873.6849551768336,768.8819610299298,601.1393121973052,719.5030909296071
1731305771.74097,891.879543319926,777.9634349857234,605.1901092489393,685.3153902270519
1731305771.7448702,909.5944933071384,781.3421624008537,609.1982967107497,659.8667709573529
1731305771.7486267,918.217089876137,779.2628889785959,613.3134000212692,645.536840079011
1731305771.7487705,913.240118651293,774.9165557965147,617.8223662948545,641.3021431937891
1731305771.7526708,898.285142405507,771.9171052333694,622.9159201569904,646.7895515118514
1731305771.7548838,883.7647729939512,772.080933100703,628.2862695082473,663.7027491632879
1731305771.7565713,880.3373051415202,774.8473213492125,632.9203125487571,692.8842150803525
1731305771.7604716,891.5537833012298,778.267388959573,635.6577145568049,729.9255791662156
1731305771.7642093,911.1674431834628,780.5043230385054,636.7461772173601,764.4106444067819
1731305771.764372,927.3475401309113,780.7685314263364,639.5449471152872,784.990892925332
1731305771.7682722,930.9435362010404,779.3522867114806,650.3709955630596,786.9683757208879
1731305771.7721725,921.8782014876444,777.1964863367775,675.0910914389177,776.1720716463657
1731305771.77329,909.0316485479293,775.503840600336,714.4997645198553,765.524969944262
1731305771.773749,903.7130425397053,775.3623877846318,763.1564609219216,766.5023511341188
1731305771.7760727,911.5514039454688,777.0480115796706,812.9980489420257,781.6640089209226
1731305771.779792,928.7958612801234,779.2561189190054,857.3364525254933,803.5389657548025
1731305771.779973,945.5679395378259,779.2895742874344,891.6859498481476,820.3718382300202
1731305771.783873,953.1446056681364,774.8673702989964,913.3495541571149,824.2751454899651
1731305771.7877736,949.3547765168521,766.5701012102949,922.3004578260541,815.7521084003384
1731305771.791674,938.2379752562445,758.6702229568479,921.8814933584852,801.594738645595
1731305771.7926142,925.3117567737538,756.9390207587145,917.1872740629747,788.5707474079252
1731305771.7953746,913.2743644995454,764.6049414561652,912.2936451724506,778.5664658664068
1731305771.7955742,901.7037913125149,779.5851354808698,908.8481312318619,769.0129409546159
1731305771.7994745,890.0055876205042,795.4212220720211,906.6055906903531,757.2949050611705
1731305771.8033748,879.8989737454061,805.4392895363792,904.7188784671177,744.4266802817293
1731305771.8072753,874.6827278401622,807.025429864113,902.6300196569947,734.6301974728597
1731305771.8082623,875.9788654975531,802.8491341620132,900.259636981375,731.6883242988794
1731305771.8109574,881.1345140613046,798.3688322013816,897.7851013482621,735.6940885072665
1731305771.8111756,883.882798081198,797.8010061182854,895.383355843287,742.9017146669171
1731305771.8114796,878.0771287187016,801.6225389891723,893.120167656544,748.4465293911178
1731305771.815076,861.8224894467344,807.1564970875313,890.9718164249746,749.6344433136409
1731305771.8189762,838.9919973986167,811.2946670220222,888.890252883408,747.4994845626219
1731305771.8228765,816.9885582662793,812.878479171396,886.8462609174553,745.6763542998483
1731305771.82654,802.267516534662,812.8137017450246,884.8362063702773,747.3135926492167
1731305771.8267767,796.7091435665245,812.1872046640894,882.868920488497,752.128962558876
1731305771.830345,797.2453477571635,810.5816552290584,880.9522402394933,756.0033019019304
1731305771.830677,798.6352111892091,806.5283863838765,879.0878107235985,753.9557151080732
1731305771.834577,796.9373171993452,799.7055119594829,877.2726882831666,744.5478088857485
1731305771.8384776,791.0453361326291,792.490271814818,875.502870593017,732.0776237161037
1731305771.8421226,781.6913091714845,789.0427516442762,873.7754561272802,724.3216058761983
1731305771.842378,769.5274391001149,792.6267123497677,872.0888656813081,727.2219581320289
1731305771.8432348,754.281851553588,803.5346817429659,870.442078175385,740.6139784596016
1731305771.8462782,735.6086521509183,819.0875657284935,868.833893002246,758.4208762409926
1731305771.84921,714.6873315876685,835.0736573410256,867.2626477342498,773.2527500186852
1731305771.8501785,695.0263163755297,847.1730712761511,865.7263404508434,781.8286717829361
1731305771.8540788,681.3949252993774,851.9080319772388,864.2229507949428,786.8540432051573
1731305771.8577054,677.0761535156151,847.6713216083647,862.7507608021479,793.7271156674805
1731305771.8579793,681.18028623227,835.9134831343803,861.3084559606299,804.8094082738327
1731305771.861879,688.4222228068138,821.395750118454,859.8947663454317,816.3641239432915
1731305771.8657796,692.4114321889691,810.4195704311021,858.5076139720398,821.2177708119708
1731305771.8680754,690.578328085932,807.5325069693857,857.1433107906189,815.1395497521654
1731305771.8696802,686.7247333011051,812.8017286027722,855.796985991245,801.3513204225935
1731305771.873288,688.2864187398301,821.6873900379734,854.46522699738,788.9176148690121
1731305771.8735805,699.6751162688681,827.8148334081336,853.1500360415307,785.9982400037679
1731305771.8774807,717.1359709402403,826.912600843811,851.8601118364381,793.4814200762243
1731305771.8782072,730.243528329992,819.3424245494192,850.6040573045958,804.3742678579379
1731305771.881381,729.8381103008275,809.6007173569903,849.3746816023244,809.5887164764658
1731305771.885281,716.2794919521872,803.2768709929165,848.135402614465,805.399967853696
1731305771.8869407,700.9327080802282,803.6773485546013,846.8313015971842,796.3810453344053
1731305771.8888705,699.0147401910053,810.3457390425093,845.4414599223223,791.3489921848361
1731305771.8891816,718.969185976394,820.0751668245025,844.0512508222939,795.7855359513127
1731305771.893082,756.506907057879,829.1658319042982,842.8659373798084,807.321882475841
1731305771.8969822,797.8670651845124,835.1600249394213,842.0678504892596,818.3147397374462
1731305771.9008825,829.5205534201044,837.2866424505384,841.5169548644249,823.2296940557827
1731305771.9044533,846.4599187728804,836.1277915129037,840.5213612787777,824.0518466960679
1731305771.9047828,852.8021836701015,833.2648693796235,838.1011670127748,828.5899195876714
1731305771.9058058,855.3639835303251,830.8945930945596,834.0072350092771,843.0564182163615
1731305771.9086833,856.8570205818895,830.8876709148356,829.9868678322244,865.6648024295132
1731305771.9125834,854.9317528412998,833.3974403525881,829.696295802339,887.150952632702
1731305771.9131796,847.1631923908673,836.2257490613407,835.5286652523916,897.9261023495797
1731305771.9164836,836.2875379744862,836.1491126135587,843.2255594686244,895.7377317172932
1731305771.9200358,829.9682444088141,831.7739941156138,839.6028970038508,887.3790861138446
1731305771.920384,834.8146963442786,825.6316975527675,809.3326907719303,883.1453707054529
1731305771.9242845,849.9881413521941,823.202617014028,749.0521982797309,888.7106567742029
1731305771.9246712,866.3434850181316,828.9079110304837,676.8638145315589,900.9361006828999
1731305771.9281847,872.2509682162537,841.9689031227674,624.7516269279134,910.6543498868235
1731305771.932085,861.4396649770625,855.6736647693383,614.9474480558705,909.8601506484815
1731305771.9356186,836.5649005270175,861.0646910507279,638.2304682943561,897.5308550811123
1731305771.935985,806.0466622848575,852.4617142503976,655.427847786624,879.7958480353961
1731305771.9398856,777.4543991697254,830.8324686063054,625.9865126447829,864.8259880954976
1731305771.9435363,753.1741933608209,802.9407674470003,542.2853072835801,856.7682212732805
1731305771.943786,731.3622938778029,777.3511855225757,439.3679539057988,853.3439085517473
1731305771.9476862,710.1895734976345,760.0689870747601,369.08919952640247,848.5162918679365
1731305771.9481518,690.8299911168572,752.2725004912508,359.9086994386425,837.7222501466805
1731305771.9512012,676.5737287896505,751.0874525757159,397.6145092911591,821.5130938545902
1731305771.9515865,669.5930499348684,752.3729007619861,442.6663820207594,804.9462914571011
1731305771.9554868,668.9661580489567,753.2593281589516,465.19464394113294,793.3249283422205
1731305771.9593873,671.6254257133264,752.9126011729247,463.8333028357466,787.5916191632853
1731305771.9624016,674.6719319093352,751.7957274728263,453.78515645705886,783.068242840252
1731305771.9632874,676.7639562666599,750.6077369370247,441.4516269328028,772.897793674263
1731305771.9667838,677.961237175649,749.7017910306047,414.4262988416922,753.8769085841915
1731305771.9671876,678.854015838048,749.0582281068935,356.80960759418235,730.0674532457206
1731305771.971088,679.8805034382028,748.5082194340596,272.1499932827612,710.8368747523612
1731305771.9749882,681.1360848470927,747.923850304552,188.1892107768573,704.3072592913155
1731305771.9788885,682.5079879854262,747.2744986562037,135.98462648584325,711.1706345874345
1731305771.981267,683.8640393504202,746.5903547985075,122.02598898920172,723.8537294983795
1731305771.9823666,685.1461867024286,745.9087692814064,120.45409704926118,731.8124827065164
1731305771.982789,686.36447701543,745.2467263778957,95.08448620875794,728.8557175910765
1731305771.9831245,687.5519535574141,744.6017409971516,33.1028410073701,716.9439000368545
1731305771.986689,688.7309184137387,743.9644105901734,-40.36520918629515,703.8871236446123
1731305771.9905896,689.905154485813,743.3281333677487,-81.92940116566945,697.1208598049246
1731305771.99449,691.0681635059569,742.6915362043566,-67.51075249333462,698.4542499617665
1731305771.9979491,692.2131400189651,742.0562520147117,-13.553712933706947,703.4587092692717
1731305771.9983902,693.3374591117622,741.4240871348734,37.882875419502284,705.3148402763876
1731305772.000132,694.4420018770467,740.7956966673971,55.595020319929745,699.7021270650963
1731305772.0022905,695.528683831476,740.1707359593588,42.54120634190724,687.0762806778384
1731305772.0061908,696.5987559441052,739.5485520683726,25.581435906460797,671.193310154505
1731305772.0100913,697.6524997782902,738.9286750969125,24.677413508474615,655.7584416864363
1731305772.013532,698.6897115253414,738.3109159771642,32.96502113634904,642.2791401159807
1731305772.0139914,699.7102200400656,737.6952336111011,25.81301555260245,630.7829792719841
1731305772.0178916,700.7140926827566,737.0815865541454,-12.087614345573911,622.2484481317804
1731305772.0180967,701.7015785617152,736.4698730374769,-68.61545324247868,619.8220281417963
1731305772.0189974,702.67298190384,735.8599493651108,-112.23003852057468,626.8763645123088
1731305772.021792,703.6285980136541,735.2516707576629,-118.90053058979731,643.0603301652027
1731305772.0256922,704.5687237414567,734.6449101198727,-93.80195264687598,661.985181284728
1731305772.0291145,705.4936760721499,734.0395435062691,-67.79712430589223,673.558994991668
1731305772.0295925,706.4037522074178,733.4354222672391,-70.4813641498946,670.2927099214997
1731305772.0334928,707.2991352648828,732.8323699534155,-102.96319518520897,653.1234271524373
1731305772.037393,708.1798510366141,732.2302352031672,-135.26588602662991,631.8936112639786
1731305772.0378628,709.0459285528781,731.6289865991469,-131.80811644570076,619.3494054731459
1731305772.0412936,709.8978015451986,731.0287608086176,-82.56556030060574,622.5437423778028
1731305772.044697,710.7366770695934,730.4297318155635,-12.09259517774376,637.8154662726347
1731305772.045194,711.5642836826318,729.8317566565258,40.836151726312664,653.1959892353156
1731305772.0490942,712.38153946881,729.2340184543821,53.85624324828609,656.8272358919936
1731305772.0529945,713.1866443662916,728.6351828197637,35.63140584809412,645.5733178171473
1731305772.053069,713.9746080801795,728.0345208991254,14.773412903251824,627.6961753755827
1731305772.056728,714.7408053815443,727.4336482027417,15.847369862120104,617.562085743548
1731305772.0568948,715.4887343950221,726.8371680338926,43.20118754805253,625.953041859897
1731305772.0602798,716.2362805536336,726.2498310993942,82.87548471773829,652.6599181846586
1731305772.0607953,717.0094173824111,725.6697191224782,116.51464255947667,686.4497165169856
1731305772.0646954,717.815897734762,725.0820873364446,133.55417553378084,712.3622535759902
1731305772.0685956,718.6108295362774,724.4636915093296,133.1625032250405,721.201548037114
1731305772.072496,719.2940065456874,723.8052189518984,118.61644111460816,714.6546092140496
1731305772.0755932,719.7868261679477,723.1432361628445,93.47179481322343,702.7500275204338
1731305772.0758624,720.188178339142,722.5678505502896,65.03003207943988,695.9613925055868
1731305772.0763962,720.9047515358383,722.1627798920792,49.896562264087265,698.0327279788872
1731305772.0802965,722.5856251652694,721.8754332955356,70.69273836941846,704.7794452365903
1731305772.0841968,725.8603664117499,721.4134751695028,140.9228703991772,709.3105463003529
1731305772.0880415,731.2427245945026,720.3547555059448,250.05120462883832,708.9603319242332
1731305772.088097,739.4025714350718,718.5981108827324,365.2231216941269,707.8622611452886
1731305772.091445,751.1037515275119,716.965027773667,451.64996629972217,712.9063277744431
1731305772.0919974,766.1152597530734,717.3433124484651,494.68510434605435,726.7511647846297
1731305772.0944586,782.1896970120645,721.7954361392582,504.53476068943155,744.3680769036039
1731305772.095898,796.1096585346775,730.9510875754477,502.1764859030068,756.5545474873984
1731305772.0997982,806.6082835426434,743.0781874253719,502.78792020682295,757.5451615793321
1731305772.1036985,816.1176567527943,755.0170809297188,511.895967600753,749.9843073700341
1731305772.1070278,828.7140729898655,764.4208661176539,532.5460245909358,742.7279374394665
1731305772.1075988,845.4388735274435,771.2662820837769,569.2596484626522,743.3017432440453
1731305772.1114993,861.4822168992881,777.1950899512221,620.5126370423845,751.592316837503
1731305772.1133237,868.7870788080891,783.4324062309294,668.5873302620248,760.2091986038581
1731305772.1153994,862.7937804498468,789.4761773625158,683.5308748042958,761.0888349480489
1731305772.1192997,847.6759598113083,793.891297278418,645.6493045135767,752.6358631354303
1731305772.1226103,834.9177791489265,796.2799262905463,569.6218309399358,741.4539184426371
1731305772.123014,835.5317725215793,798.2272419770247,505.47250651023865,737.3409297383637
1731305772.1232,851.9363036238265,802.0734936097839,508.3379272456758,745.6560680652053
1731305772.1271002,876.2124376602984,808.624468853847,597.4860817239662,763.1297315399388
1731305772.1310005,896.2383503713409,816.0217552137028,738.8871563702809,780.3503301866643
1731305772.132189,904.6034257216456,820.8627568851435,868.7812673932629,788.8499502397401
1731305772.1349008,903.1262960213894,820.5649285284629,940.1941912851445,787.1364065584655
1731305772.1381931,899.9243719160938,815.0248325517905,952.8172089436309,781.0497210495721
1731305772.138801,902.2674397504169,806.4976117590857,941.552388453897,778.5460157973074
1731305772.1427014,911.2566166619464,798.1359883044855,937.7113206791068,783.4225135803872
1731305772.1466017,921.8743794746168,792.3649803081805,941.631456016177,792.9844292140752
1731305772.150502,927.2622490412045,789.9693218990589,931.6771350954674,801.0889747892868
1731305772.1510544,923.4793618015603,790.0965908079987,896.6902457496135,803.5918156910719
1731305772.1537757,911.794175797903,790.9250123844998,855.6378180941329,801.5655647509487
1731305772.1544025,897.8479451005503,790.6143366678008,842.4511222301908,799.8166833406692
1731305772.1579864,888.6228200667641,788.1885396294786,870.6358828713041,802.1791510438774
1731305772.1583028,888.7331000763672,784.0491019066385,914.339626525749,807.6261702050241
1731305772.1622033,897.8076411481344,779.8785457617081,928.1957137583556,810.5525654080066
1731305772.1661034,910.5454074109246,777.8634709858761,890.6387139690443,805.2802511844883
1731305772.1693585,919.7238074495407,779.4935723781311,830.0949452086127,791.4105799424466
1731305772.1699195,920.3864495266553,784.5309832900601,805.5968415083332,775.6491988152492
1731305772.1700037,912.369542584591,790.8217427764043,854.1047201072606,768.0757553066304
1731305772.173904,899.5361239210852,795.2697346117707,950.028638276873,775.059812852754
1731305772.1778042,886.6939658838696,795.5982262746628,1016.3498878623973,794.0270791420425
1731305772.1817043,876.7891567215239,791.8577774800044,983.5332207348129,814.4130326526531
1731305772.1849413,870.197988192097,786.5587529671,849.0286252205993,824.5970489085869
1731305772.1856048,865.8478034352822,783.1390349351183,686.474614129957,819.8458791985465
1731305772.1887848,862.6680016520829,783.7764865244113,595.0264141304751,805.3246316100924
1731305772.189505,860.3329868103297,788.1936684148261,629.4673687963609,791.9737588039504
1731305772.1929588,859.3069037157943,794.3185507849839,766.419876082565,788.4698964783082
1731305772.1934054,860.5413764524905,800.0495499150659,929.3366500770692,795.3259767811189
1731305772.1973057,864.855296670595,804.4664393499214,1045.7660705871192,805.3816409335843
1731305772.2005236,871.9737129680279,807.5522309237567,1088.255104001546,809.9686886562571
1731305772.201206,879.7824652375094,809.1124500085596,1071.8662079918224,805.7148538584515
1731305772.2051065,884.7791016055094,808.4057342626579,1022.938045044581,796.645440659908
1731305772.2076502,884.0019144804689,805.1304397774392,955.5104820005589,790.2460463142307
1731305772.2090068,877.197921573449,800.7240400943749,875.8553467806194,791.1756710625714
1731305772.2129073,867.2844995175349,798.2514873243671,801.5132645439778,798.0770023461668
1731305772.2161064,858.4088826718123,800.3719294574614,765.3183987498248,805.8996579678883
1731305772.2168074,853.1074229169848,806.89944913913,793.212843982558,811.1027679541843
1731305772.2207077,850.9449357369009,814.2447865200904,876.9137636637165,814.6601631100592
1731305772.224608,849.6146356766735,817.589307863178,972.695480231889,820.1335304389262
1731305772.2265153,847.2257524130657,814.2362391724241,1032.6475401778766,828.896322222602
1731305772.2279313,843.6014275719527,805.4722322425196,1040.6452593768274,837.344507955094
1731305772.2285082,839.5954116057026,795.5046606916305,1019.3908457215009,839.1381741967498
1731305772.231689,835.434834571983,788.4615869238497,1004.1171865418883,830.8795818551573
1731305772.2324083,829.9657151376518,785.890851932598,1011.1029876915233,816.2804540293813
1731305772.2363088,821.6617600154008,786.5232928103502,1030.635461592875,804.7593010901287
1731305772.240209,810.4447765842328,788.030320484906,1045.371771725265,804.9296798204341
1731305772.2441094,798.5308234122109,788.9521949215313,1049.2616383248926,817.8906939318332
1731305772.2453806,789.3609196804777,789.184949803874,1046.3308252826027,835.7876029099334
1731305772.2472715,785.3352972169797,789.0299090002458,1034.8911378962086,847.103910552523
1731305772.2480097,786.1262371599294,788.2049113547569,1000.062492544088,844.7857996704706
1731305772.25191,788.9644541424834,786.0516027705189,927.2727518433867,830.9922545670825
1731305772.2558105,790.697535722556,782.6925097373123,824.2646145851476,814.9019895982984
1731305772.2597106,789.843277426002,779.6842272005003,726.8344601214569,805.4541559264395
1731305772.2628543,786.842451407065,779.1090496643102,677.3180719874999,804.7893433354886
1731305772.2629037,782.5565729965022,781.7112131154454,691.4448189883278,807.4477095358308
1731305772.2636108,776.9802210711101,785.8864892399805,742.946172315541,805.7410240206449
1731305772.264246,769.8761896395874,788.7240434870363,782.2614944566367,796.8278937913002
1731305772.2675114,762.6167240127389,788.3642935935958,775.9808427978303,785.6257562406223
1731305772.2714117,758.6784660678594,785.5861118731515,733.3983218020832,780.9081930038194
1731305772.275312,761.4214730751481,783.1817996026886,695.7897770060711,787.4938556635409
1731305772.278437,770.944438703856,783.7315393958557,697.3337259840351,801.0295195702357
1731305772.2792122,783.3092757048001,787.7909490406141,733.9883872200176,810.2316536533585
1731305772.283111,793.2804215099471,793.877573086024,770.0840720379998,805.4050799393119
1731305772.2831123,798.1201248651798,799.7877555941301,775.8393668737494,786.5348988146891
1731305772.2870128,798.8605364768918,803.7344289864945,758.1072057408364,764.1965548061565
1731305772.290913,798.0433243397457,804.5058300520265,753.1069032941344,752.2376046171498
1731305772.2940197,796.4347906397105,801.2159106593158,787.6646816230198,757.8174894954393
1731305772.2948134,792.1343837758884,793.6100739846732,846.8851042248452,776.3735341693638
1731305772.297876,783.0484602338396,782.9847326556026,880.8357489011144,795.0344884725555
1731305772.2987137,770.3445677911803,772.6910208903554,846.6877141010227,801.5739077802481
1731305772.3019764,759.308243390001,767.1229869747523,749.4478360045284,792.2620445580628
1731305772.302614,756.0695368835616,769.2283313205154,643.3222129121433,773.3006936057416
1731305772.3065145,762.3556316346837,778.0639429122289,588.4616041804885,755.4014607824336
1731305772.3096025,772.7286730736283,788.4738865592811,598.1644512116677,745.8762927381766
1731305772.3104146,777.4137663775964,793.7993132455086,624.7172262231253,744.1292059003216
1731305772.3143148,769.3274971713577,790.1734856106023,601.8738574449,743.676211308698
1731305772.3182151,749.8475316543846,779.2941628322471,509.9407891730829,738.7103482356334
1731305772.3208418,728.2058973095623,767.3681394492291,403.0545840303745,729.6251454071903
1731305772.3221157,714.5738018797367,760.8869426292345,368.2122391053149,722.8204854076846
1731305772.3251848,712.5355258175883,762.4751021406447,449.1716169587317,724.993647995133
1731305772.326016,717.271317565161,769.8416704004611,604.4399711385353,736.9066658682677
1731305772.3299162,720.5373527745743,778.1241284350558,738.8763074670971,752.0981582098103
1731305772.3328483,717.5045650239115,783.3051453242272,780.1447428021786,761.6520562749776
1731305772.3338163,709.5409199772006,784.1341503858192,731.1106814132186,760.8167723178632
1731305772.3377168,701.5525114876745,781.7813394754342,654.924181181625,751.8471664815113
1731305772.339707,697.4305038795172,778.259809646273,612.9419966982961,741.1816862684332
1731305772.3407676,697.7477462126715,775.0640252184269,615.1008266932172,734.2006410122194
1731305772.341617,700.646992028506,772.7383981891372,624.2898641652722,732.2430000214647
1731305772.3455174,703.9804868279516,771.2044193253023,602.9013197222082,733.4324294373658
1731305772.3494177,706.6468764001705,770.2565916379264,552.4616843474486,735.2573033031639
1731305772.353318,708.6245038964171,769.7785800199086,508.34870447541823,736.3311251558266
1731305772.3563502,710.350358637801,769.67929594029,497.84240713491846,736.5616983324695
1731305772.3572185,712.1793208720601,769.814959738678,506.36635056475143,736.4526679468231
1731305772.3585722,714.207186018572,770.0278984287961,488.4430192880329,736.4432100434035
1731305772.3611186,716.3578298506567,770.2191973942529,414.3681493415248,736.6684622146545
1731305772.3650188,718.5285339404567,770.3659957662,306.04589454131514,737.0478116029321
1731305772.367821,720.6692099411862,770.4888048317822,224.57895259598263,737.4580681958895
1731305772.3689191,722.7836140142495,770.6127672272644,219.80550026136058,737.8346367021749
1731305772.3719327,724.8962407377915,770.7488934495336,289.4299126573313,738.178433136184
1731305772.3728194,727.0251408786669,770.8950809920964,384.5305205360263,738.5179366799258
1731305772.3767197,729.1742664557675,771.0448280846032,451.9716378179243,738.8756591676649
1731305772.3774376,731.3389911043187,771.193754358993,471.43214293219523,739.2574612092604
1731305772.3806202,733.5138438487191,771.3410864520262,456.5527666533843,739.6583629997958
1731305772.3845203,735.6963618074323,771.4880453014683,428.6572966098422,740.0718138737966
1731305772.3875155,737.886867387475,771.6359075011314,395.1948502868677,740.4946565307275
1731305772.3884208,740.086632992081,771.7851372961479,352.7405825364922,740.9271389253826
1731305772.392321,742.2964995196876,771.9355209540288,304.4969819704676,741.3707901265744
1731305772.3962214,744.5165532175266,772.0866479907396,267.65332536356976,741.8267053304928
1731305772.3963027,746.746459218727,772.238240808867,259.54480834724814,742.2950783601539
1731305772.4001217,748.9858684236171,772.3902132285453,276.7271002253839,742.7755625061028
1731305772.4027934,751.2346009959542,772.5425759300977,291.2564249565111,743.2677619510265
1731305772.403098,753.4926190577867,772.6953351907231,272.8700900307695,743.7714722478182
1731305772.404022,755.7599271137655,772.8484520446276,218.9175842032323,744.2866626673456
1731305772.4079225,758.0365062589159,773.0018530051984,162.51075059016142,744.8133586842957
1731305772.4118226,760.3223058990128,773.1554563481149,147.42265277106367,745.3515551312894
1731305772.415168,762.6172626932392,773.309188713652,190.88855208972797,745.9011969998202
1731305772.4157228,764.9213098907225,773.4629870840871,269.7232567741015,746.4622013324094
1731305772.418681,767.2343650871277,773.6167929834763,343.47227505620384,747.0344826884453
1731305772.4196231,769.5563165319562,773.7705467250789,390.86828018354515,747.6179634429221
1731305772.4235234,771.8870446196981,773.9241854669299,422.2969466732613,748.2125706174637
1731305772.4274237,774.2264955906702,774.0776450586889,456.8497724689268,748.8182297946823
1731305772.431324,776.5747627116951,774.2308637074323,490.6663101577914,749.4348644566478
1731305772.4340334,778.932060527128,774.3837844974952,492.97030353299357,750.062401384784
1731305772.4342637,781.2984854975823,774.536353429224,437.1541571468226,750.7007748176169
1731305772.4352243,783.6736283834911,774.6885114232483,336.3781580463562,751.3499188753982
1731305772.4377656,786.0564066425472,774.8401843844132,244.9832091937812,752.0097446668115
1731305772.4391248,788.4456530542814,774.9912829463887,217.99447405906187,752.6801170166497
1731305772.443025,790.8416078685215,775.1417247342154,262.85290848704744,753.360865314446
1731305772.4469254,793.2473433188294,775.2914764858986,329.8626178939036,754.0518580617439
1731305772.449846,795.6679594538903,775.4405812001914,355.42227369927366,754.7531168036822
1731305772.4508257,798.1057636002963,775.5891111265183,321.94795120983315,755.4648556629757
1731305772.4528985,800.553113127421,775.7370166813339,278.29503943362806,756.1872901674079
1731305772.454726,802.9902263895274,775.8839529236536,297.7623274611063,756.920187278349
1731305772.4586265,805.3977352328785,776.0293060963897,409.5542206647476,757.6624675167739
1731305772.4625266,807.7852892559023,776.1726470636706,567.3740571568006,758.4125067144953
1731305772.4654288,810.2159312924952,776.3145188083961,685.7786966638703,759.1696267876597
1731305772.4664268,812.7852253906432,776.456856395692,711.3066419599065,759.9361856334978
1731305772.4703271,815.5255349276526,776.6019414084526,663.6524354384597,760.718022798322
1731305772.4717638,818.2755520747222,776.7494667726814,612.631395154036,761.5204319188557
1731305772.472738,820.6593918761753,776.8934722773483,616.7144958115013,762.3395809447217
1731305772.4742274,822.3532733229515,777.0234342787946,679.5503469997694,763.1558140785586
1731305772.4781277,823.6406552132269,777.1334367120188,757.5441037041844,763.9410693281894
1731305772.4810114,825.8531516397483,777.2368133198253,802.9080413563138,764.6883562092262
1731305772.482028,830.9714393826429,777.3722384503909,799.5844776073151,765.4497134923481
1731305772.4859283,840.0571611066608,777.581083509487,763.9920183226195,766.338741479413
1731305772.4898286,851.5361179074797,777.8508848236149,718.8766919725783,767.4471094863493
1731305772.4906292,861.2731906160068,778.0622905860737,671.0856337807943,768.6825267700272
1731305772.493729,865.0526012525661,778.0216605793414,614.6638191009546,769.6602453540461
1731305772.496594,861.594192968245,777.6468903058686,551.9624476160228,769.8790103712729
1731305772.4976294,853.6891592081049,777.2437087570326,506.45333998928305,769.3097223912507
1731305772.5015297,846.8276949680468,777.6034978659127,509.82609065255787,769.1092050228293
1731305772.50543,846.447558247259,779.5826960238812,573.471283190485,771.6509646110972
1731305772.5077105,855.295342021594,783.2075432562171,672.5536904557655,779.1142488241632
1731305772.5093305,871.9204331479591,787.1190949987657,760.3026944496916,791.1153311064164
1731305772.5094943,890.8534983901351,789.301268881771,801.1385090702099,803.5409759484073
1731305772.5121768,904.6590051226177,788.7219912999782,793.5819031844576,810.6100080216562
1731305772.5132306,907.3681977809308,786.2277384338782,764.9136482710335,809.3561641655633
1731305772.5171309,897.7504608127201,783.7577522297502,746.2139735600881,802.7733678595906
1731305772.5210311,880.3454345010595,782.7796024733134,751.3216698085866,798.2380004459214
1731305772.5249314,863.170765406852,783.4088462192682,774.3610141108,801.7578974134036
1731305772.5277593,853.2603460605297,784.6622934715356,800.840487419123,812.6488525706586
1731305772.5283597,852.9046709838312,785.231026183792,817.665779525825,823.4728853307939
1731305772.5288315,859.0452883908833,784.067854585776,814.2869222283148,825.8203876990061
1731305772.532732,865.95798921288,780.6684775892376,779.6680350528347,817.3389175148804
1731305772.5366323,869.0333549513729,775.3049974981861,704.01612753048,804.0083394427962
1731305772.5405326,866.9287784250535,769.2282488593255,587.5278444626439,795.4793228762302
1731305772.542683,860.9093712780598,764.4318935930919,449.05082742404414,797.1026347934292
1731305772.543342,852.5151000348789,762.6887514299046,324.708783528238,805.122752418
1731305772.5444329,841.917395422521,764.3230712372024,252.85098790136925,809.0685897643738
1731305772.547225,828.4366668236175,767.7881967710281,252.8010350128601,799.7081217482803
1731305772.5483334,812.4595681522221,770.7016665938522,312.3659995369624,776.5108352588295
1731305772.5522337,796.5340668885668,771.6721539597594,395.1375519737086,748.7737569404685
1731305772.556134,784.2421383564878,771.2995341414439,463.5583646025163,729.3583727055866
1731305772.558925,777.7657715779469,771.3130824927556,499.79577120458526,725.793604068524
1731305772.5600345,776.440209043977,772.5856674223241,508.41841550284806,735.6651675029209
1731305772.5639346,777.602710269689,773.9733271261531,502.6666098777886,749.7350083873868
1731305772.56609,778.8385331759002,773.2319227771599,491.47585348508017,759.8682501376001
1731305772.5678349,779.5692643921737,769.2496441370638,480.2335338368654,765.0091880187692
1731305772.5717351,780.7328210999761,763.4971063089689,479.2952931803937,770.4160274927926
1731305772.5745072,783.064350672019,759.2619774206854,503.07380719186847,781.2987762585954
1731305772.5756354,785.6613689450579,759.2451200020726,553.6174565693536,796.713146075677
1731305772.5776553,786.2707037164106,763.5467586390656,604.8195743712023,809.1544203799655
1731305772.5795355,783.238097089454,769.6864833669415,610.5340113529791,810.3492325012331
1731305772.583436,777.4000359031528,774.5267642302548,539.5277479633539,798.4703270447196
1731305772.5849557,771.8827868369158,776.4181532715129,409.948961397577,780.6543284768186
1731305772.5873363,769.4790044804635,775.8520281563736,287.9570189312933,768.3597444044668
1731305772.59009,769.7515397469826,774.3234748302461,242.8894244844737,768.929561346931
1731305772.5912366,768.8201856815473,772.6762205222184,292.6059128007724,780.0404120966468
1731305772.595137,762.6564718911488,770.5293667031796,387.578865471448,791.6099911352189
1731305772.5990372,751.2670450560237,767.205659993044,451.8868731209168,793.6927185250806
1731305772.6029377,739.7644455099494,763.0410825865674,447.77993014916854,783.9707920778088
1731305772.6038208,734.7929586921092,759.5802415269359,406.41393164319754,768.9172614996012
1731305772.6056726,739.0871066705931,758.3452388190362,396.5143736182772,758.0751221190205
1731305772.606838,748.9555824724285,759.4122438698024,459.7642784796396,756.4041266798342
1731305772.6107385,757.1039986221843,761.3276967454041,572.5280027966445,760.8010826460346
1731305772.6126275,758.5555359113918,762.5719051090771,668.2433808276519,763.2325148478712
1731305772.6146386,754.7077671709308,763.1329296708964,697.5553049654798,757.6804830436371
1731305772.6185389,752.0853435092355,764.4994235030691,668.8694705810983,745.2443627438477
1731305772.6212554,756.7033357550057,767.8939939062861,632.8200700911467,733.2305947795154
1731305772.6224391,768.5678266247417,772.4155696399214,628.881620263709,728.8286850567346
1731305772.622686,780.8886189812653,775.0628897990974,647.5900108639303,732.5150864048147
1731305772.6263394,784.9487328938062,772.948235830874,644.4964063246399,736.9456165883647
1731305772.6302395,776.9509530572917,765.9008885477241,590.4878773752905,732.8411105526291
1731305772.63414,761.2996961172887,757.1188068766714,507.88047379766533,717.3824672795811
1731305772.636838,747.5350657792799,751.1237389546617,456.09430595982565,698.0051541844496
1731305772.6380403,743.3883876972056,750.5938178309395,479.96134316599546,687.848690422348
1731305772.6415513,749.5488062008848,754.6206394017915,569.8150101805584,695.9475630659257
1731305772.6419406,759.9955890687839,759.726493381024,670.4854017394255,719.8172109748903
1731305772.645841,767.0125461258906,762.6739551652527,728.264684313211,746.458591313929
1731305772.6476002,766.5719165514324,762.7135307957146,729.5885180602235,761.2407638844427
1731305772.6497412,760.1838583619784,761.6015316042201,699.0735344829523,757.9383225739389
1731305772.6524203,752.5748497642453,761.7662775151183,669.1271872532992,742.3430209392308
1731305772.6536417,747.7698784529722,764.4752691817316,655.6627608335915,726.9748077226095
1731305772.6575418,746.8266970783675,769.454645638443,656.2682182822523,721.381167731352
1731305772.6604166,748.3576968836196,775.7431267675099,661.4474655556706,725.7602835631843
1731305772.6614425,750.4347386508236,782.4583276946571,664.3607368913382,732.5991206968364
1731305772.6653426,751.955225735036,788.6766946420972,663.5082578692551,734.2811243925969
1731305772.668003,752.8125367102841,792.9851660557681,660.5981117894314,729.8803360058557
1731305772.6692429,753.3791755109056,793.8038090329187,657.6419917566221,725.5272810503759
1731305772.6731431,753.9957165452433,790.66757626792,655.52256606584,728.5098855595131
1731305772.6770434,754.7744976002072,785.3159565400248,654.0848996366555,740.4746752373314
1731305772.6792817,755.6589608118205,781.2038559256926,652.8246465084799,755.4497686723549
1731305772.6809435,756.5550524900285,781.33250943651,651.4023598049779,764.141578488632
1731305772.6825726,757.4112500311837,785.9554796399477,649.7615804177739,760.9595960222704
1731305772.683586,758.2264252333688,792.1181358126681,648.0027939399865,748.3507850153743
1731305772.684844,759.0217510608542,795.6120752619958,646.2311963233238,735.258428125796
1731305772.6887443,759.8146986792201,793.9165913517891,644.4883183529178,730.9192596344222
1731305772.6926446,760.6101778516115,787.8722147530692,642.7624163262487,738.614230319103
1731305772.696545,761.4045810432708,780.9353862478923,641.0262253061131,753.9500558025034
1731305772.6981473,762.1928467558213,776.8232530906945,639.2628837380828,768.6676638187134
1731305772.6991684,762.9724068161713,777.3777958599634,637.4705751353355,776.5805530231104
1731305772.7004452,763.7433271717833,781.8832610130586,635.6551214556214,776.7752880368466
1731305772.7043457,764.5067239165587,787.7993733294365,633.8220256307272,772.0119811488073
1731305772.7082458,765.2634281142994,792.1600314245168,631.9732493329589,764.7167463973391
1731305772.712146,766.0135941651976,792.9357149450959,630.1080393296439,754.8286139013354
1731305772.7147512,766.7569618108313,789.8896891230355,628.2249775753868,741.4151452281561
1731305772.7160463,767.4932362313491,784.5988280334924,626.3232762080711,725.9513484107149
1731305772.7170124,768.2222751210152,779.6023024970198,624.4029387486084,713.4696124186213
1731305772.717545,768.9440621279457,777.1298389563707,622.4643332886684,709.8803180084615
1731305772.7199469,769.6585938407028,778.1144713001337,620.5077798175982,717.4385141343826
1731305772.7238472,770.365811229667,781.9194839058155,618.533401674173,732.2250542041099
1731305772.7277474,771.0656397010599,786.714801781755,616.5411832008706,746.0849724352647
1731305772.7303338,771.7581125671929,790.2173631918412,614.5310792362854,751.9506277630782
1731305772.7316475,772.4434602602902,790.5904241387907,612.5030773312895,748.6758799110038
1731305772.735548,773.1219985154958,787.3044923184283,610.4572003914393,741.6778395950874
1731305772.7358775,773.7937390533842,781.5654028084916,608.3934839965675,738.7948105045494
1731305772.7394483,774.4579392002917,775.8789316027095,606.3119615043229,744.4159387780148
1731305772.7433486,775.1131671756543,772.7755864506263,604.2126657299971,756.2243295831739
1731305772.7459166,775.7584665421267,773.3837596548793,602.0956335958227,766.8513835046758
1731305772.747249,776.3953792119819,776.7651729695613,599.9608942255736,769.0955644004177
1731305772.7511492,777.0290226239387,780.4553430387417,597.8084366583786,760.9497257116852
1731305772.7525177,777.665400920282,781.8865491116176,595.6381849571926,747.059317536231
1731305772.7547429,778.303864113352,779.8771118453718,593.4500327281489,735.7479882847002
1731305772.7550497,778.9292405909739,775.3586559778157,591.2439671856949,733.5797578853428
1731305772.7589498,779.5146430118119,770.8896885010561,589.0202198671916,741.002543882645
1731305772.7614992,780.0450160619946,769.1445023472223,586.7792585913782,752.101741673392
1731305772.76285,780.5546760844758,771.2440506602558,584.5214210436358,758.9024560761281
1731305772.7667503,781.1427300763149,776.0207208824885,582.2462474514225,757.3073938996928
1731305772.7706506,781.91430241148,780.7137203224489,579.9520838008933,750.1330928468606
1731305772.7736082,782.8336252594513,782.5632785825615,577.6368916862705,744.661364108009
1731305772.7745512,783.582673665409,780.2477466706493,575.3006883269298,746.5959083950916
1731305772.7770815,783.6290816413749,774.4794879229316,572.9482322189298,755.5171794003803
1731305772.7784514,782.6541727344288,767.7149478969721,570.5883761728343,765.7164420096958
1731305772.7823515,781.1591709631571,763.1587674400926,568.2266074724324,771.5191349086718
1731305772.786252,780.6771577714537,763.269892952563,565.8525820764826,772.2413973364316
1731305772.78749,783.0822539247424,768.3429811019676,563.4341338547807,772.4303226573325
1731305772.7901523,789.1970616058463,776.1444812497252,560.9350570100165,777.4063163635531
1731305772.7924733,797.7334174831245,783.1742206661463,558.3623473591198,788.2305062144358
1731305772.7926643,805.6987727972403,786.870158541235,555.8133058292806,800.5068944225961
1731305772.7940526,810.3461831809382,787.1351245438082,553.4538456125659,807.9669576458115
1731305772.797953,811.2502498603496,786.0006514645568,551.3682714427066,807.7138460305448
1731305772.8018532,810.6737899663312,785.7663636732394,549.3283918335957,802.6631351613034
1731305772.8057537,811.7715512048943,787.1930332652482,546.7105429682904,799.1090089082542
1731305772.808247,816.1594235437888,789.1815653064677,542.8771905073098,801.4745252577941
1731305772.8096538,822.9470988677385,790.0170641608881,538.0841468775986,808.7099953129624
1731305772.811339,829.8822689470109,788.9432369272482,534.2902695138275,815.3921122237706
1731305772.813554,835.2664828517911,786.7000425746983,534.5584079038251,816.5309551754771
1731305772.8174543,838.7363942029355,784.7154244069789,540.0348634495886,811.9143899145217
1731305772.8213546,840.3173473239625,783.8419562121178,545.6405283956334,806.2378485985383
1731305772.8224623,838.9927174042788,783.8111835605031,538.8882241008217,804.8832188206676
1731305772.8238297,832.6102944858269,783.8076877197554,507.26105400328134,808.9431085638181
1731305772.825255,819.6942162883331,783.5227990857622,453.45520005637195,813.822645782162
1731305772.8291552,801.777811585814,783.6511937059529,405.2575097213278,812.8527734306085
1731305772.8302038,784.027060882806,785.3332428252922,403.00141150984365,803.1065733296851
1731305772.8330555,773.0345992255361,789.0144250129562,467.49257853879783,788.4816814959122
1731305772.836956,772.8895837008536,793.7347431107656,577.6704782511465,777.0678707593307
1731305772.8394125,782.2193283486134,797.497286762474,683.1115169806653,774.582151675131
1731305772.8408563,794.5743912619185,798.4364209399857,741.3154925685584,779.3185563916575
1731305772.8447566,802.3340748144628,795.8801333185806,745.0630924887761,783.1875972047753
1731305772.848657,801.6646538782273,790.6239748559786,718.1083348373966,778.3494474540144
1731305772.849069,795.0024122647513,784.4747034322255,689.7518830384549,763.9846523647905
1731305772.8525572,789.162754388721,779.5655647048483,674.5314087490827,747.418112107854
1731305772.854995,790.4172276868499,777.7365923058469,670.6724029937784,738.5250170570225
1731305772.8564577,800.1263096078865,779.8949738137203,670.2509165369537,741.9454727012901
1731305772.8574347,813.9654107818658,785.3682072293324,667.866298611417,753.3270596132661
1731305772.8603578,825.0278342124167,791.7465249428142,662.6103344919059,762.4405390443158
