timestamps,eeg_1,eeg_2,eeg_3,eeg_4
1731305660.295369,839.2732205010459,477.4386109076757,750.149441798039,818.1502320295083
1731305660.311,841.5923379721871,478.133980943022,750.0889036272024,821.9183448052195
1731305660.3266313,843.0000245115051,487.820140693925,754.7917376941009,824.2321679084461
1731305660.3422625,843.7641127816328,510.1843940401915,766.3322454558445,825.1940113626977
1731305660.3578932,845.3111332228422,538.3593260837841,781.5276258532829,826.7814677762217
1731305660.3735244,848.6579040305271,554.8405641841762,791.828404296454,831.2672574316831
1731305660.3827567,852.4531214983916,541.8166179201289,787.9881920308849,838.5455666847166
1731305660.3891554,852.7230144506582,497.74819582863324,767.6947529758397,844.7313845766053
1731305660.3917649,845.4102462098662,445.2343025256773,739.7356067094802,844.158803635496
1731305660.3956664,830.2280565669198,417.7514809696605,719.2888211469799,834.1308250999906
1731305660.399568,812.5469028075851,431.7303977826349,716.6240085119151,818.5848572413686
1731305660.401621,801.0625675120485,468.52646305082044,728.8647928086673,806.7266767851659
1731305660.4034696,802.3943856055262,486.28950590079285,742.8149662698142,806.7090711007602
1731305660.4047866,816.6018906749363,454.21617365209113,746.3191318369771,819.2217201976084
1731305660.407371,837.1529239623433,377.95535139366075,736.9590118947027,836.5346181157221
1731305660.4112728,855.330711579221,291.89083789158474,720.0403162371247,847.9814358015856
1731305660.4151742,865.5525498394202,227.08781254222032,699.8323585308203,847.3059674209289
1731305660.4190755,867.677616635529,188.4658014993526,675.3325668988011,836.006105189186
1731305660.4204178,865.233987565563,163.47250012169303,645.6944628490626,820.7225083926577
1731305660.4204855,861.8004816289553,148.46291103071928,617.8196324854209,807.7867629295357
1731305660.4229772,858.6511259066193,158.73710488595304,604.9101623110755,799.6570107142137
1731305660.4268787,854.9184472507941,208.39317083103072,615.5186134568925,795.3258953964663
1731305660.4307804,849.237458216367,284.47281305642775,645.2371555755415,793.0200295705221
1731305660.434682,841.3645233355144,349.95087387993283,681.1273094310253,792.2070261704642
1731305660.4360487,833.3885668567633,376.9927295758299,713.4533619722828,793.7336369434545
1731305660.4385836,830.5884105721583,373.79744102576433,739.9396016696071,799.2653774577965
1731305660.43935,840.7386449408774,372.73284128317187,758.090697796575,811.2671316461971
1731305660.442485,870.0440092639352,391.7742630597769,758.6503907269916,832.7868745851699
1731305660.4463866,916.6286819468087,413.4196245844347,733.7742492872451,865.3813421277132
1731305660.4502883,966.8880768121196,406.04587878688494,693.3339410480661,905.6479590788209
1731305660.45168,1000.2411078773031,363.48897728142083,666.8602833183035,943.7700458751762
1731305660.4541898,1001.1996709026657,316.84303951105005,680.5420628144705,967.0326954593952
1731305660.4580913,969.7926723820146,304.19106630957094,728.855084850228,966.7889449787101
1731305660.4582143,921.1827634265569,332.9683055911275,773.3505429064927,943.4709559970308
1731305660.461993,874.4389857604748,378.6131502547919,776.7668644492527,905.6146394686983
1731305660.4658945,840.1035172382126,420.40459274733746,741.4937120765163,864.2755404668487
1731305660.467311,816.5351050971656,469.99991383177417,711.2111892026112,827.7764145855845
1731305660.469796,796.0762294028215,554.526472981954,729.0457086640824,800.0090236409294
1731305660.4736977,773.4794030661691,670.0537225041595,791.6516606400888,781.3622436384318
1731305660.477079,748.9608263476396,761.8796713374131,847.053940187049,769.757771999715
1731305660.4775991,725.1870758632085,764.9759710426431,842.4652871981565,761.1477356697948
1731305660.4815006,703.249598399237,670.8697215934244,776.7775001553392,750.6913059388158
1731305660.482942,681.9727796148693,549.3861630343278,704.3830524321786,735.0190350763081
1731305660.485402,660.1103633359191,492.78928155774884,683.771498333752,713.9750405482076
1731305660.4893038,638.0072302637467,530.9414029748889,720.6985046305051,690.1125882937679
1731305660.4932053,616.8103195203596,602.6154687475647,763.3812449736031,666.4789865759776
1731305660.4959433,596.78798880573,615.320658598997,755.547446437316,645.1364257813216
1731305660.4971068,577.556754642944,535.3806743036544,693.7304032980174,627.9424619467507
1731305660.4985733,560.5814916110601,417.67420751565845,629.9237869607654,618.186983237706
1731305660.5010085,550.9092699076648,346.3488435811148,616.4479703007163,620.1531335295402
1731305660.50491,554.8793780669805,349.3444283879144,649.7834685933086,635.7386790994802
1731305660.5088117,574.5945212785532,375.12027528751605,672.2962521808934,661.1020893760187
1731305660.5127132,604.2647137380586,354.13972862530284,632.2269264056724,687.4745632439914
1731305660.5142045,632.8805034014347,279.7825641002153,542.2495929195577,706.6893697023133
1731305660.5148077,651.7833404534342,223.9593975126088,476.6026517733651,716.8508519426375
1731305660.516615,660.5372832918465,270.3326172324971,507.0234862267042,722.5840550627958
1731305660.5205162,665.8402923072927,431.6417272504321,637.6991249089554,729.282927480521
1731305660.524418,674.8684984456199,631.6577407298313,799.3919301854831,736.9852827575589
1731305660.5283194,689.4601956602444,765.9309986418276,905.2784663036384,740.2832959367786
1731305660.5298357,705.9509732884395,780.8501403501347,915.5080508998348,734.7101008886046
1731305660.5322208,719.5413060847965,702.0069701794133,856.4323540625824,723.2324777127001
1731305660.533672,728.2650443987991,599.3649229165648,787.3833000569317,715.9166863725851
1731305660.5354252,733.2774579302184,532.4957597351942,752.2871294052018,722.267540246496
1731305660.5361226,736.5225731646566,522.0846738100747,756.7579227621079,742.8633845630635
1731305660.540024,738.9651672415183,555.8005927478148,779.8774827652128,767.9094826232197
1731305660.5439255,740.931980289386,606.0127231010812,799.4672930415309,784.380403754349
1731305660.5454664,743.3274064905859,640.2172782454712,806.8364992093049,785.9654378545849
1731305660.547827,747.7206387865043,626.3118355988412,805.2972972599983,777.5889145180834
1731305660.5517287,754.9284549682109,544.2294944272371,801.6418895375292,770.8374410510022
1731305660.5525362,763.6188301124413,404.0949157902427,800.041394095148,774.1901746061044
1731305660.5556302,770.6154345992456,255.02354227274157,800.9756132533913,786.1265608436166
1731305660.5595317,772.9844288906976,168.09942283937437,803.0516607645689,796.6344783949993
1731305660.5610976,770.303643397911,196.5548014103873,804.9467283311899,795.6941512657427
1731305660.5634334,765.3157208231382,340.0259396359332,806.1964101322578,781.7735794241427
1731305660.567335,762.5081890825505,543.4496265155815,806.9962334535556,763.6088271093018
1731305660.5703332,765.7356220024451,734.8174331097357,807.7036961655231,754.0548921167314
1731305660.5712364,776.4722878500179,870.7242987607658,808.5229274843666,760.9236533453668
1731305660.5714006,793.4935163660524,950.8845095415127,809.4649473780287,781.6895115176336
1731305660.575138,813.688437147446,994.2208448210336,810.4512387228752,805.613359679048
1731305660.5767286,833.2862268057968,1008.1855818336765,811.414209788241,821.2056368216156
1731305660.5790396,849.0638386119477,986.7302522313996,812.3335468137074,823.3499190047569
1731305660.5829413,859.3621413833198,935.8173620618397,813.222292225578,815.2015379407553
1731305660.5868428,864.5656050550206,889.6440348612228,814.1000110693212,804.2111579735877
1731305660.590265,866.6124439854531,887.9619484156948,814.9771818793893,796.0323402457062
1731305660.5907445,867.69822541812,929.9720862876579,815.8541829433879,791.3447167283539
1731305660.5923598,869.1448633178912,954.3031664314753,816.7272002801914,787.7477362222355
1731305660.5946455,871.292455725266,877.2552130131642,817.5934052001915,784.2025987624958
1731305660.5985472,874.1209115180724,665.8187364125178,818.4525214398931,783.2043566383455
1731305660.6024487,877.4909800647698,382.5604085853672,819.3057784582483,788.2654373382157
1731305660.6052413,880.5269617122926,157.125706647926,820.1543824421842,799.2062431968642
1731305660.6063504,881.0331789063325,100.20882960692308,820.9989034758157,810.2702153345055
1731305660.607991,876.2270512328183,226.23555293188053,821.8397835287285,813.5559842243712
1731305660.6091294,864.8623653683336,446.6121987613195,822.6782616554112,805.1391768202533
1731305660.610252,849.1805219963943,639.1821773299213,823.5165728951768,788.539883132417
1731305660.6141536,834.7394611163595,736.964176730304,824.3565084908225,772.3871866621872
1731305660.618055,827.5649499114952,762.671730635965,825.1966813270583,764.0927721525175
1731305660.6219566,830.2007943628439,782.8034600272384,826.0309493535318,764.6243413280022
1731305660.623622,839.4071802185064,828.8231434583381,826.8517990055243,768.3959827398083
1731305660.6258583,847.4928984377846,864.6805649920805,827.6602445325901,768.0808575550592
1731305660.6279936,846.9519832444389,833.7713112570455,828.4764221987903,760.4660006710817
1731305660.6297598,835.6134574216692,735.521712528225,829.3363856423239,749.0497972380932
1731305660.6336613,818.624848922696,646.8155671446132,830.2614759807736,741.7417145151213
1731305660.637563,805.3868616495483,656.8383630263899,831.208434898067,745.491415996844
1731305660.6392531,803.2896109611693,774.3957681097409,832.0472467679084,761.6355557743462
1731305660.6401494,812.8928433800255,901.7537103344414,832.635708439849,785.1018804498665
1731305660.6414645,828.2596054770631,910.2403128030028,833.0106533706319,807.8239477971897
1731305660.645366,841.8986977950652,755.5505355189757,833.5726585472653,823.6856985030449
1731305660.646858,849.9526828264159,528.3035623508747,834.9872898930615,831.3045802337039
1731305660.6492677,853.4258829941838,389.2111912815935,837.5710682727425,832.8725889454864
1731305660.6531692,855.149198663068,440.21161826071057,840.373219393774,830.6257995447738
1731305660.654884,856.0592985873991,641.2661309060215,840.8906038252981,824.4625367564026
1731305660.6570706,854.5998815818556,844.3547776613613,836.6889174853686,813.008639532381
1731305660.660972,849.5840235235746,914.7756302497768,829.1598528294387,797.0444019278144
1731305660.6648738,843.1930643748482,835.3106030108897,826.9633466401476,781.7141485722466
1731305660.6657224,840.5360755294204,707.2850996438651,844.2791253134554,774.7139449995892
1731305660.668775,845.5556222461797,655.4926214698894,891.1178276128004,781.1538748722378
1731305660.6705153,856.7653468913984,725.6311459459504,961.6926590164919,798.9778827638643
1731305660.6726768,866.8805498483016,860.9485449053145,1033.6283948631742,818.8870619850329
1731305660.6750574,867.3437307266579,966.6964508465348,1082.396841677651,829.5000053415372
1731305660.6765783,854.6464006207594,993.1756851008358,1098.0251955644844,824.4981623247619
1731305660.68048,833.565340122299,961.3622681977879,1088.3465178467952,806.7963561125624
1731305660.6843815,814.5070789670854,919.0726187272566,1068.763264867854,786.6743559907146
1731305660.6845868,806.6379912215076,883.5291771689488,1050.7561393826236,775.0149513847836
1731305660.6861465,811.8693832921448,831.9536934645106,1037.8471684774127,776.3140449683526
1731305660.6882832,824.2200872171795,744.5096302463023,1028.2296411984867,786.3384518047769
1731305660.6921847,834.8836650370409,646.2081372036397,1019.030529887399,795.9159876942919
1731305660.6960862,838.846781568408,596.8039324747222,1008.7446282971418,797.7843796294395
1731305660.699988,837.808712459634,635.7997322315618,997.405263795928,791.2252994144976
1731305660.7017777,837.3311299826864,739.9453083195615,985.6895566304522,781.2199545779937
1731305660.7034512,840.9556735498811,839.1614647478037,974.1293640672134,773.4699060039034
1731305660.7038894,846.4781828490328,876.6471769822251,962.8621673347554,769.8811557354874
1731305660.7077909,847.6606544523705,854.1349060429447,951.7701789902168,768.2420450623092
1731305660.7099657,840.0094502424186,819.6912372970094,940.6995576256164,765.8188411127794
1731305660.7116923,825.6933546997766,814.0608452840372,929.5771321509274,763.1470598417426
1731305660.715594,813.1518065550375,831.2837392543847,918.4101488260765,764.3378901263288
1731305660.717409,811.1587012390256,831.3342755756219,907.2358899253702,773.4535895827057
1731305660.7194955,821.7646600527935,787.9224416054557,896.0812231855404,790.0347416432127
1731305660.7223155,837.8707361509212,719.6141824817971,884.9517150562444,807.8059947956974
1731305660.723397,847.8782258943121,670.8061374397751,873.8403014579815,818.2349553484921
1731305660.7272987,844.2439886597947,661.1307011916684,862.7389900339198,816.7021767762385
1731305660.7312002,829.3009682023456,656.3110187130218,851.6445228793739,806.494727306592
1731305660.7330396,813.5289762764121,595.8711207654327,840.5577479378468,796.9252233998229
1731305660.7351017,807.4876372134428,457.3271801337156,829.4804559309019,796.3399531519616
1731305660.7390034,813.8801338774792,294.93799330492647,818.4130521981982,805.301021959051
1731305660.74118,826.0493469545306,208.36807492905336,807.3544635905383,815.7012712488768
1731305660.742905,833.7355166611752,262.67511017215156,796.3039748882697,817.0044508343119
1731305660.7448735,831.0571487507469,432.60543604661825,785.2634721706355,804.868478466824
1731305660.7468064,820.4145595826247,625.2860254845095,774.237698670303,785.2953072686004
1731305660.7486708,809.9017843785884,760.0044360750467,763.2303850633497,770.9695651052518
1731305660.750708,807.0084372853898,827.7666638576471,752.2369671342714,772.5123396324673
1731305660.7546096,813.6363199421176,875.8414673700197,741.2400271430296,791.0919141243304
1731305660.7585113,825.6130932106689,940.4908541625872,730.2175201174027,817.6426750310001
1731305660.7600443,836.1747422020549,1002.4025386142954,719.1686093564524,839.0966225425291
1731305660.7624128,840.399345838847,1011.0127599949718,708.1428480586337,847.093211055947
1731305660.7643018,837.6965529572088,948.1336550875556,697.2347482593929,842.9816644604448
1731305660.7663145,831.3048168388223,858.9544872264119,686.5057648121493,835.7292254425565
1731305660.7702155,825.6153556705048,813.0138796649643,675.8508487455504,834.6492095920864
1731305660.7741172,823.1076057032276,832.0610978236443,664.9300367993881,842.6349052202556
1731305660.778019,822.730805162517,859.2269035425547,653.3508019439371,854.7965138466689
1731305660.7789087,820.789453982172,806.5851048390432,641.1687613910323,862.8514342780841
1731305660.7797816,813.8713788551571,642.1709514663573,629.4013117963548,861.3389379050627
1731305660.779933,801.7956684135385,435.3707333592249,619.8250933197223,851.0657864815339
1731305660.7819204,788.2240309268869,311.77319960967657,613.4029762083278,837.8997918019429
1731305660.785822,778.163757531508,348.88504932482664,607.8132382361456,828.388856241336
1731305660.7897236,774.1474209056179,502.73642885980985,596.4939995464184,825.4487789664638
1731305660.793625,774.2264907717614,636.5176987239892,572.6396558453392,826.9628269224131
1731305660.795564,773.5795767219815,634.8009586848013,539.0243936219583,828.0407859627979
1731305660.7975266,768.4577055986655,505.64237348613835,517.4580929487887,825.0596790574753
1731305660.797773,759.1651939807316,376.7102194315764,544.7357223461669,818.2809312028603
1731305660.8014283,749.7083366554215,384.25116748759206,646.419468934316,811.115393971927
1731305660.8053298,744.6683671161558,551.6658288500378,802.7893349460136,807.0773792737685
1731305660.8092313,746.0051947948072,765.0203731235719,943.4283270845087,807.3524730488895
1731305660.8111951,752.1469520776194,865.9778754488827,991.0205315223272,810.8594254413899
1731305660.813133,759.6101428686987,780.3000301260338,924.0001632663453,815.9587549896889
1731305660.8146896,765.5505670866129,574.0916960686808,799.8505992210085,821.549057666772
1731305660.8166373,769.3217506597905,396.4885722016004,713.4774182635866,826.5344186500674
1731305660.8170345,772.10946188719,361.67516597641156,724.2265993651056,828.8345461376305
1731305660.820936,775.1369157077719,466.21562816044707,812.1525803041513,825.7057472742557
1731305660.8248377,777.9961708108067,602.0499899256636,898.0054096439007,815.6776536107565
1731305660.8268263,778.6885542449118,646.6473554384014,908.26226758796,800.633477893318
1731305660.8287392,775.6181343563156,554.0502572272386,831.1958288645634,786.1682200347442
1731305660.8326406,769.8321221065355,377.739355526114,720.3764597610736,779.4234021051561
1731305660.8355017,765.0798783610477,218.25675885272597,647.879219501948,785.1706681859288
1731305660.836542,764.9809010166363,149.327962908107,650.4780962728635,802.2145528171673
1731305660.8404438,769.5312798369761,183.38448932417037,712.7563856853827,822.6266207557283
1731305660.8424573,774.3692071722558,290.7370330647524,793.3825992394543,835.2038928535774
1731305660.844345,774.0219550690872,436.478178045373,862.3214120933562,831.8406359832791
1731305660.8482468,766.5893281623382,593.831030948674,913.4386031315761,812.9173471312014
1731305660.8495977,755.7044329188993,730.2959377977812,948.0184499119365,787.7938173472695
1731305660.8521483,747.9146177701834,798.1016793291293,955.5502949411075,769.6293902525729
1731305660.854366,747.7171699148803,754.9656282164876,917.5398998907622,767.7553603951719
1731305660.85605,754.5097430809432,603.1165676804903,831.5134334651254,782.5863794555517
1731305660.8580885,763.8971308324841,406.68496296752187,727.7916104728233,806.3255011185706
1731305660.8599515,771.9156212350676,261.5394325166148,657.1327221693501,828.7354033775273
1731305660.8638532,778.2552148832115,235.47926712312267,656.8019505285033,843.697799248946
1731305660.8677547,785.6021867148432,326.6002880950504,724.8662948594806,851.7751481420712
1731305660.8716562,795.8934006129506,472.5933759469247,824.4676581956793,857.2563814512716
1731305660.8732305,807.3021081036696,598.3263692038474,910.9628980464024,862.8048062730497
1731305660.8737197,815.1973273580802,658.684708706405,956.0174728966356,866.7294757067217
1731305660.875558,816.3852520214608,646.2472804514113,951.7326797793903,865.1730482596141
1731305660.8794594,812.4024477420093,571.6094819101486,901.2540614741414,856.7101691561791
1731305660.8833609,808.2841333447486,447.26077076965373,813.3174692115655,844.619941511871
1731305660.8845055,807.7563110726027,293.0079908545764,707.0125223033234,834.512253496661
1731305660.8872623,809.6138796675185,149.5480851199834,615.3473218389718,829.5798675080587
1731305660.889351,809.0026685936859,72.64475812603405,574.0366213803823,828.0327107154445
1731305660.891164,802.3577147528531,100.65146760479564,599.1015952773344,825.1196309839318
1731305660.8920949,791.0573434014094,222.20907953201254,673.9149724147228,817.7442044248205
1731305660.8950655,780.2803225308542,379.24675387273874,761.3267667547578,807.3090734714008
1731305660.898967,774.4715805379858,508.1314394659322,831.4310953232165,798.2640024454672
1731305660.9028687,774.0151464632029,581.180175398863,877.697553842519,793.9488844540455
1731305660.9049816,776.05391396593,608.9483294766598,906.1384421634854,793.6995241844749
1731305660.9067702,778.0112402459785,606.533271634355,912.8455913092143,793.7296747321383
1731305660.9106717,779.978962605048,567.1981630127724,879.7160270594144,790.7192314009809
1731305660.9109592,783.8396162817986,476.7977843571156,798.0564987457685,784.8028904841582
1731305660.9145734,790.454766142605,352.50913048159373,695.7573806373211,779.5277884641163
1731305660.918475,797.8558324387777,256.0210773932123,633.4687362894696,779.0840535285732
1731305660.9194138,802.0608927556019,253.9069954257422,662.3203726404179,785.172257148707
1731305660.9206128,799.7461972841231,354.72338484386233,775.4558108839375,795.8408507938461
1731305660.9223764,790.7035809878807,484.6211095467171,899.2166023403838,806.9704096175057
1731305660.926278,778.4027486443072,535.4482551593385,940.9582910964339,815.1960656081638
1731305660.9298236,768.3128479121717,453.74638120673274,861.1059388432511,820.0974582962027
1731305660.9301796,764.9911417253508,295.14605313036304,710.1203530195014,823.9464005168747
1731305660.9340813,769.6753626640317,189.99896095992597,594.3625598321687,829.0394922490563
1731305660.936244,779.8289578663157,240.20442210933106,593.8682828553475,834.6960100760132
1731305660.9379828,790.853423150343,431.67872325501315,699.6937839028219,836.7171758996577
1731305660.9418845,798.7796607715443,640.6405151459071,825.2716622854907,830.3646833123563
1731305660.9457858,802.2215534325055,732.9586176353156,882.1002202265538,814.7336030900506
1731305660.9486878,802.5690944938096,672.1084933804466,852.4306812860851,794.6538484006833
1731305660.9496872,802.6379878644258,542.2710199034068,795.4129565568875,777.9974095704628
1731305660.951875,804.8006438806897,470.6038898180507,785.4121184348991,770.2291524525725
1731305660.953589,809.6357163567694,523.3261309157201,842.3721462139305,770.5837202637605
1731305660.9543216,815.6858334295532,666.5260343399024,917.2514657805377,772.9982765836249
1731305660.9574904,820.4038354984307,813.036805709071,941.1606218026039,771.0503034620297
1731305660.961392,821.834172326262,897.4862540422454,888.6668800882613,763.0231538937162
1731305660.9652936,820.0230390651888,911.7249274618896,796.9517771544556,753.2687414126035
1731305660.9675062,817.0302394643227,887.1137108679825,727.1884019197333,748.9242983566655
1731305660.9675522,815.2797708216349,858.1350942405822,708.0336640210712,754.4311845529681
1731305660.9691951,815.4804319096736,841.2792531040961,714.4197270029267,767.8493235516684
1731305660.9730966,816.0349667738614,835.7181205819323,698.7968614224418,781.7499455264651
1731305660.9769983,814.6753176883145,833.9308487440715,642.6017704811427,788.2977746845754
1731305660.9808998,810.8925508000879,830.295011090763,578.7186964125854,785.0147876499694
1731305660.9831371,806.800587123434,823.5418388370892,564.8553563753045,776.8953326796526
1731305660.9848013,805.4855654463565,815.0745689531481,633.6948334311398,772.971206603311
1731305660.9864166,808.2570039200513,806.5706578120976,764.8129442545597,779.6034700015581
1731305660.988703,813.1984844749217,798.7780545045299,900.0930749433455,795.50414325525
1731305660.9892297,816.2557730693868,791.5780278708935,984.6658736628594,812.4461398687265
1731305660.9926045,814.0795128626037,784.5535213915091,997.7564056560567,821.4015610983645
1731305660.996506,806.6056068222583,777.4197937806449,954.2191911665233,819.5534298152963
1731305660.9987683,797.5299129918392,770.1268196443289,885.8206483317302,812.5698946900677
1731305661.0004077,792.1378736232973,762.7566192463237,822.9164398329207,809.8954091807668
1731305661.0043092,793.7630687609499,755.3965928710463,786.4170774118143,816.4883835623205
1731305661.005281,801.4526623394181,748.081710054924,784.8382969194408,827.9332823970267
1731305661.008211,810.9252823405353,740.8024746436635,809.7580081220896,833.6287853119709
1731305661.012112,818.3355701631049,733.536240699089,833.6191406535195,825.898805692972
1731305661.0143993,823.6106452406742,726.2689668289594,820.0029739533633,807.2419821294945
1731305661.016014,830.0757532734469,718.999079931636,747.3394442311188,789.0958201278513
1731305661.019915,840.4134135462149,711.7309550103554,630.4997787544867,782.8926627031698
1731305661.0238168,852.736256934824,704.4679184684517,519.7533001711245,791.0742120883398
1731305661.0241375,860.8260643501294,697.2099058274865,472.2841015700366,805.6680058080569
1731305661.0241454,858.8333370632974,689.955699257868,515.5070369465977,815.2508916227584
1731305661.0277183,846.4829315489303,682.7066906340102,630.7082960734898,814.0407165932055
1731305661.0300305,830.1626995521942,675.4681417717757,769.4224646157566,805.6283619123442
1731305661.03162,818.8014030471348,668.2448473056738,887.1413727430136,798.957761113063
1731305661.0355215,817.903909808746,661.0319860446849,965.3407291282532,800.6822650493089
1731305661.0394232,826.498827958315,653.8087272782576,1006.5224496294827,810.447217678186
1731305661.0430098,838.9679146930396,646.5472446521044,1014.5091085290245,822.410421264737
1731305661.0433247,849.522767758281,639.2439548245754,985.7101516830071,830.7241136246236
1731305661.0456617,855.3851817236203,631.9567616658244,922.3684747415494,833.757755509896
1731305661.0472262,856.7386345847609,624.8021203320988,851.0911816171924,833.7760837216116
1731305661.051128,854.7719024910373,617.863005135679,819.168901610796,833.3363286216216
1731305661.0550294,850.3327236212587,611.0234778276131,861.0964547103544,832.4595395153884
1731305661.0589309,844.1766429440288,603.8730098667874,960.6956253135882,829.2874981896156
1731305661.0590458,837.7230262641583,595.9121719133135,1047.238929743516,823.1068549231192
1731305661.0612926,832.8759050921132,587.1604736855127,1040.3347968759851,816.2052612665578
1731305661.0618742,830.8233766956519,578.8163360833753,915.0245836620735,812.3351982218788
1731305661.0628324,831.0223426788361,573.0793930298933,733.2182851988748,813.1340559581262
1731305661.066734,831.4512272673996,571.2835998305923,607.2750351137222,816.0332092351747
1731305661.0706356,829.9789313586734,570.8184210284772,616.8623531029131,815.8628327858884
1731305661.074537,825.6883872096982,563.7188697823576,745.9197324832702,808.9504129683414
1731305661.0769238,819.1423858352529,541.2271407750494,896.3838708424319,796.3302506866229
1731305661.0784388,811.6182216774821,505.7370564166689,970.0575652660424,783.5141354782052
1731305661.0807383,804.1964013457441,482.92328712084316,947.2884721087091,776.9933721302714
1731305661.0823402,797.4924324365434,517.8125793757565,893.0267878842418,779.9508635314974
1731305661.0862415,791.9778986187123,642.7269362903913,888.1896019551706,790.2074830463071
1731305661.0901434,788.192119042425,832.6366845284242,952.6112530017979,801.9545365108095
1731305661.0925548,786.4465834781388,994.5212144290424,1030.2953463445376,809.9044590066133
1731305661.0939538,786.4473721419167,1024.0997203784993,1046.7322580935424,812.3794084425404
1731305661.0940447,787.4107246199122,896.162516705303,981.5223180313731,811.0958435764082
1731305661.0979464,788.5670503285178,702.823667072119,888.2997795744104,808.7615960557322
1731305661.0996027,789.525741579114,588.5253429980155,844.7001258446616,807.0744966950454
1731305661.101848,790.2680483263681,627.9856656881334,879.3571252907243,806.3204299506018
1731305661.1057496,790.9353513331279,755.9061897454822,943.2971596368809,806.0266301075058
1731305661.108186,791.645797891048,818.4391376671748,952.7607676345951,805.6982545044958
1731305661.109651,792.4325030498821,707.5198644266786,865.8318267272386,805.1428396586265
1731305661.1135528,793.2709270286887,460.5143668938286,724.0368278778838,804.4188948271457
1731305661.1174543,794.1269272366133,234.9438980950256,620.8430716012581,803.6563634386549
1731305661.118467,794.9834937914982,179.31151433207725,624.4842308177532,802.9346150740824
1731305661.1213558,795.8415594748485,313.95028938033306,723.0309160496022,802.2615376429762
1731305661.123817,796.7091413277481,524.0343688978113,838.1891071750753,801.6091935220735
1731305661.1252573,797.5922454708428,663.4381414450295,892.1368434046433,800.9515237536424
1731305661.128862,798.4922107832822,671.7111494553177,867.1469830367746,800.2793785538548
1731305661.129159,799.4074792808874,604.5388664102042,809.6139592989817,799.5964121776842
1731305661.1330605,800.336162814159,564.6044161436516,782.5277295203092,798.9093183899897
1731305661.136962,801.2773482372721,607.326936143608,812.4977045457043,798.2217347954535
1731305661.1373315,802.2310448191932,705.2304315493352,874.1713560417211,797.5335330458367
1731305661.1394482,803.1975809106408,788.6351351441499,917.0600493964396,796.8428677054337
1731305661.1408637,804.1771408622163,810.9529283780589,905.9929966757966,796.148130854911
1731305661.1447651,805.1696515809332,776.9557179570324,842.8519489899928,795.448644970483
1731305661.1486666,806.1748902974696,719.044557290661,758.5815056741263,794.7443803714198
1731305661.1525683,807.1926201638404,656.9083190501274,688.0466446307546,794.0354295104258
1731305661.1550794,808.2226531612552,584.2855656175944,648.9831633252977,793.3217049216548
1731305661.156196,809.2648424160019,491.9695650396,637.8972313874524,792.6029225836185
1731305661.1564698,810.3190487448153,396.1092926784849,639.9786601118776,791.8787202000333
1731305661.1603713,811.3851167130575,335.0619774119194,640.5202700234975,791.1487618385169
1731305661.16377,812.4628697088526,332.8663548229295,629.2832356183193,790.4127713847529
1731305661.164273,813.5521169603818,367.65062171000227,600.4731240968358,789.6705094173402
1731305661.1681745,814.652662696978,384.3090451699717,555.4888331283462,788.9217306509074
1731305661.1707103,815.7643115359589,346.24012537277235,507.9486023939535,788.166153617205
1731305661.172076,816.8868675892154,275.676675907049,481.63075586033557,787.4034656463552
1731305661.1750605,818.0201266454503,237.65985331685863,496.17439308062484,786.6333747355358
1731305661.1759777,819.1638643407005,278.66001013849257,550.6503198509,785.8556886556368
1731305661.1798792,820.3178300708959,379.97547974418984,622.6277046188754,785.0703493567825
1731305661.183781,821.4817611273272,474.06399692717434,687.1023077584425,784.2773217831515
1731305661.1863415,822.6554226865081,508.4895836503101,737.4865470224967,783.4763094731672
1731305661.1876822,823.8386501949835,493.2405210282797,785.8616250416553,782.6664801722891
1731305661.191584,825.0313363399133,484.625834114918,840.9365599709222,781.8466116717796
1731305661.193925,826.2333084323171,524.19011459793,887.9684004638995,781.016001996596
1731305661.1954854,827.4441291818679,595.8223044143524,895.7971850595205,780.1758345819102
1731305661.198678,828.6630088246748,643.6330317318321,848.5503829039646,779.3296179475201
1731305661.1993868,829.8891040550398,630.5492591569595,771.0554192485531,778.4808335553821
1731305661.2019725,831.122282394724,576.9766214536278,718.0841952692292,777.6275080508851
1731305661.2032886,832.363858401413,539.9085746213362,730.4810988167866,776.7575205902546
1731305661.20719,833.6161943042433,553.7066317029883,796.0468479355239,775.8524429259213
1731305661.2110915,834.8802394207305,593.9337509181177,854.5217107903313,774.9056516902879
1731305661.2127893,836.1518512340147,604.0853756471342,848.065096052627,773.9473242927796
1731305661.2149932,837.4206303718466,560.7446415329052,774.2806839169615,773.0491397019138
1731305661.2176037,838.6762987345064,509.2178438454445,691.8781081566635,772.275009201152
1731305661.2188947,839.9233575855989,526.6668043493999,670.5549561539603,771.5781146785464
1731305661.2227962,841.1937079567405,643.421509181267,729.6205155982019,770.7234680004832
1731305661.226698,842.5362054605037,801.5486155053708,822.2922724826128,769.3847703301838
1731305661.2305994,843.9678015880005,898.4747044582573,880.0330745941079,767.5132098629335
1731305661.2316537,845.4065405838275,879.2493444802603,874.3297767640297,765.8250485198622
1731305661.233235,846.6603606272931,789.0579265366309,837.8017293711493,765.9251716100116
1731305661.233586,847.5638996178327,732.7815073954687,826.8450055212523,769.58290243762
1731305661.234501,848.2665921426719,777.3327512774856,863.8210933396556,777.3671218546301
1731305661.2384024,849.4718712605572,888.1202187198535,914.8074737883546,787.8030551678112
1731305661.242304,852.2700312565391,959.5165354211945,923.6645827457636,798.2011616685313
1731305661.2462056,857.4383323265425,910.8503346302152,868.9308066893876,806.8483068367752
1731305661.2488658,864.7812409828954,758.2409236753999,787.8877803448675,814.752113297916
1731305661.250107,873.3751857162845,596.2501257875047,742.9984031337992,825.3301463121452
1731305661.2505178,882.584487911135,508.47500455876764,761.0806298232462,842.1293677329735
1731305661.2540088,892.5531784940923,491.8567089578904,803.0328176552974,866.106255807496
1731305661.2579105,903.3850870134936,465.19771584419414,795.2541107968653,894.1519402804163
1731305661.2618115,913.8486251674806,353.69473453432613,697.2719163824107,919.7996342693419
1731305661.264497,921.1340461949421,171.73170032478652,545.7387447027705,936.0359015089805
1731305661.2657137,922.2537839854081,28.047217269924317,434.5940185059663,938.9942342528465
1731305661.268494,916.0778629955253,46.55419352490412,446.60169939058346,930.3696476695468
1731305661.269382,904.2182366198822,268.75082886261396,592.2453788689099,916.6153106782009
1731305661.2696147,889.8738601206409,616.5783734786235,803.2213996173053,904.9280278682149
1731305661.2735164,875.6198277431698,941.3061488881224,981.0420823671351,898.609716253953
1731305661.277418,862.1393484146638,1115.5490416968596,1059.5430718313075,895.3172263942307
1731305661.280128,848.9565457503459,1099.626398248659,1036.1973152203527,889.6600934701972
1731305661.2813196,836.2291239335383,944.122440838035,957.6473573007628,877.9762214840262
1731305661.285221,825.6264716601784,742.5059361790811,879.7771606086619,861.2004437658444
1731305661.2882464,819.3006369891776,575.7279859164362,834.8551498565236,843.5614104554325
1731305661.2891228,817.9668418934392,481.25330787724624,824.1657222311991,828.7836302418885
1731305661.2930243,820.1201754867442,453.2657231411047,831.4779924182517,817.6332846185763
1731305661.2957592,823.3453181744004,462.7795928539779,840.5200448928349,808.878004098269
1731305661.2969258,826.4884429369725,480.9928126772274,843.8988742443339,801.97846377983
1731305661.3008273,830.34996818602,492.6804470435426,842.1977789125342,798.0868731424549
1731305661.3034022,835.8526190171401,496.2133675905414,838.9147167288735,797.9995196557769
1731305661.304729,841.3127380550014,496.2544348998793,836.5663405986825,799.3511351764888
1731305661.3071108,841.849746495937,497.07234510912076,835.6593446204657,796.6238621411377
1731305661.3086305,832.3886403361943,500.0390811373264,835.5148639360038,784.9340395176273
1731305661.3113902,812.2628108856882,504.4048614274335,835.3670591220036,764.5460312541747
1731305661.312532,787.3098088408935,508.97019094789556,834.8907833127922,741.7502472060496
1731305661.3164337,766.9062448417038,513.0898400087802,834.1533921363624,724.7077035612715
1731305661.3203351,757.6411909514778,516.7594528757163,833.3489000571383,717.415438905555
1731305661.3242366,758.5530454737807,520.2527906580143,832.604611258598,716.7437108665423
1731305661.3259752,761.9302404389812,523.7921820610436,831.9396988539454,714.9148567284565
1731305661.3270214,759.1760784992143,527.4390610499992,831.3149675882734,705.3838774956863
1731305661.3281384,747.0630922599021,531.147466330165,830.6907132110381,687.6878422496815
1731305661.3320398,729.4856522683983,534.854146968496,830.0519086220144,667.945209981797
1731305661.3359413,713.6718490115336,538.5280978585621,829.4036088032386,654.8552941320784
1731305661.3383102,704.3764298523328,542.1717046386509,828.7564260520714,653.9280999858366
1731305661.339843,700.9944586496317,545.8003733773197,828.1168126363273,663.7340106460613
1731305661.3426526,699.6913372704113,549.4256403278338,827.4854814383852,676.7298889276024
1731305661.3437445,698.0730005753829,553.0503309569871,826.8603112883245,684.2251659652906
1731305661.3448396,697.691327459159,556.6719227553886,826.2393645413274,682.026495700261
1731305661.347646,701.8604010507676,560.2873329475133,825.6220673745817,672.5916026219309
1731305661.3515477,710.9092709647468,563.8953269943673,825.0088628161957,662.1772065907644
1731305661.3554492,719.7138965398963,567.4963993163126,824.400424023093,655.5731936758212
1731305661.3582835,720.3758956605736,571.0916417913753,823.7971700518842,652.8610614242177
1731305661.3593507,708.02972378618,574.6818840591671,823.1992142638253,650.4295668941838
1731305661.3632522,684.7351895492747,578.2674880060478,822.6065311224952,644.5681496107801
1731305661.363704,658.20093214189,581.848552267794,822.0191128507389,634.2750635703305
1731305661.367154,636.772764920014,585.4251653415528,821.4370237453346,621.5107498405293
1731305661.3710554,625.0108519454384,588.9975205341328,820.8603758672521,609.4969251332302
1731305661.3732183,622.7318075060246,592.5658974327789,820.2892850323708,600.4543250615819
1731305661.3739147,626.6768741443893,596.1305952169552,819.7238453941064,593.802318924196
1731305661.3749568,632.1322822378575,599.6918875606144,819.164129615487,585.7847746892005
1731305661.3788586,633.5015803724865,603.2500214284078,818.6102041679341,571.527959025258
1731305661.3825684,625.4945252839974,606.805245863829,818.0621455149724,549.2963668676729
1731305661.38276,606.584617841674,610.3578399003173,817.5200441033876,524.3744876578837
1731305661.3866615,583.1297448007601,613.9081061874898,816.983986854017,508.9331589213519
1731305661.3895457,569.5216306696822,617.4563129667456,816.4540213150453,516.3050087662086
1731305661.3905632,581.0704447764875,621.002611584818,815.930128858121,552.2018779816026
1731305661.3944647,622.3551852802871,624.5470178081977,815.412254903366,608.4029809208478
1731305661.3983662,679.6278540314638,628.089564266288,814.9004257001973,663.950918239774
1731305661.4014328,725.2471960786725,631.6306252510952,814.3948962773604,694.8360163064802
1731305661.402268,733.6047370496798,635.1711686830748,813.8961564622226,687.5061985645123
1731305661.4051769,697.9657722026249,638.7124725729418,813.4045986858657,647.7743464363947
1731305661.4061694,635.4359388465364,642.2550084736674,812.9198822113225,598.3493118612453
1731305661.4081264,576.0201172621836,645.7970102623697,812.440515340368,565.6622124307215
1731305661.410071,544.3044052477426,649.3343910755494,811.9645520296638,564.8609657992397
1731305661.4139724,547.4942705436176,652.8639169709843,811.4918685426435,593.5508556461824
1731305661.417874,577.0107714797941,656.389343444581,811.0268066446113,637.7892211746041
1731305661.420297,619.2013988988735,659.9255241688974,810.5778273253626,684.0347976217145
1731305661.4208078,664.7861920098583,663.491828951077,810.1507129452417,727.1090977045737
1731305661.4217756,710.7510194908872,667.0902572814089,809.7366416904084,769.4845435776481
1731305661.4256773,756.7827429676498,670.6797615883767,809.3056684528088,815.3713425297458
1731305661.4295788,802.1906368352352,674.1790780146433,808.8222607486307,866.1716658963371
1731305661.4334805,846.0542341382788,677.5317652446773,808.2895617393687,920.2341212080477
1731305661.436439,888.3527469598837,680.821424635078,807.796141979589,974.7351803361545
1731305661.4373815,929.0578350285903,684.3361703976304,807.5005751864553,1026.4517968151029
1731305661.4391613,965.7001019751044,688.4212972700745,807.493770833458,1071.1933526899784
1731305661.4412837,992.8806609367589,693.0533243538354,807.5769966250331,1104.3261305317308
1731305661.4430344,1005.8073966098317,697.384916077611,807.1663348174544,1123.7894349263302
1731305661.4451847,1005.4578398194235,699.8832714824763,805.6298651800898,1133.4430630826757
1731305661.4490864,1000.2002202735346,699.6470729690184,803.1404644940917,1142.6570266421154
1731305661.4520702,1001.0954529987334,698.5479112012418,801.4854933366368,1160.5278796859102
1731305661.452988,1014.0257450445463,702.1675453178198,803.589903915049,1188.3685985032503
1731305661.4568896,1035.5038489111498,716.5423442857837,810.7109087607377,1217.1515445205491
1731305661.4580257,1056.2121927441394,739.7969780924989,818.2061051565294,1233.4960884822603
1731305661.460791,1069.162734669557,753.7772665752387,813.8655445030481,1230.286722408443
1731305661.4646928,1074.964421211754,727.0058781210898,783.8060389295207,1212.9465335621742
1731305661.4677012,1079.6959451877187,637.2570266097398,725.7387080323819,1195.4304525320908
1731305661.4685943,1088.2299410233832,503.0507156789655,659.560117855054,1189.1282649691123
1731305661.4724958,1099.8914973423448,391.9982114294688,621.5148899428787,1194.4452546361567
1731305661.4763973,1110.1413382520523,382.0727068007452,640.0344758661265,1202.2150965656733
1731305661.47689,1115.4415420611497,497.0044517558106,710.9589187335635,1202.796131835628
1731305661.4779425,1115.693446820471,674.5533711410645,795.8980568979243,1193.9123923465509
1731305661.480299,1112.137283539766,806.6606441686953,849.0502558865315,1180.3933307003092
1731305661.4833324,1103.9671489469292,824.1793089905623,850.3544057139075,1167.2425826796443
1731305661.4842005,1088.1373370716462,751.5370539337338,815.5355747819323,1153.5404499350789
1731305661.488102,1062.8937885891694,679.551486423298,776.7528527198483,1133.1158076954189
1731305661.4920037,1031.1106579292557,680.2791162857102,756.0337195710979,1100.984129390428
1731305661.4957545,999.4486336508006,744.0796168255092,755.2440970381448,1059.1746654684375
1731305661.4959052,973.603420112938,798.6932808343654,764.2097000647937,1016.4756641857505
1731305661.4989634,953.9230545070401,789.7217112116475,772.9444004255627,982.3661723231793
1731305661.4998066,935.4599418423893,740.0857770300147,777.4595028564225,960.4366582986368
1731305661.5037084,912.5016116814963,726.5413703775064,778.7313748068999,946.6480872769937
1731305661.5076098,883.6764313591992,796.0830028457599,779.2262590280608,933.3309708130055
1731305661.511511,853.3434499585269,908.5643105148549,780.4986732810855,915.1363214201461
1731305661.5128503,828.2895833139884,967.7098670930797,782.7363094088963,892.1729822929174
1731305661.5145946,812.692253325339,913.7902022158836,785.4208910458433,868.5742969805049
1731305661.5146189,805.419490954774,787.245796663844,788.0541285276237,848.5533642318646
1731305661.515413,801.3628144317119,697.7684406798344,790.4575195313229,833.3695383662211
1731305661.5193143,795.1362321576827,723.386776415883,792.701479215988,821.0929663449443
1731305661.523216,784.1014413310373,832.7936867704052,794.919372979007,808.6220573030924
1731305661.5271175,768.9585412208642,906.3297289101192,797.1882594537091,794.0796720150516
1731305661.5302255,752.3589139337964,841.5740688991896,799.5128196400439,777.9569587277723
1731305661.5310192,737.1462769389719,649.638299438513,801.8636785512848,762.4993200951793
1731305661.5334833,725.3781306437091,452.57006732572745,804.2151561837169,749.9738992904834
1731305661.5349207,718.1677551720933,379.75887483370946,806.5591740320322,741.0660903076428
1731305661.5388222,715.7882789877932,453.97782744507947,808.9002138122536,734.4887286042195
1731305661.542724,717.6880245233343,570.4519213935586,811.2452895153298,728.0423492414025
1731305661.5458567,722.5042782139494,590.7249371941199,813.5980784653472,720.3406527576146
1731305661.5466254,728.2464998269265,469.17304350017287,815.9585580719328,711.9405578276702
1731305661.5477586,732.5953024602263,298.63680180960955,818.3252463548822,705.0531214951503
1731305661.5505269,733.1853143271021,232.87966786739736,820.6970625669189,701.9797285985287
1731305661.5523477,727.9931719526282,353.33565785918336,823.0736524007108,703.2124996093424
1731305661.5544286,716.14077437373,596.4710152849966,825.4546882801778,706.3921250364073
1731305661.55833,699.0247372211699,803.0800611881282,827.8393509991758,707.0101106035485
1731305661.561488,680.8535585999475,843.6411085241651,830.2269355180939,700.8552163370766
1731305661.5622315,667.4267654664611,711.5454772601981,832.6184846741019,686.9261024010882
1731305661.5661333,663.1345868867305,511.62669991573443,835.0178926251532,668.7245259916726
1731305661.5700347,667.9889695428717,366.9899290634343,837.4300342920312,652.5483902977853
1731305661.571212,677.1182867066287,332.021410840756,839.8548203925237,643.5394971234396
1731305661.5739362,683.5568870245222,378.0210866581238,842.2805750984617,642.1943290086083
1731305661.5771189,682.5961158818376,442.149018211302,844.6855393529588,644.0292340206641
1731305661.577838,674.7280872206838,481.29576765501554,847.0560850233107,642.8788245260376
1731305661.5817394,665.2521181722443,489.27738835018204,849.4172905159264,635.5293619284419
1731305661.5826666,660.8697798646512,481.6060170424426,851.8477995079674,624.2270643937226
1731305661.585641,665.4183116161837,474.3058136652995,854.4365045099421,615.0916826261184
1731305661.5895424,677.3839267844421,473.8943257612835,857.1668480603465,613.6126929079609
1731305661.5900762,690.8800963412057,478.8234193037903,859.8008849373779,620.7370478269411
1731305661.59275,699.6756570695707,485.0756328558975,861.9312127107048,632.5305954564116
1731305661.593444,701.5702002857856,490.09216320510603,863.347600705331,643.3320936634648
1731305661.5973456,699.6803413065031,493.5431690589776,864.6016955779597,649.431223758542
1731305661.6012473,699.3228458210011,496.26398805711125,867.2082277314491,650.284255886094
1731305661.6051488,703.061453057657,499.06915915646294,872.6975066561447,647.0577838576824
1731305661.608381,708.584175774064,502.25543367612,880.3404023329392,640.9084984828116
1731305661.6089406,711.673791766155,505.71162023755824,884.9923878695379,633.0884027042164
1731305661.6090505,711.3322277952395,509.220677012499,878.042245027535,626.2101647303645
1731305661.6129518,711.4410692972612,512.6556923019775,853.2620481563065,624.1364217234627
1731305661.6168537,716.592463043556,516.0077991965658,813.9358281412644,629.3651986725929
1731305661.6175747,726.0552265436442,519.324406586271,773.2375258522943,640.0886903196795
1731305661.620755,732.5499450894854,522.6474854070715,745.2038952670572,650.5039458563892
1731305661.6240122,728.2264207242639,525.9904647961582,734.8427627033828,655.3950280803545
1731305661.6246564,712.9188494033539,529.3461895708475,737.037935970935,655.6106990382411
1731305661.627805,696.7787093858268,532.703253732453,743.1947228116766,659.2231244482631
1731305661.6285582,693.9772909488595,536.055654111868,747.6165926037916,676.1948828037032
1731305661.6324596,712.157080839129,539.4034083021756,749.0945379686519,710.0378556453807
1731305661.6363611,746.2564786225054,542.748827472126,749.0006150510612,753.1625058436958
1731305661.6396432,781.6620075056474,546.0934181809743,748.9254463396347,790.1974208583786
1731305661.6402628,803.8893135249386,549.4374797653131,749.5488457550254,807.3420683836297
1731305661.6441643,807.1705591507924,552.7816381628076,750.7308526516961,801.0724421726144
1731305661.6466694,796.166069518216,556.1281007911591,752.0654770743087,780.0896309887245
1731305661.6480658,780.9705844541694,559.4794968082289,753.2857165270441,759.465447061142
1731305661.6519673,770.1528686434146,562.8349307111846,754.3510529144617,751.3009174082866
1731305661.6524827,766.6823646534503,566.1861861933063,755.3436295516801,758.1144632579342
1731305661.6552744,768.4354396498493,569.520027620681,756.3470101038964,772.8445118348682
1731305661.655869,771.6422491838869,572.8311416194082,757.3931888152523,784.79239084133
1731305661.6597705,774.2506620232243,576.1407599990921,758.4720436750421,787.075069970992
1731305661.663672,776.972964971056,579.5013053030029,759.561724742221,780.5121112931025
1731305661.6655338,781.7835284112531,582.9617770982769,760.6490537038945,771.7163622549685
1731305661.6675737,789.524878591776,586.4921816329211,761.7328757587882,767.5062934357546
1731305661.6709056,798.8428941359812,589.9225777150498,762.8179728242784,770.2945085643923
1731305661.6714752,807.407469347085,593.004751233696,763.9087098361806,777.7458454054103
1731305661.675377,814.1798407163869,595.6695387382007,765.0065508227024,785.9957377694479
1731305661.6792784,820.3716962321696,598.3653048652976,766.1108482240141,792.8267398729172
1731305661.68318,828.0020283770667,602.0933414865366,767.220620739596,798.0644837384533
1731305661.6843982,837.4793145079041,607.6871873173302,768.3356507509543,801.8433017987692
1731305661.6865366,846.7394772966753,614.3820950082453,769.4564400440443,803.5099025545719
1731305661.687081,852.8782000737214,618.8173001994816,770.5833834261043,802.6269564287916
1731305661.6873908,854.6429505708707,616.5101955303114,771.7159055834904,800.6415873373696
1731305661.6909833,853.3917914084964,606.9833355886622,772.8524575229205,800.8193694828386
1731305661.6948843,851.8650097931629,600.0747796851293,773.9920189188048,806.0352730656642
1731305661.698786,852.241521742432,616.2527235207548,775.1366514438506,816.4521279458947
1731305661.7021675,855.1658991992285,673.8294687994374,776.292783877477,829.1998569932271
1731305661.7026875,859.9341263411623,767.0131117343572,777.4677927303466,840.1063469079979
1731305661.7032626,864.9759566112879,855.4409740079304,778.6607011635665,845.8830214384992
1731305661.7065892,868.3025750318064,885.7721359579682,779.8527404209124,845.4456889522606
1731305661.7104907,868.406975462343,835.4997532299441,781.0112929249772,840.199378002914
1731305661.7143922,865.5725837445596,737.0161303992592,782.1192096151865,833.5046725854116
1731305661.7177987,862.2805615921119,651.3404169383784,783.2205293032342,829.2651461993029
1731305661.718294,861.5942098057549,612.1607714843059,784.4378949026438,829.8725729080764
1731305661.722127,864.5518286475384,595.3648577029278,785.8988037526199,834.7250541872274
1731305661.7221954,869.1980485846561,546.4989661124689,787.5569522824039,840.6973059412221
1731305661.7222989,872.3863611183374,441.2265898670569,789.0291660592657,844.4079908657105
1731305661.7260969,872.3879630048758,320.19685302211764,789.7054602259825,844.3803463762757
1731305661.7299986,869.716839340409,262.98235696888804,789.333991427562,841.3921956737715
1731305661.73343,865.9829563327468,323.27586746302023,788.8587963630192,837.2122041247786
1731305661.7339,862.4572102406487,484.04130276399724,790.6225306230347,833.1997957604742
1731305661.7378016,859.5345195801764,671.5717644172651,796.7808295793591,829.7903363955688
1731305661.740991,857.0074950595865,811.0407587745299,805.8108060504642,826.7830973907278
1731305661.7417033,854.5464666173108,869.8314167490076,809.5067145706682,823.840335514681
1731305661.7456048,851.9776815968543,854.7608055190294,795.0015765492344,820.7802242690716
1731305661.7490609,849.3039837018903,781.3346347501688,754.0823240775999,817.6030042626525
1731305661.7495062,846.6028773429765,658.7846566604624,693.558814204515,814.3877046720622
1731305661.753408,843.9359050196755,506.6597660558035,634.5087271315684,811.1982781097403
1731305661.757207,841.3196161402068,372.8005867662587,597.6652201507707,808.0525982662679
1731305661.7573094,838.7411829215663,315.415421564801,588.9597198275251,804.9379028048629
1731305661.7598555,836.1834603054648,354.5875142840604,599.1751124510102,801.8365677595484
1731305661.761211,833.638450359606,442.1443787405698,614.7413125408139,798.7402235235157
1731305661.764692,831.1073706904848,490.4302962323011,627.2068495695114,795.6500413115317
1731305661.7651124,828.5949224372577,443.6031858097023,635.1170839074392,792.5708967684824
1731305661.769014,826.1046466381466,327.88771221102587,640.7764749421302,789.5065485867017
1731305661.7729156,823.6376498069209,231.42788400498313,646.6143535004376,786.4582658311256
1731305661.776817,821.193573867071,229.59416670546216,653.579351021621,783.4257951527766
1731305661.77872,818.7719246102102,323.99347515683587,661.3856983879336,780.408729247029
1731305661.7803233,816.3727240921734,450.205582559881,669.3940305901283,777.4071925164278
1731305661.7807188,813.9964647014085,542.6962321151085,677.2120989368149,774.421804516559
1731305661.7846203,811.6437916486722,590.9836787386112,684.7989474596732,771.4533554191622
1731305661.7885218,809.3152669665143,632.6613060897753,692.2903131301866,768.5025601616248
1731305661.7921147,807.0113158455049,694.8844593604668,699.8132130143204,765.57000007292
1731305661.7924235,804.7322847705155,750.2122900916892,707.4117097134196,762.656182055838
1731305661.7959542,802.4785114100512,738.9436419771063,715.0668403888415,759.7616118563792
1731305661.796325,800.2503560252105,639.4489865848842,722.7445628704926,756.8868271372618
1731305661.7975843,798.04819676708,511.56880560410264,730.4257789634496,754.0323901597195
1731305661.8002264,795.8724120271415,457.45594837669637,738.109886233911,751.1988638575054
1731305661.8041282,793.7233673008394,526.3925390285175,745.804730989172,748.3867939350203
1731305661.8080297,791.6014111225405,654.7180856405705,753.5170097490834,745.5967099379454
1731305661.8115854,789.506877489964,709.0386392977281,761.2488935930602,742.82914735249
1731305661.8119311,787.440092018159,604.8954324875173,768.9994602695474,740.0846778474826
1731305661.8158326,785.4013801872944,395.1037785565791,776.767266292881,737.3639164272354
1731305661.8164487,783.391073599578,241.0680567406959,784.5516868648033,734.667469362478
1731305661.8197343,781.4095054728292,283.3017753121596,792.352746856478,731.9958227523014
1731305661.8236358,779.4569876756999,519.88310122586,800.1704100003699,729.3492546433234
1731305661.8270228,777.533776801463,798.7298646809234,808.0044117937996,726.7279278697771
1731305661.8272164,775.640062760204,933.7880585053808,815.8550500374099,724.1322666152737
1731305661.8275373,773.7760257422179,850.3105076613759,823.7242794981219,721.5634445811988
1731305661.831439,771.9419693514519,639.5943782532164,831.6155353893258,719.0234226046509
1731305661.835313,770.1384374336438,479.084373575271,839.5308767308057,716.5138829128302
1731305661.8353405,768.3661230173959,486.3517346312309,847.4662298531865,714.0341450194408
1731305661.839242,766.6254256880773,630.1439410747905,855.4092642452441,711.5797412275198
1731305661.8428476,764.9158341112349,770.52386552693,863.3465125781184,709.1445966176734
1731305661.8431437,763.2357990233999,786.5769292349074,871.2816134117522,706.7284250542284
1731305661.8470452,761.5839316143476,675.5037494917799,879.2528702738601,704.3455080281019
1731305661.850947,759.961543084199,538.7909064699365,887.3236747210864,702.0239281243134
1731305661.8541777,758.374612437242,478.05047622965515,895.5237175882644,699.78370839129
1731305661.8548484,756.8315631614264,503.3556561096391,903.7611684705834,697.5976537698098
1731305661.8584788,755.3345208733596,537.3075479897392,911.7949540472054,695.3688733972128
1731305661.85875,753.8681127565459,503.0358842372856,919.3870707013981,692.9797910318061
1731305661.8619308,752.398830386428,407.17050242483504,926.6520659826796,690.4362427948097
1731305661.862651,750.8998966467553,339.39933844653,934.3563714403995,688.0233698184238
1731305661.8665533,749.3993261474086,392.1790700249929,943.6632783970034,686.2624725331092
1731305661.8704543,748.0121010379139,576.9656173248233,954.9510798909248,685.4679505008564
1731305661.873042,746.8886794818488,811.3424021491433,966.1688733573152,685.0192400756524
1731305661.8741095,746.0438952715459,983.0799571617603,972.4327713394032,683.0321853728352
1731305661.874356,745.1569060472547,1030.6578636195252,968.8669869945895,677.4501112452393
1731305661.8782575,743.5964311250367,974.0136117811079,956.1628813947844,668.8908094250751
1731305661.8821592,740.9390823874871,880.9703858090495,943.5922926619143,663.560092230484
1731305661.8860607,737.8987416654284,809.9916575659494,943.7946474426384,672.4540266277562
1731305661.8897407,736.9145750411886,779.9055730901896,962.2201277922181,704.2222072319248
1731305661.8899622,741.2541928862689,781.3825122027381,991.9404737769464,755.5220224077489
1731305661.8919065,752.4708949022095,804.1992972406831,1019.2283718060822,808.7213092102215
1731305661.893864,768.4551809234554,847.5196766309234,1033.6138567252615,842.365488556779
1731305661.896839,784.9869304879827,907.5467465276699,1033.4704326376354,847.0720236161347
1731305661.8977654,799.8453287202574,964.2813150440298,1024.8712466546474,833.4507109049414
1731305661.9016669,814.6115973933686,987.7885987145553,1016.7123191629719,825.7666127820227
1731305661.905372,831.7641999250637,959.4376294659415,1014.7230099109178,846.4096871851988
1731305661.9055686,850.6128415849553,885.0558353012946,1015.7953923742373,901.8774582357985
1731305661.90947,867.001300411498,785.4824530595043,1005.8291278475585,978.7651866144508
1731305661.9107704,877.2781744637626,675.5176974307972,965.7524355872396,1051.280735712163
1731305661.9133716,882.3285662245073,556.2216486649234,886.1439008841319,1094.8515941446053
1731305661.9172733,887.2898392421316,431.5239027910366,781.834848876152,1097.610701902413
1731305661.921003,896.860311892206,331.2810404221653,692.630539345352,1064.1136278380168
1731305661.9211748,910.5619410607175,309.86699277564094,663.2774538636102,1010.9948365983997
1731305661.9250762,922.5041698595993,409.76805860985235,713.073882821953,958.4033582104239
1731305661.928978,925.929167953931,617.3294377337903,818.6689450696454,921.9079011777999
1731305661.9296348,918.4394359366545,854.3989001071835,927.2809394702576,907.9389443649411
1731305661.931747,903.5923912699182,1022.8935334125947,992.8368550669326,913.5637922590379
1731305661.9328794,888.2186698944117,1070.4695779729332,1005.8127907828004,929.6153756429961
1731305661.936634,878.3254559288832,1021.9835626421989,991.4676486167357,945.3325212406187
1731305661.9367807,876.6755270393478,949.2122091249695,979.6504376199828,952.7500744734436
1731305661.9406824,882.8073275776567,906.4993648936072,975.8066379793609,949.6681004260304
1731305661.944584,894.2370284004749,890.7821802110846,961.0034555168751,940.4567299447756
1731305661.9484856,907.5031908816921,860.9233482040972,919.8646962105286,934.0965775871218
1731305661.9484992,918.8583137322875,794.6470663712633,867.1155358216913,939.475844974853
1731305661.9522653,925.1493416468398,724.6413898731347,843.3287118198328,959.7179606613721
1731305661.952387,925.0337492782869,714.0936730291245,879.2393634304375,989.1937049660113
1731305661.9562888,919.790820561918,790.6919918654094,959.6149609751809,1016.3331894779042
1731305661.9601903,912.7888356368865,902.9433534446957,1022.7650829887546,1031.243341568768
1731305661.9640918,907.6275113019441,948.6815635908915,1003.3985977824655,1032.4868033237976
1731305661.966655,906.2236348723421,860.3185667509103,887.3786250436121,1027.2782948030876
1731305661.9673636,908.2392074552722,673.0950529431672,731.6605983635045,1024.893056761569
1731305661.9678965,911.9690363879246,509.44738601025495,627.9651868286119,1029.0823363613679
1731305661.9679935,915.463254505285,485.0226812672842,636.0186761688383,1035.790845255912
1731305661.971895,916.7825639945116,615.7841680747271,740.7556348786547,1037.3665782230132
1731305661.9757965,913.7303455653008,809.2663536409045,869.6933243766027,1029.096088012634
1731305661.9796982,904.4176939523516,947.4902652244449,954.5078675476345,1012.9012008862594
1731305661.9835274,889.1663274445909,983.756778091747,981.4148249805751,996.0903209442031
1731305661.9835997,872.2052428863603,964.4860459153806,986.6643054380792,986.6617092507365
1731305661.986228,860.7252493386256,962.6460687997044,1006.3581623849506,988.3099010315591
1731305661.9875011,860.7030351552664,995.0980178346475,1032.669812886268,998.0332224014223
1731305661.9914026,872.2041981362432,1006.4706033780878,1020.0073865409097,1007.8680737283601
1731305661.9953043,888.2989760676018,930.6456952835292,934.4074425594954,1009.9686317415307
1731305661.9991586,899.3044738058409,763.6117522642368,796.8540824022944,1001.760145435988
1731305661.9992058,899.56836018402,574.4657434554832,676.3379930188645,987.3407120949375
1731305662.0015633,891.48724070121,445.92347983886356,635.5602264441809,973.9743561775932
1731305662.0031073,883.379485232574,404.2319858016488,677.351850693091,966.4687823848972
1731305662.0050924,882.7626177002826,405.5139246273179,741.6074288948905,963.8500690811125
1731305662.007009,890.4145376048749,388.6971910717592,758.2063512506644,960.6787334277326
1731305662.0109105,900.0026768871776,341.104928151765,709.9912998387799,951.7052404236154
1731305662.0147896,903.3704492389707,312.0566574307753,648.7079691498411,936.2919055315574
1731305662.014812,896.8109146258795,361.50906855607,648.448851920044,919.3436926426257
1731305662.0187137,883.1961302877719,494.4983314419886,738.4017209910401,907.8825250665463
1731305662.0226152,868.9969335469752,645.5435776128289,875.2534427798552,905.5984711143715
1731305662.0239568,859.690466557178,727.5785251165585,977.7871130056993,909.7353557647264
1731305662.026517,857.4288754828452,698.5311877007741,989.9302968317324,913.3525089079774
1731305662.0304184,861.5087853157152,586.6600871837014,917.5813320082402,911.4047173557598
1731305662.0304208,869.4164177678838,459.81807619499625,813.9638536573459,905.0223734063587
1731305662.03432,876.9235731895121,373.8338566413803,734.4708746536711,899.4774232655104
1731305662.0364711,878.3153235939799,343.73921703299,701.9392845115424,897.5437330626979
1731305662.0382214,868.6858718943045,351.0757305008881,704.9441624946252,895.2970886460947
1731305662.0421233,847.9482310784011,368.9351503926549,719.2174453579901,885.6315103815757
1731305662.0428212,823.1363856459635,380.7445275634507,727.9339330918281,866.6899906838792
1731305662.0460246,805.4491538400396,383.66233913523126,727.4657697444422,846.1618468883723
1731305662.0460515,802.5170419339552,382.17526040462985,722.0250612994452,835.3783417499554
1731305662.049926,811.4774477813477,381.0025253539326,716.529275909741,837.4988010644716
1731305662.0538275,819.432251831235,381.97730472755495,713.1156063425487,841.483107063658
1731305662.0577292,812.5153528217916,384.53444775259044,711.3870303051481,829.4955560633985
1731305662.0616307,787.0901441684553,387.42677327270377,710.1038349681912,792.7194675490565
1731305662.0616827,753.7642989573196,389.89156761109723,708.4379697404701,741.5069427738101
1731305662.061685,730.26401715774,391.8501281172849,706.255229006679,699.7586530538836
1731305662.0655322,728.358156120652,393.56642869135794,703.8030925951044,687.2425623005861
1731305662.069434,744.9749978994571,395.28639328563264,701.3380986480939,704.4499021076523
1731305662.0713792,764.3267440653902,397.09416916776297,698.9600400683751,732.6119369133828
1731305662.0733354,769.3000632535247,398.9514598354716,696.6386546798079,748.6459223531024
1731305662.077237,753.5543175512753,400.79095867690245,694.3063754318601,742.5509971792343
1731305662.077314,725.7044918077313,402.57464881698615,691.9215168672572,723.4675770142487
1731305662.0805497,703.0955811380761,404.300563714174,689.4792654526314,710.6095911805112
1731305662.0811386,699.9948848267217,405.98316510892465,686.9933628126306,717.483288112304
1731305662.08504,718.4323568258601,407.6346542693025,684.4766466459108,742.1731355297117
1731305662.0889416,747.6571472854806,409.2583986391286,681.9332889915985,770.3357111039842
1731305662.0928433,772.143217067088,410.85171310374335,679.36094555102,786.9126978505076
1731305662.092945,782.2030950055672,412.41091343116426,676.7558160521525,786.4099576707365
1731305662.0967448,779.5351973946562,413.9340760269181,674.1157052091874,774.2940097881983
1731305662.099414,773.9816256026866,415.42090173303666,671.440159756218,760.2720021490513
1731305662.1006465,774.6638081129793,416.8713348188859,668.7291853210753,750.3898636391201
1731305662.104548,782.9274121299068,418.28478255261257,665.9823627658964,744.2275800093773
1731305662.1062872,792.5258828711344,419.660789620062,663.1992593566313,737.8183884361448
1731305662.1084497,796.0448150717533,421.0006100416815,660.3807248952312,728.1042208674204
1731305662.1085763,791.4520212272951,422.30783201733846,657.5295263440324,714.7465650441727
1731305662.1123507,783.1763781397004,423.5859349711145,654.648505417448,698.817072780921
1731305662.1162524,777.394789173932,424.83261829546257,651.7359986716206,681.0257684829729
1731305662.1182785,776.283625838722,426.03513264182516,648.7818326365533,661.8426358514607
1731305662.120154,776.4534557653376,427.1747932470673,645.7705598658937,643.1199947391318
1731305662.1240556,772.5929051367522,428.2462292934109,642.6967794155282,628.8338770049877
1731305662.1242073,762.621274495617,429.28285481904936,639.5862196283815,623.3232296876467
1731305662.127957,749.7064926515061,430.35975118787906,636.499538595469,628.0098206353306
1731305662.1318588,739.8074095766707,431.5398116861171,633.4903943788455,639.4223586782961
1731305662.1357603,737.3837199367243,432.7661930589504,630.5180953158625,650.6012656063049
1731305662.137143,742.850034695543,433.7862074131872,627.3815762246188,655.1907113503742
1731305662.1396618,753.0407950954404,434.25901205730247,623.7989805653186,651.2158651266625
1731305662.1398385,763.3562632617082,434.1343933965317,619.7103357938183,641.8258822856885
1731305662.1411953,769.8100036197671,434.1117257645478,615.6593465952124,632.8242031532446
1731305662.1435635,770.3569839922719,435.6185978031101,612.8045098004857,629.155395440338
1731305662.147465,765.5715583193472,439.7040011167807,612.0524874680282,632.6940992375103
1731305662.1513665,758.3605860732595,445.0182573836981,612.411691321077,642.0747769499208
1731305662.1552682,752.310314501706,446.61425870803043,609.9327287917507,653.8044496143125
1731305662.1554694,749.3817419008649,438.4313170437475,599.5781047351691,663.6853537638184
1731305662.1560073,748.7432640532877,420.8257029779314,581.2616756247386,668.1726124033993
1731305662.1591697,747.8180954920078,409.1714229792948,567.0333483442873,665.6051423311369
1731305662.1630712,744.5436627242127,433.29722881013953,581.1720141235903,656.920653679225
1731305662.1669726,738.7341414453585,519.0345594627914,645.7610627912372,645.1734770499777
1731305662.1708744,731.6258948972769,659.8318504691616,757.3788308696948,633.7492102424117
1731305662.1711006,724.7430564722409,806.4871970461691,876.9801191038301,624.4540433930864
1731305662.1747758,719.7053309977757,895.9153916603752,950.8638375223744,617.2719446913428
1731305662.1748717,718.9948516103908,899.6075084034501,950.2496078595653,612.2781173204802
1731305662.1761034,725.9956700994325,844.323540097588,893.4467539855412,611.7024285483519
1731305662.178677,742.9828918709176,782.4803926993394,828.9843033299934,619.1556334388639
1731305662.182579,768.0151470227439,742.4129103087213,795.5591439179766,635.4937920451292
1731305662.1864803,793.5209116427111,708.6880917190416,794.8939812177855,654.9752091819555
1731305662.1867318,808.7219390885632,649.4290948198992,798.9028915413448,666.6910901828428
1731305662.190382,805.2620883207056,559.1560913333046,780.7141760275609,662.1070600428122
1731305662.193736,782.7660680287104,471.8584867032909,739.9097968106166,643.1117246789079
1731305662.1942835,750.5192028513848,431.28875834196833,700.8207802647896,622.8808910609462
1731305662.1981852,723.4031886335547,449.7415745842338,689.0407784870608,617.2309913942199
1731305662.2020867,713.6677644035567,498.4278712399587,710.557178702549,632.5256415640632
1731305662.2023628,723.2900958387423,539.7259133299308,752.1942354075418,659.7708297993817
1731305662.2059884,742.3471529493286,566.7606077116619,798.2234477496695,679.9185718580444
1731305662.20989,755.573245477886,606.1172824787253,841.8740735532269,676.7561302939024
1731305662.2110114,753.4230454566158,678.1777660472869,879.6199799157628,648.2740565327317
1731305662.2126005,739.7448323331545,757.9269405934257,899.3109391907827,608.7866425648001
1731305662.2137914,729.6227771377007,784.0350418773327,882.3990487328297,580.4509311843395
1731305662.217693,737.9574989793588,715.4521589846329,823.4466821497527,579.5389932124149
1731305662.217994,766.9070148443654,580.7422438524803,745.9260862133156,606.0192436189812
1731305662.2215946,802.1470908680403,465.01063661234497,691.8082108523121,643.1744179445033
1731305662.225496,821.7749676291693,439.25053043860066,689.1839340965297,667.9638860907856
1731305662.2293975,811.806883450937,498.7494970669471,729.0272388208397,665.7605228850493
1731305662.2314646,776.5336959318901,573.793838209903,776.788265015193,639.5738418384583
1731305662.2332993,735.62508474727,604.3858504340827,808.5700531713723,607.1678846768185
1731305662.2336247,710.2833124768003,602.5262448670483,833.4512607459059,588.0972689033605
1731305662.2372007,709.3707210182986,634.904022743092,876.3622169339118,590.3131322535567
1731305662.2411022,725.9339992783138,740.7106983523212,938.6037380693583,606.2966249657572
1731305662.245004,745.4320168966054,870.0933922914,979.9604378102601,621.0468412622109
1731305662.2459197,757.4023117961477,912.9514188099131,947.1165765976863,624.8425387988692
1731305662.2489054,760.7653112416943,798.5665372460758,825.9230164233921,620.328192218248
1731305662.249256,760.2325210167526,572.8649442357099,667.4787267396066,618.7953806336824
1731305662.250329,759.6684296346564,375.92342768727997,558.5925689599363,629.7539325682785
1731305662.252807,759.5903352740337,334.1647354376787,558.1925346372271,653.1115744888732
1731305662.2567086,760.0237709009947,462.80333395355353,654.9687820519586,680.3318404560828
1731305662.26061,763.8522290152418,666.3018564435747,784.0886024107574,702.7392823933626
1731305662.2645116,775.8628624669469,832.4844384578635,885.8414853412445,719.0267834320707
1731305662.264887,797.8903276569305,926.9337660376697,949.2101512976911,735.3222558859561
1731305662.2684133,824.8161721682335,997.0704804571999,999.987853454559,758.3863075381587
1731305662.2691934,845.6324732070518,1088.9461641886792,1050.9713716920069,788.6942880347261
1731305662.2723148,849.5422725749008,1169.8875099616462,1071.4979457267477,819.6643400184257
1731305662.2762165,833.1116932417802,1144.432490920393,1013.3789902824956,843.1602440156367
1731305662.280118,803.5551967893617,954.6411939631973,870.214154659502,855.8272971450525
1731305662.2805183,775.5225074924875,665.3318804934752,708.0343054670658,860.7940530225527
1731305662.2808275,762.7904136140386,440.78701664544064,627.5464762464686,864.0573817765156
1731305662.2840197,769.8391083933544,419.4617160070387,682.9554244362429,869.4671090330762
1731305662.287921,789.0891046218264,594.5021072609525,828.9974928158441,876.6180508159657
1731305662.2880578,806.3431297330745,812.8762603244664,949.8320116948726,882.6321795636087
1731305662.2918224,811.1258670608008,902.9125719702658,952.1321723814859,885.4688107184805
1731305662.2957242,804.3079374746209,819.8141782704998,843.3658083367959,885.838370282554
1731305662.2961495,796.7138782867959,676.1088650857413,724.402213399361,886.6069324826763
1731305662.2996256,799.2802375788576,627.5038520394487,700.592171331681,890.5542567510091
1731305662.303527,812.5574522864976,720.3885518579707,789.6570682601547,898.1552588398694
1731305662.3069222,824.6343823614417,844.6033688395642,907.9854251164077,906.8924895162263
1731305662.3074288,820.1346366158527,836.2030509860026,945.7130926184919,912.8731555212244
1731305662.3113303,793.5637977591954,634.5267050783868,862.2706180888823,914.1382580324762
1731305662.3117805,755.7940988875793,349.1447731412172,719.6417425588655,913.3966322907071
1731305662.3152318,727.3254281004971,176.90551071071684,629.1763725650741,917.435162967163
1731305662.3157356,722.9131087051102,243.61396004459493,662.2180238662368,932.3811865236578
1731305662.3191335,740.0442358554412,506.51648943694073,799.7459155805591,957.5470895791877
1731305662.323035,761.1686185930466,794.6056678939145,956.2401137900831,982.9389411024292
1731305662.3257866,768.1346590678448,943.9661604766009,1049.1266831832877,993.9508552455299
1731305662.3269365,756.8557118516284,911.0638280018331,1053.0664045954748,981.4293678816605
1731305662.3274117,740.1206053097937,776.7665694819608,1000.1849500759369,949.9937357100725
1731305662.3308382,736.615650702469,654.1937830905089,937.774279985088,917.2372696436395
1731305662.3347397,755.5510129903626,592.6617384346083,887.8670879465144,902.7966925253845
1731305662.3386412,789.260873218206,560.5516997634006,842.6166788934996,914.7837016996463
1731305662.3425426,819.0067027802077,507.5807975373624,790.6461469838894,944.1360818187358
1731305662.3430426,828.5788838824993,433.77233452913333,741.5073957698501,971.4905631366081
1731305662.344651,814.9088955912997,396.57373347566823,722.9434718233784,980.9792759837287
1731305662.3464444,788.4326664191253,456.7087604582722,756.4949018667741,970.025746112707
1731305662.3503458,764.5522191671438,621.784660772408,837.3947706455236,948.3370013238482
1731305662.3506436,753.7834920257383,838.5277313860994,936.3521585372863,928.5927557931033
1731305662.354247,757.5041488573377,1029.901721233389,1017.763116320871,917.3723721600843
1731305662.3581493,770.4156276417818,1136.5191061244545,1057.2069508415138,913.0626705233283
1731305662.3586738,785.701487596469,1134.503608098387,1048.481937831927,910.556727878889
1731305662.3620503,798.5266457879765,1034.9736379948226,1002.1960520827256,907.0598973938095
1731305662.3635154,806.7961529497014,879.8400197818671,940.0711683352826,903.6803545287646
1731305662.365952,810.5763734095756,732.1022126918485,885.5495604205732,902.5483224791776
1731305662.3698535,811.2761828413686,649.7443593892001,852.9712447478315,903.6300820994429
1731305662.3737552,810.6890909671731,649.4392513513841,842.3915459883389,904.7267263247154
1731305662.3743048,810.1084711803829,688.4175807708303,844.1045928789813,903.8171202682242
1731305662.3776567,809.992011459924,688.3652427730268,847.7896367862988,900.6287085786197
1731305662.3815584,810.213493876918,592.3041904198556,848.2865567964268,896.2092425686468
1731305662.3823795,810.4948510453197,413.91252175045975,845.5449531468829,891.6982627788618
1731305662.38546,810.6734259168118,238.2081013545481,841.6342163557973,887.621249047467
1731305662.3855517,810.740402724192,166.39856908517686,838.2068950572084,883.9307546804556
1731305662.3893614,810.7597934036502,242.39297288313333,835.6925778355642,880.3693351578698
1731305662.389936,810.787654244762,418.81215884156296,833.7232562265755,876.7526120006341
1731305662.393263,810.8421862991166,593.5479602184733,831.8170186417917,873.0439335268662
1731305662.3971646,810.9144892521474,688.4717042931999,829.7438940272721,869.2937160451523
1731305662.401066,810.9901021393889,701.3926571135731,827.5259345143442,865.5588179447169
1731305662.401244,811.0617315138276,685.237412074385,825.2798544619649,861.8638048918008
1731305662.4049675,811.1302419772063,678.8846883322439,823.0902623322467,858.2044546509534
1731305662.4055672,811.1999835274248,662.1629581989521,820.9752322263033,854.5672376400832
1731305662.4088693,811.2746044481707,581.647347293845,818.9130719220531,850.9434953889604
1731305662.4127707,811.355688977655,419.89752334661284,816.8786681598183,847.332481857671
1731305662.4166722,811.4434601188589,235.22532253567334,814.8612381641027,843.7377176489152
1731305662.4201083,811.5379306902846,127.20038242871874,812.8629948922132,840.1627479051308
1731305662.4204595,811.6395275677925,154.7171814878336,810.8904380964476,836.6092944515882
1731305662.420574,811.7490992104791,279.44873835912836,808.9479145962562,833.0775917780315
1731305662.421198,811.8676531845848,388.00432865788014,807.0361826781525,829.567452105116
1731305662.4244754,811.9961413815661,380.2396436699897,805.1540403726775,826.0789786461478
1731305662.428377,812.1353995828815,253.82404515081657,803.3002715663544,822.6126816959061
1731305662.4322786,812.2861906696166,113.3214289464658,801.4745099336319,819.1692642116457
1731305662.43618,812.4492649650492,90.92318639759844,799.6770501591574,815.7493975308357
1731305662.436829,812.6253901392715,240.89625562331378,797.9082418094359,812.3536326382931
1731305662.4389727,812.8153497503663,495.9661491511575,796.1680386132394,808.9824286039689
1731305662.4400816,813.0199298226656,723.0094786052401,794.4560066774803,805.6362209063122
1731305662.4439833,813.2399084848705,829.2608576849499,792.7718341125287,802.3154697967791
1731305662.4478848,813.4760512657025,827.2109917660669,791.1160599677362,799.0206633655024
1731305662.4517865,813.7291078233287,806.6007958840149,789.4903259883698,795.7522740488154
1731305662.4524603,813.9998085496817,846.3094037847764,787.8962991898777,792.5106902865306
1731305662.4553678,814.2888668187045,947.7566394104424,786.3331556498501,789.2961788162374
1731305662.4556878,814.5969950659464,1043.1563108715454,784.7953819736744,786.1089555951962
1731305662.457837,814.9249320744755,1060.1630944278688,783.2744802210449,782.9493969877118
1731305662.4595895,815.2734565341509,978.6618112251135,781.7672474446287,779.8182702656827
1731305662.463491,815.6433474567042,832.8483076988626,780.2873060821148,776.7166779867647
1731305662.4673924,816.0352769898844,668.3873439880042,778.8674405975756,773.6454208126124
1731305662.4680915,816.4497008524436,504.37822732824384,777.5371551025949,770.6039344773452
1731305662.4712942,816.8869020656593,337.81812788576065,776.2752083596807,767.5897806579159
1731305662.4751956,817.3473274554874,179.62510664375213,774.9729259508895,764.6001657155393
1731305662.4767015,817.8321157254734,76.23247352889541,773.4758967181427,761.6359691133925
1731305662.4790971,818.3433030411948,85.56394001474962,771.7473550215273,758.7057546333731
1731305662.4829988,818.8829788883593,225.94208262659328,770.0769683465788,755.8239107299112
1731305662.4837227,819.4512262504859,448.5908265403409,769.0911558848294,752.9978356996535
1731305662.4869003,820.0442272703332,663.6385488342363,769.2848370860387,750.2082643315304
1731305662.490276,820.6555071799985,797.2321192374825,770.1148489805599,747.4022376906339
1731305662.4908018,821.2826706917168,829.11026727111,769.3741875149306,744.5257096700138
1731305662.4947035,821.9371235263194,784.246632269898,764.0761084675635,741.6009772512386
1731305662.495566,822.6466059882531,699.483923137123,753.4022564582368,738.7958575925697
1731305662.498605,823.4373188750401,604.0211457412661,741.9503495093519,736.3731718220781
1731305662.4993536,824.2945497888014,525.3893942029047,739.37180168981,734.4354096503787
1731305662.5025065,825.1305061418932,496.4537674079869,753.877266484249,732.5647200507268
1731305662.5064082,825.8156428118739,538.1204890581724,782.5790646100874,729.744765285951
1731305662.5103097,826.3120711946526,627.6362832538641,806.8045764378987,725.0582396365502
1731305662.5142112,826.8502207754773,691.3056124671098,799.6358116304552,719.1944006201602
1731305662.5144303,827.9483723969012,646.294754320182,744.5016002759712,715.7092543825031
1731305662.5149848,830.0353254792086,468.58340756537336,652.8769016610671,720.0617708205344
1731305662.518113,832.6893291049637,229.66092507769133,565.3665565124318,735.4412336166135
1731305662.5220144,834.0630977534448,60.91184805910734,529.9547490007894,758.0702293492218
1731305662.525184,831.4930097525264,63.97455171493834,569.9004840303031,777.4427435871023
1731305662.525916,823.7175037179869,237.3582280399856,666.471061822091,783.47626740351
1731305662.529817,813.2327465570705,482.7761236627558,773.2550497182639,774.9885942925771
1731305662.5306158,805.9927940333564,686.8858071969681,851.7082815991166,761.4857776771867
1731305662.533295,807.6391734439048,804.8967424717041,896.3522191792142,756.2567242317193
1731305662.5337193,819.3837341201117,871.1675911698143,926.7428675625284,766.5023298879807
1731305662.5376203,837.5176193859738,934.4057153786553,956.555442932084,788.3965206012086
1731305662.541522,856.7867774498319,990.3390965104645,974.0167798599839,810.5864485957508
1731305662.5454235,873.9653451366203,985.1947249475751,955.9451401784667,822.9255852565649
1731305662.546247,888.191126449,887.150070669552,901.2042900618419,823.5194744965567
1731305662.5493252,898.4409761071877,747.9022751910297,846.4750121969929,818.969085511971
1731305662.5521588,901.7494461285694,680.4727272248837,842.2889526605317,818.2313941956714
1731305662.5532267,895.026203571925,761.1368304528107,906.3992771486635,825.3672650069823
1731305662.5571284,879.2713134796558,943.9317995790675,997.2929784738151,836.9638347084081
1731305662.560092,861.7382504643249,1075.671356840196,1037.534112886175,845.9467928463766
1731305662.56103,852.7355329179752,1013.1944583789101,974.0353532830666,848.1455840614383
1731305662.561878,858.6469522338717,748.7769786021685,826.7408240028248,845.770514183076
1731305662.5649314,876.8233922205654,432.92352273227414,681.626769553322,844.8704160522665
1731305662.568833,897.0882595326849,266.8896986708557,628.7246885527555,849.3876288085688
1731305662.5710232,909.1301737669887,350.7016434896343,694.5532735195212,857.5327586307969
1731305662.5727346,909.8685132929161,614.1912430285012,826.19037734972,863.8475637644168
1731305662.576636,904.7483197766848,886.6301375674097,939.9311865999526,864.7427882631639
1731305662.5775092,902.1193748748645,1037.4781662715109,989.4361131920994,862.0107586189787
1731305662.5805376,905.8171146875181,1061.0565613779925,991.9527156945525,861.0240089223005
1731305662.5844393,912.4384421984182,1038.2374822556712,993.4676444187376,865.5855321864118
1731305662.5883408,915.3351657890869,1028.2174083710267,1012.7109066599066,874.3387453607878
1731305662.5898876,911.2050526184796,1004.8821069218533,1021.2720377570756,881.7624610183753
1731305662.5922422,903.1192198406875,898.6302588172857,977.7309434525118,882.5446910917827
1731305662.5931404,897.5806639365256,694.7607046298199,879.2653750667332,875.6352911778239
1731305662.5949998,898.7422636485758,483.0912714103305,777.7965958657594,865.0226062365468
1731305662.596144,904.8891410538732,401.64334451934803,742.4662470311645,856.8423918886772
1731305662.6000454,909.5706990728748,520.2778942323922,801.2370212778507,854.8780660961194
1731305662.6039467,905.8315189545851,770.4292875765777,914.4735213133023,857.6951820715949
1731305662.6078486,890.4357968318573,989.100058008934,1005.1146332686644,859.8073475577488
1731305662.608752,865.9610834910868,1043.6712045069507,1019.6689113597404,856.3596123140046
1731305662.608771,840.0517439600926,931.136950771259,967.3162641839949,847.6811344907866
1731305662.61175,821.965876205767,767.4296622648845,904.7677321022197,839.6622836782019
1731305662.6156516,817.6201683941196,679.7114310728805,883.0021405639574,839.2341698539316
1731305662.619553,825.8506408796973,698.9791768937265,904.3854461107763,848.5409457244454
1731305662.6234548,838.8505166667991,746.0716143474096,926.5860826288092,862.662865044323
1731305662.6244023,847.2519477422685,716.7664041630089,906.0669993565307,872.782482499029
1731305662.6273563,846.5593468893154,583.4189652020101,839.8607459240397,872.292080048724
1731305662.6276164,840.0987028047487,422.2046420099758,769.5583126601915,861.2892315783189
1731305662.6299078,836.0850514370412,348.2509526568095,747.257754439223,846.409207871064
1731305662.6312578,840.9544865266162,421.7805901699145,794.576260913255,836.3111400560076
1731305662.6351595,854.0733555428387,604.6243626387206,887.1746291706388,835.9784463487437
1731305662.639061,867.9883624661855,794.0421551127018,973.1443771457072,843.7898806220563
1731305662.6400335,874.1692981280058,895.7662046753474,1007.8282277799435,853.5356306277125
1731305662.6429625,869.8300191221348,876.3440505949445,979.2706406120856,859.9238429901137
1731305662.6464808,860.327254139471,764.4752546557951,909.3762690744336,863.0962440466742
1731305662.6468642,854.9744952873936,616.4451588087427,834.5534293976636,868.1054251099829
1731305662.6507657,859.4739160007716,481.8016203393352,782.3137564574273,879.5017983956362
1731305662.6546671,871.1748606944847,391.29309160420695,759.5586511574724,895.7000155314427
1731305662.6556647,881.2129941464328,360.73410361821493,756.7256027730308,908.3584545167017
1731305662.6585689,881.7902819613723,391.4175206272438,759.9494743061732,907.8167008442364
1731305662.6624703,872.3850997800869,461.1181799914003,760.4504102051449,890.3869346683443
1731305662.664816,859.6193254430987,522.04022980975,756.463336492837,861.617886676348
1731305662.6653452,851.1225541937823,523.8728344118597,750.1273881530105,832.8445063547048
1731305662.6663718,848.9818096403716,453.3285112470198,743.8534897941129,813.5977060108
1731305662.6702735,848.5654829096195,353.99864600387485,738.6400635228279,805.6242233040846
1731305662.6712956,843.5786367231533,298.69253418365753,734.2468849206289,803.0182359664926
1731305662.674175,832.58516086804,330.9988348522711,730.0487118329629,798.1719606494066
1731305662.6780765,820.9005631866632,428.76804505632913,725.644381798041,788.5033195554176
1731305662.6819782,815.9170491894055,526.0337775087214,720.9791348381001,778.2147604831649
1731305662.6842096,819.9218854811461,572.7476763212557,716.1809248531044,773.6867976402884
1731305662.6858797,826.957785817912,573.2431985701793,711.3759603985154,776.9140367496539
1731305662.6869268,826.9340671358967,567.2067113153266,706.6105382496401,783.2522067271896
1731305662.6897812,813.8755746701258,577.3356539472911,701.86739496639,785.6985954487667
1731305662.693683,791.4340618010756,581.3932670434417,697.1124638900407,781.6586401063607
1731305662.6975844,770.9169755628377,538.4587330726918,692.3254807619361,775.6024315242925
1731305662.699724,763.2618918263836,440.45037889651576,687.5045160155506,774.724286794846
1731305662.701486,771.2701691350632,331.90285906899345,682.6564636952947,781.3866284627142
1731305662.702558,788.0354444719756,272.480911349019,677.7874461364464,789.6291371365413
1731305662.7030735,802.543714959469,276.583093329518,672.8992055836416,789.9181241632452
1731305662.7053874,808.0339288885431,292.7023637672418,667.9903546857545,778.9062765552965
1731305662.7092893,806.7665772684385,251.12356463449436,663.0589278885461,765.5405096767602
1731305662.7131906,807.474999320015,140.80063472759082,658.1038145131348,766.6206510504009
1731305662.717092,817.1920772825993,39.54658770342917,653.1246744714276,793.4259154084626
1731305662.718189,833.6911840993558,57.4115627608777,648.121183888384,839.5839179572465
1731305662.7209938,844.8732341032048,235.30114097724072,643.0926607456369,881.0608936331857
1731305662.721938,836.4218311450902,492.34608769723263,638.0386204603437,890.2718079031247
1731305662.7248952,802.5534086561505,679.797336690433,632.9599242043049,854.8022997128978
1731305662.7287967,751.9769921911828,702.0609128170546,627.85923695008,786.9423690573042
1731305662.7326984,704.4699625857392,598.074838580787,622.7392198033649,716.9183710403715
1731305662.7338202,680.0278628896771,507.1710468367849,617.598255730678,674.736141778871
1731305662.734632,687.422169438075,547.3160299829914,612.4267898765237,673.2395777630708
1731305662.7366,719.2373777208895,713.0050213717361,607.2104562342987,703.0770233092952
1731305662.7405014,756.4812872094274,881.5661307889849,601.9444169658614,741.3741244734933
1731305662.7408023,780.0911793638099,919.4793162032599,596.6529027962307,767.0187587808563
1731305662.7444031,782.1468592596776,793.7909115177793,591.3924286630729,772.2232724082252
1731305662.7483046,769.3447543050629,593.1385586383667,586.2123565436292,763.7429976814317
1731305662.7494512,756.3939221491286,445.43159709340523,581.0735650462545,754.7631262101778
1731305662.752206,754.4334562135509,410.1462136549701,575.7878924547728,754.5656419611121
1731305662.7561076,763.379771131147,442.0238199074211,570.0939526851967,763.3829569830993
1731305662.7596667,773.7198630651144,453.8073968286729,563.9400444521744,774.7086826736912
1731305662.7600093,775.455606702574,412.50163158007564,557.8377041577578,781.5170673912781
1731305662.7639108,766.4530738237912,373.7325337356514,552.8659631642786,781.0144630320387
1731305662.7650824,753.7232244198995,420.72221347552477,549.8577164824904,775.1928135957082
1731305662.7678125,747.3940570717616,568.4463462838644,547.8689352257247,768.277151198645
1731305662.76954,752.7354577148468,728.2871220159758,543.2136668996468,763.8785835559214
1731305662.771714,766.3790469376951,771.078407619893,531.2458028169601,763.7580104660974
1731305662.7756157,779.0670858701789,634.1224798975226,512.0261469729821,768.1895502259179
1731305662.7785313,782.3519748450325,378.54295023218924,497.0520725529137,776.6264307902734
1731305662.7795167,774.1845634479257,149.61664801117695,509.48086790984365,787.421925353424
1731305662.780713,759.5925362281196,75.95233862418365,571.2004919136876,796.7015580905685
1731305662.783419,746.4375055247723,187.99239360743866,681.8391963977857,798.1700247358885
1731305662.78732,739.7928120206761,410.84097644667133,808.5783745391138,785.7632165129896
1731305662.7912216,739.2359731833374,623.2067043398775,901.4929687739402,758.5278649451033
1731305662.795123,740.7749638416392,730.1056484870367,925.2026177725306,723.8884177335801
1731305662.7963445,741.3431233599003,701.6109918489271,880.5562755829518,695.3773284417887
1731305662.7973957,741.8982059628867,567.592559599905,799.9833421008964,685.1182053154793
1731305662.7990248,746.5585569118308,390.1962406657764,724.1533801177295,696.1953857305665
1731305662.8029263,758.5689430594672,237.62661149441368,680.1162878765326,720.7408799272766
1731305662.804448,776.4794881377554,164.5616014097683,673.9834624136971,745.332189516643
1731305662.8068278,793.786274750188,194.31793379353968,696.8523927523411,759.7913796819594
1731305662.8107295,802.549149884974,307.46861549670405,735.6628243787926,763.0473177091793
1731305662.8119757,798.3101330001349,452.2314048644654,782.482280815729,761.9834936212736
1731305662.814631,782.6324142244813,579.5265766597395,838.4014259433816,764.4206609609422
1731305662.81626,761.6571081977517,676.9134160250532,908.8126304590824,771.878618504385
1731305662.8185325,742.3389794753466,766.9375034326979,990.9179184855698,778.0867215490368
1731305662.8224342,729.4910897218666,867.5555626806495,1063.5552557344454,774.6711601030169
1731305662.8263357,725.3142275855105,956.1199278781414,1093.3861378605986,759.3087334065153
1731305662.827607,730.4552545378803,981.6088866816092,1059.5948469533048,739.1707653156088
1731305662.8302372,744.5061081789215,920.1866086299892,978.6697745399863,726.3177013410734
1731305662.8341389,765.131395333719,816.7000891613493,903.3266333548612,728.7398791339368
1731305662.8351245,787.1193102069294,759.6080815672598,887.7483851059787,744.5445157129889
1731305662.8380404,803.282149110553,801.2217324061955,942.1714087514007,763.8628588420993
1731305662.8393562,807.577827872013,896.3812328666913,1015.4528451469552,776.3563784064291
1731305662.8419418,798.5749829338083,926.211323445468,1027.1833294785883,777.9877255501546
1731305662.843238,780.6137784637249,798.794359346073,931.0132447270732,772.242379309987
1731305662.8458436,761.5470124044783,542.5223980028467,759.8923933992907,765.9572869464266
1731305662.849745,748.5476970280248,304.11184326390344,611.5103628775338,763.7118842797564
1731305662.8536465,744.9183167288671,242.18284897630718,578.7353685596371,764.8972991368968
1731305662.853989,749.87216793541,401.65970337592427,678.9719411623868,764.9840677670638
1731305662.8575482,760.7796656402836,676.9759320299054,842.1576044631495,759.5090507215293
1731305662.8588688,775.6243149091727,897.6488593083196,968.6622191960624,747.7428961029246
1731305662.8614497,793.7459171995629,962.4960833140724,1006.9270582601841,733.5352630940142
1731305662.8653512,814.620602276111,906.3316706072413,983.8240677753022,722.9275631502228
1731305662.8692527,835.8093097044379,845.4489107071316,965.1297929411163,720.3341137806929
1731305662.872853,851.6540185041067,858.5004866635334,987.1945839548459,725.9397652674601
1731305662.8731544,854.1747057564853,915.4685168120794,1024.3998203403262,735.9695858030123
1731305662.8742642,836.8638865978744,918.2590055801559,1020.5462939136632,745.4690116861074
1731305662.8745,800.0862814160483,809.7665922281287,951.7988917591099,751.5796455373701
1731305662.877056,754.2743277719242,644.0352489537011,859.6863828830793,755.0239422473892
1731305662.8809574,716.8639823635488,547.1351288134304,820.2356874235609,758.7729177116496
1731305662.884859,702.9500238259093,601.8215508935566,874.7059491960655,764.9070562356325
1731305662.8887606,715.4732303516887,763.3741465913075,985.4314036511754,772.1338349572784
1731305662.890131,742.6140182110919,889.1679255450799,1060.9513108055285,776.1185796931634
1731305662.8917174,765.1224536038287,861.0091450675254,1032.5146969833581,772.7002823116386
1731305662.892662,768.4913462912455,691.9784952681864,915.0405491826431,761.6430583819104
1731305662.8965638,751.1355322030817,520.5276364166206,796.8809625397411,747.800094955747
1731305662.9004653,723.1697718289865,495.2476476191628,766.4052856283869,738.3525023530216
1731305662.9043667,697.7814048455621,651.537594533826,840.6470910942136,737.9499085497634
1731305662.9057622,682.4812891402481,886.4350867343883,957.6551606001291,745.5186813397291
1731305662.9082685,676.7210669426985,1047.8311177418507,1034.237238892271,755.3778909452234
1731305662.9091723,676.46372160379,1055.2198014013354,1033.5208555961833,761.8693247106714
1731305662.9105818,680.3491711428958,950.1567369494303,984.7997397192682,763.8169599379388
1731305662.91217,691.1963623594612,844.3184946191757,946.5487663628389,765.2159415395234
1731305662.9160714,711.4704039162345,820.8382897892684,952.2275232594869,771.5433701794288
1731305662.9199731,737.5473190218518,874.4953319475412,986.202633896811,784.5860590201883
1731305662.9213934,759.2593685504667,932.3855296175325,1004.9871799884282,799.9683105105715
1731305662.9238746,766.45825394071,925.2892027700989,979.6406835298262,809.6469025231543
1731305662.927776,757.4421134627574,842.5902291484072,920.4438053740196,807.900285122488
1731305662.9294462,741.6468204568494,726.770162272199,863.4389185947225,796.4450571295798
1731305662.9316776,733.544504170259,621.869983998791,833.0632422394257,784.421203071442
1731305662.9355793,742.1482342983584,530.8487982701296,816.8153207704897,782.3896519828038
1731305662.9370244,764.2365710591018,423.84263313491425,777.2830725578907,794.1797971997178
1731305662.9394808,786.4208003489292,286.24018318487884,691.7769922144792,812.8862083828959
1731305662.9433825,794.3640820150342,154.2648388558431,582.2561749664397,824.8713011523771
1731305662.9440804,782.3548549937316,98.20643745308007,505.9141989616006,819.3690161776314
1731305662.947284,756.6017547356474,167.1341813573635,513.4379737990414,796.2774722625626
1731305662.9483106,730.4640538019831,347.558899445502,611.2510204389749,765.8471488149474
1731305662.9511857,715.5693070832305,572.3702297568651,757.8645850904273,740.7380722448318
1731305662.9526556,715.2444198017249,765.9853132239814,892.4369924896886,727.2978338723141
1731305662.9550867,724.3109714414026,882.4541510985831,969.477234014552,723.0414608374869
1731305662.958989,734.2057347145153,911.6803910221657,976.7983787419824,721.3468262695926
1731305662.96289,738.7798133940312,866.405103618597,933.102053021515,718.2096946837579
1731305662.9667916,736.7714473165539,774.7520751679904,874.4803569922153,715.1407916486822
1731305662.967175,730.7047541818995,681.8457752014228,837.9879693379058,716.8443473696157
1731305662.9682865,724.889410641752,641.6393307652868,845.214173471568,727.083719803428
1731305662.970693,724.5353089773229,687.167805502593,889.8101610835135,746.6192631990108
1731305662.9745948,735.1258767969766,797.1752987723236,937.6108402448497,773.7673032759058
1731305662.9784963,760.0063261675544,894.2807937552029,945.3975351695883,805.1973125900723
1731305662.9789884,796.4612602304958,890.2963865371244,890.4045332759504,835.2213001887528
1731305662.9823978,833.8338239454051,751.6995555355218,788.6716932321518,854.9971133027958
1731305662.9839177,857.2987112263141,532.6064404490198,684.3558213139086,854.8412765253224
1731305662.9860394,856.6105591812357,342.1823888941477,617.3631042333058,830.5324767995359
1731305662.9862995,833.9917587198652,266.64628189291335,598.3802036098165,789.6529879381983
1731305662.990201,804.4074329098949,308.28113803344553,611.042475269933,751.5653414750814
1731305662.9941025,786.693507275395,394.29160752680053,631.9945714929189,738.1936515810895
1731305662.9980042,791.5300085116272,448.4803957548053,647.1426973184807,760.4152262606827
1731305662.999549,815.2946539319106,459.5328321820256,654.4238566325236,809.8312442041785
1731305663.0019057,844.1538057345566,480.38357010673843,657.9894377256202,862.7513851997122
1731305663.0049038,864.411070741674,559.9484110652112,661.9881820925414,894.2403769509315
1731305663.0058072,870.6749744930104,678.3403133094514,667.9495497431097,892.5296805600306
1731305663.009709,866.3539918520021,756.2000504143448,675.3131684450391,864.1732935199052
1731305663.0136104,857.9328742390123,733.6674431947172,682.9678928811513,827.5518274722444
1731305663.0138965,849.0660174519863,639.8111056610279,690.2593174119539,800.5460494555977
1731305663.01518,839.3270564414462,577.2697079790044,697.1380400848111,791.1572226085102
1731305663.0175118,827.411462534528,628.8022322827497,703.8455537563616,796.206895337574
1731305663.0214136,814.633028692155,772.376503203606,710.5975317652624,806.8832635482943
1731305663.023768,805.0320174052517,889.7658235460258,717.4638462959888,815.8697971608752
1731305663.025315,802.2592000804278,868.761268755132,724.4081053711566,821.2237785731654
1731305663.0292163,806.5662726820809,708.937685397106,731.3710484085694,825.583784743501
1731305663.0308113,814.8209085914702,530.8640324475178,738.3206790339242,832.6707824095939
1731305663.0331182,823.3258919994247,472.78512283243816,745.2567624811313,844.2020410565495
1731305663.0370195,830.6327131392268,563.6967628554312,752.1928834951555,859.0506127334754
1731305663.0409212,837.8249784499229,689.8198048429315,759.1400746513336,874.3405173406941
1731305663.0426323,846.3430901489497,691.4155557642893,766.1013908660519,887.0489708308004
1731305663.0448227,855.7558897016111,507.99950073372577,773.0746461233957,895.0959146787231
1731305663.046442,863.8036470211433,241.98157596747347,780.0569777749675,897.806678359439
1731305663.0487244,868.6909237528497,80.5734414689341,787.0472429156727,895.9384133061476
1731305663.0488043,871.3023162993617,141.52972729674184,794.0457275426743,891.2369824700233
1731305663.052626,875.0284271603359,376.032340184433,801.0526354955767,885.5312592507445
1731305663.0565274,883.1890275071455,611.2025525588831,808.0671351769228,879.8724757618894
1731305663.060429,896.2867940665955,692.4681999492216,815.0880749064276,874.461828561252
1731305663.0614967,911.3471686525604,602.1326075726096,822.1162079063313,869.4916967316457
1731305663.0620732,923.62607190072,456.94516350790695,829.1560586665812,866.038656591026
1731305663.0643306,929.1189841000946,395.83421856956136,836.2143024909516,865.8759982644501
1731305663.068232,926.162148091252,460.9033858047226,843.2927109802388,869.9619997843469
1731305663.0721338,915.6082070496612,572.3376341097877,850.3789437702505,876.7095413475328
1731305663.0760353,900.1489738282563,609.6204860208256,857.4457651188604,881.7641490528812
1731305663.0777042,883.4889801877165,519.7061713173548,864.4709395998004,880.1956009503926
1731305663.0799367,869.5299500099874,357.33385182674635,871.4762460862855,870.0745733219624
1731305663.0803611,861.3205710391826,230.46866793426307,878.5542254524394,854.7499116399539
1731305663.0837126,859.7627097763458,207.80791982180278,885.8275095234992,841.439084644187
1731305663.0838385,862.7560573388631,270.6486201533405,893.310427237209,836.4355130378971
1731305663.08774,865.861832821234,343.0958649804573,900.7444129440797,840.4475313993784
1731305663.0916414,864.9132317835252,363.6179641921351,907.6116195741616,848.1825966121213
1731305663.0933354,859.3201305116453,331.9752697409328,913.5429913490347,852.9558082515941
1731305663.095543,853.3991488236834,298.15157189133583,919.0497748059054,852.4186409781215
1731305663.0992255,853.7227007132527,315.38106891614405,925.9408362857033,850.0800037524264
1731305663.0994446,863.5942609654032,403.1620102145899,936.3922248916269,851.0453191037748
1731305663.103346,878.9669683356353,543.4699188250343,950.2025718834285,856.0297099170726
1731305663.1072476,889.957162615174,698.3731147298863,961.7217942220251,859.6288444441424
1731305663.1089666,887.7250306903558,827.7241375981827,960.1897700686128,854.8916545509665
1731305663.1111493,871.4806517243483,900.7671839678201,936.6095658668718,840.1062909773169
1731305663.1150508,849.6635338684384,906.7272715950999,894.2245020803206,821.3451432076539
1731305663.11809,834.0557548494405,862.3302121245799,852.3637934086827,808.0646676700776
1731305663.1186206,831.549563171231,804.4735897283929,835.2680465204295,805.4168898495224
1731305663.1189525,840.0992068782258,764.2571727482032,851.2182498437858,810.0194902873576
1731305663.122854,851.5876278111124,740.2082270815563,880.0844071074742,812.9808659840147
1731305663.1245975,858.5001813958389,698.4063247464068,884.4746188123231,807.650045725319
1731305663.1267557,858.6066925410461,607.9162800557749,840.5440095397809,795.4299919159329
1731305663.130657,854.5243178378557,484.4277616700125,764.2708909367946,784.6870686521153
1731305663.134559,850.0476462110965,397.9089981839801,706.8607456080184,783.8368188010352
1731305663.1369543,847.2214745958811,424.594257651312,715.7429124761154,794.6811135745347
1731305663.1384602,845.9774834302601,574.8144010181696,789.5510971352224,811.5220161679858
1731305663.1402287,845.3286402593683,760.4517385016368,867.5367401677736,826.188269237
1731305663.1423616,844.4925230086039,842.6297306579781,869.9265101442024,834.0866600322939
1731305663.1462634,843.2579685075409,732.9224326198713,761.7826075750097,836.2242110858792
1731305663.1501648,841.7895126498167,467.51534281385034,587.5701716588571,836.3646067240446
1731305663.1535287,840.3098112836328,187.78305288810697,443.625936155604,836.7003288147407
1731305663.1540663,838.9272155607636,37.878719161847584,407.6321513191658,836.0276708132983
1731305663.1558187,837.6332040880185,62.90759267254805,482.7459494084024,831.6359615024317
1731305663.1558597,836.3743402033845,191.547449085557,602.9321528837469,822.8966856749894
1731305663.1579678,835.1112722040655,312.1005334946658,693.0905922203671,813.3435351632949
1731305663.1618695,833.8352898181294,369.0958410437488,729.5570057815313,809.255535865889
1731305663.165771,832.5562892578251,393.84257636512245,747.534716962215,815.2953940312298
1731305663.1696725,831.2859678125517,448.23013615336885,792.0936133860189,830.1051859829662
1731305663.171491,830.0294683857468,543.6194452621311,862.5427217440413,845.4108074167536
1731305663.1735742,828.7858771598674,618.0956971363568,905.9829886624716,850.2017550164454
1731305663.1746829,827.552216207967,596.6668066022294,868.3461048012899,837.7761881439868
1731305663.1774757,826.3264438261622,476.8502155018161,754.8414911798174,810.7034332654737
1731305663.1813772,825.1081527138055,354.15049084486645,640.0841800571071,779.7288101425307
1731305663.185279,823.8978402345637,354.88451976723456,613.3643025303946,757.040852950494
1731305663.187122,822.6960191945641,529.879958504347,705.2320366411519,748.6822231353904
1731305663.1884367,821.5028176799862,802.8373046151668,860.8130043678739,751.5804738470531
1731305663.1891804,820.3180469763693,1022.9229841254992,984.1152263761597,757.1224124743975
1731305663.193082,819.1414384487509,1080.4245710237562,1014.1988599364379,758.2512464256005
1731305663.1935472,817.9728060867889,988.403457200247,967.3695917204448,754.5558373728242
1731305663.1969836,816.8120539370325,862.6499337154256,912.5322233252069,751.6074208207966
1731305663.2008853,815.6590695030712,820.2205461636074,906.4918695977984,755.4577341981305
1731305663.2027533,814.5136051709325,884.8286830409165,947.6479558478401,767.0410061964536
1731305663.2047863,813.3752727709493,976.804968757523,985.1691524825892,781.085897987167
1731305663.2086885,812.2437419173464,989.1498795415996,969.8702605479618,790.2177665443774
1731305663.2124116,811.1190835875063,878.8155767817234,898.7956350191721,790.6804313196462
1731305663.2125895,810.0019486626608,695.5516156258021,815.2225455856612,785.0868532960274
1731305663.2164912,808.8931177722349,530.4504425519149,767.4074914529572,780.2630653734109
1731305663.2183845,807.7922564671701,436.5452973423188,765.3238686371182,781.9935489434023
1731305663.2203927,806.6966359606125,393.3146419599401,774.4925970485114,790.4901677444528
1731305663.2233448,805.6016316169373,342.38799470178316,751.4190956807506,799.765219008379
1731305663.2242944,804.5046294616916,256.3065094090438,687.547271517946,801.5487085377598
1731305663.228196,803.4111809448237,175.0298756570387,621.6178733008924,791.3436035121217
1731305663.231276,802.3374412377248,177.7919401186295,609.461180137181,772.3574276885361
1731305663.2320974,801.3004169213217,317.14276342586675,678.0234609707234,754.0047202763236
1731305663.2340152,800.2940274239966,572.3111110556932,802.4914166844741,745.5286983645946
1731305663.235999,799.2669545422599,856.8101149302697,923.2363845475887,749.4485672408772
1731305663.2399006,798.1368307254675,1067.8080764361232,986.1114933410577,760.2240186445459
1731305663.243802,796.8682794056715,1137.849543831902,974.826943256464,769.4214552194745
1731305663.2477038,795.5858596198553,1060.2573080599363,915.6844455528644,772.9700278263912
1731305663.2496464,794.603405043077,885.8965930866518,857.1801578014714,774.1064216061211
1731305663.2501404,794.2142791200337,701.4220300866169,840.6369251764311,779.538811579403
1731305663.2516053,794.2243824330253,594.5730700651378,877.7715722294784,792.6842303428389
1731305663.2555068,793.5473293742232,610.9887648134926,944.1750696942379,810.39871268745
1731305663.2582529,790.4767662238222,720.8252802417622,991.0661167782984,825.859568077106
1731305663.2594085,783.9659823308679,824.9165433433009,971.3952992747165,834.1637991352036
1731305663.26331,775.1105772850116,813.218341539468,868.7717594207361,835.2479486476466
1731305663.2652774,767.114401467717,645.1322171837172,712.4575584575358,832.4164267361639
1731305663.2672114,763.0872749081191,390.5677525779215,565.9246551528651,829.1029635611881
1731305663.2690048,763.5289423076777,190.28408711531318,491.9712681246948,826.9443018655923
1731305663.271113,766.1348096956348,157.66346845149462,515.4318377987515,825.8772254387059
1731305663.2750146,768.2330578214155,298.23207662955605,610.2301712991353,825.1781507159154
1731305663.278916,769.3551365279346,514.3135283915244,721.9173673483476,824.3016842435424
1731305663.2809086,771.3309016151259,690.4821495788237,808.391582660435,823.1229210280867
1731305663.2828176,775.8797303166085,783.3197278100233,864.5481360760868,821.7766466099793
1731305663.286719,782.1603331237011,836.0414100022774,910.2632875359554,820.4252411324144
1731305663.2878692,786.7571582879492,911.1400442587251,956.0983178184666,819.1414433827977
1731305663.2906208,786.3461478539488,1013.1387466019709,983.7474093993306,817.9138947634907
1731305663.293161,780.9370014125001,1080.8584843407696,963.8670707301137,816.702044335645
1731305663.2945223,774.9627650095701,1056.492893833746,894.6060055562912,815.4779808822142
1731305663.2965395,774.9023240622553,958.5860154432804,818.9857793272561,814.2365133931335
1731305663.298424,784.663220281592,878.3437439982615,795.8967033396359,812.9853068156174
1731305663.3023255,801.9917406525149,894.0661528908257,845.224671912202,811.7326084118357
1731305663.306227,818.9822216622524,984.6728394303375,918.892706115206,810.4816070207396
1731305663.3067336,826.897658061064,1033.3500726764512,932.5262455434738,809.2311684818153
1731305663.3101287,821.9876572561545,930.4978423995458,837.9547352909582,807.9788548700469
1731305663.3121707,807.9292136612648,686.517148693051,674.2587421005937,806.7230425455421
1731305663.3140302,793.0916923099563,445.80041330009544,547.2215302897805,805.46333017442
1731305663.3179317,784.8666943787019,377.62284165849184,547.6497891047767,804.1999496953707
1731305663.3218334,785.3545281867692,533.1625450205697,675.3583648527823,802.933101828621
1731305663.325598,791.2458513114442,795.0492994036028,835.1688827058407,801.6626629550751
1731305663.3257349,797.3137444914672,968.5699982586265,911.2065087067308,800.3882482970035
1731305663.327802,800.4373613251198,939.2426436994764,858.149174041227,799.1094406922757
1731305663.328069,801.2198959127352,762.0524307907925,733.252204805955,797.8260134634754
1731305663.3296363,802.4620412086475,607.0498951138774,644.1489847333177,796.5380141329642
1731305663.3335378,806.1140162133617,611.1249071204609,659.1009568802095,795.2455878165101
1731305663.3374395,811.2717362736493,765.6204394708876,756.0471284581873,793.9485154632712
1731305663.341341,814.8403769500981,934.4540819900983,850.2133283984145,792.6457317809028
1731305663.343433,814.322464983875,980.3796471597229,871.1480036508075,791.3354467065669
1731305663.3444622,810.3258155216014,883.1653176774371,819.7533535305029,790.0164664226028
1731305663.3452425,806.4284166435866,745.6288929295449,757.7691892448686,788.6903837995171
1731305663.3491442,806.2403789793848,687.9027953913301,744.1057077269538,787.362618701074
1731305663.3530457,810.095833053741,730.9682328744639,778.4627386020837,786.039279845309
1731305663.3569472,814.3553866991064,777.2023917805849,803.2787282306656,784.7188703545422
1731305663.359064,814.137718544805,704.7464813126315,760.6479894226609,783.3840532594113
1731305663.360849,807.3524419598966,488.23951185291753,651.0391673955314,782.0055255269577
1731305663.362977,796.79668195037,235.10519110675722,539.5200004486811,780.5684336314968
1731305663.3633263,788.6108605023879,102.8800536646238,502.4919407759725,779.1128437475369
1731305663.3647504,788.1310186334848,168.63267475886397,561.0223407657993,777.7481136355042
1731305663.368652,796.0513716185094,363.17693747379036,659.4750014979948,776.585757717165
1731305663.3725536,807.6303397476207,525.9242234784795,709.6031161169509,775.5805960342402
1731305663.3746953,815.5906114314546,532.1655319553583,663.5958192670452,774.3904228654906
1731305663.3764553,814.7478802575972,385.1878862175199,554.0991302003724,772.4857744726161
1731305663.3803566,805.1453434054906,201.90424127209542,468.05142631159896,769.691263768696
1731305663.3821907,791.5865781484496,115.42336402839476,478.45214861895903,766.9725573950424
1731305663.3842585,780.1327135658925,182.12988829331618,591.705229391876,766.7385667260455
1731305663.3881598,774.3311167507272,361.5316689097623,749.6373576257819,771.8463950626135
1731305663.3903265,773.8925733741386,565.2001161016489,876.5132705212677,783.5490103274509
1731305663.3920612,776.2050808188491,719.8004119344367,928.6529059169404,800.101689236125
1731305663.3959627,778.7447412500514,796.9719405446665,911.6580057329081,817.5563628515612
1731305663.3978848,780.3825092558551,805.440115501368,862.3855109918169,832.0494466253065
1731305663.3998644,781.2227463189108,770.1465488384864,818.0183994565867,841.3366584695035
1731305663.401055,781.8114073288143,718.6641767639557,796.1303090056518,844.4918559658204
1731305663.403766,782.5354655018342,674.4975330486259,794.0977512024501,840.9943983329957
1731305663.4059572,783.4692091063062,648.1564012239193,800.4161946864639,830.9797204352533
1731305663.4076674,784.5052121641232,627.6546837139521,805.7195376126342,816.5727520250058
1731305663.411569,785.5247116576527,582.7140483724316,806.8853036848673,802.2069159583625
1731305663.4154706,786.4781019094631,490.5992065000746,805.2452811593909,792.3253164140623
1731305663.419372,787.3763815540906,367.4268976218765,803.1551205800433,787.7995659730541
1731305663.4199195,788.249631629236,272.8304835666593,801.9197437974307,784.5987054556916
1731305663.4215884,789.1172546458027,272.2165586070366,801.5710457420748,776.8191013193639
1731305663.4232738,789.9818604456167,381.53201715035686,801.5719632205899,762.0984584177855
1731305663.4271753,790.8371351667719,544.7318656645479,801.475968094339,744.7446477882049
1731305663.4310768,791.6768033918328,671.3291090911432,801.154409452247,733.5023517070358
1731305663.432793,792.4984601258163,705.2788768391179,800.6957570444225,735.4331829592976
1731305663.4349785,793.3028029822121,662.4046476077219,800.2266782897972,750.7165818515002
1731305663.4372196,794.0913666135492,601.1358574626671,799.8112828012182,772.3661500735071
1731305663.438784,794.8650290694401,556.9944013063977,799.4469113751007,790.8452490434386
1731305663.43888,795.6237843945893,508.42990974163837,799.1040517681334,799.907639501315
1731305663.4427814,796.3672035903529,410.2052060977339,798.7602797873786,799.4661328908473
1731305663.4466827,797.0949045277653,260.4695665112382,798.410420479167,793.905112271414
1731305663.450585,797.8067295127861,129.3253172540376,798.0601304551261,787.7744950047535
1731305663.4528506,798.5026789040782,110.4794206640176,797.7163571462326,782.5755428338526
1731305663.454486,799.1827736493326,233.43590820089258,797.3824234486989,777.0479234797864
1731305663.4576485,799.8469758516318,419.1268973864628,797.0581997317772,770.1020279017201
1731305663.4583876,800.4952069149357,530.2735138843398,796.7423922181176,763.2341588946439
1731305663.462289,801.1274331518904,483.1358556810318,796.4343153611939,760.0285867214156
1731305663.4661908,801.7437424428074,325.38897990536867,796.134256001325,763.2646239997998
1731305663.467701,802.3443125414567,206.22788696519672,795.8428466978918,772.2397607505225
1731305663.4684818,802.9292104583213,256.92858155349427,795.5602922870906,782.4470686190525
1731305663.4700923,803.4981100854974,482.3323243393953,795.2861732765944,787.7513669019489
1731305663.473994,804.0502299637822,758.1960659765402,795.0201747173747,783.7313684016212
1731305663.476513,804.5848651743822,936.3109733467613,794.7634315141211,770.5325617825629
1731305663.4778955,805.1025214994722,962.5483628668401,794.5192696864796,753.7318138706705
1731305663.481797,805.6058002791017,903.4452056288449,794.2916030419294,742.1523766733789
1731305663.4841127,806.0984184214997,864.1891823682296,794.0803523282841,742.9922111745841
1731305663.4856987,806.5813162985406,881.4469236269244,793.8766543788333,756.9219598934811
1731305663.4896002,807.0476491579057,892.8579810588872,793.6645306082926,776.9279078881159
1731305663.4935017,807.4824611292572,807.146472247571,793.4351193102852,792.5745006602875
1731305663.4953773,807.8737245418606,602.9148646491728,793.2094242886907,797.0373352840608
1731305663.4974034,808.233765693145,360.7666748393759,793.0478039567284,791.6009479249379
1731305663.499744,808.6136862578983,199.2839387697835,793.0148241781047,784.1265322625029
1731305663.5013049,809.0804561875004,174.81148390577806,793.0913613905436,782.8076488727364
1731305663.502609,809.6402500509564,236.46759200426038,793.0917521409016,790.1285810868358
1731305663.5052063,810.1475147645184,276.5657233142853,792.713099755488,801.5124883558714
1731305663.5091078,810.3110361690922,230.99418528488388,791.8203050122032,809.399176597089
1731305663.5130095,809.9107286214766,140.0241971346133,790.8649687570247,809.4042324347533
1731305663.5142417,809.1706781040482,115.48993277410233,791.0061831019287,803.6992422874507
1731305663.515375,808.8954197935378,242.86309277991512,793.3602783168299,798.9568103847578
1731305663.516911,809.8354123837656,502.68688980363646,797.3088957918914,800.6314944208626
1731305663.5208125,811.5068083777232,776.8754671660963,799.0579324281027,808.4728542555553
1731305663.5247142,811.9719297629331,931.6537131948946,792.8201337195474,817.0882364276052
1731305663.5286157,809.7034240305653,907.6435490971853,776.2137870834603,820.8085347665706
1731305663.531006,805.9927424027055,749.6180953203929,757.1030531244005,818.2765479155046
1731305663.5325172,804.822719990425,563.9925691858934,753.6301980945796,812.7547741621341
1731305663.533106,809.4701329127274,446.67358222465646,781.5365710276426,808.4080500261629
1731305663.536419,818.8675296934089,433.9219503990157,836.7710774000464,806.4342746090433
1731305663.5375173,827.465961344167,498.47095984536327,891.397789157235,804.578164634645
1731305663.5403204,829.1540869151976,578.2630310594378,910.3197172537622,800.0780227572419
1731305663.544222,822.0057638945758,612.625133632142,875.6737143280042,793.0095980529774
1731305663.5466373,809.846027484353,568.8007867507638,798.7183082124654,786.907698438681
1731305663.5481236,799.3523215560376,453.8018061061548,711.2688075043075,786.1029294914022
1731305663.5519702,795.0826589619567,311.6745283731543,645.9028339259396,792.0256245218982
1731305663.5520253,796.4002171194959,206.16224025529,620.5855812138259,801.6117758631842
1731305663.5559266,798.6233787912436,191.33656825514987,635.8406883296105,809.3147147135203
1731305663.559828,797.2535635941299,281.94489156774165,681.1820024399104,811.2720707458898
1731305663.5622685,791.6257116676622,443.2785201064688,743.3388600896518,808.1988017030969
1731305663.5637298,784.9662775917943,612.8931581218399,811.9122832726774,804.4652147099131
1731305663.5676312,781.1737137707488,741.506493830885,881.0855565370282,804.1539000574032
1731305663.5708346,781.5500423866605,819.8186198903577,946.6762348585229,807.7028422995699
1731305663.5715327,784.3705795054839,868.054378231421,1000.4944802851699,812.1906140940478
1731305663.5724251,787.1235221713913,901.646229000685,1028.5473432790711,814.79833912971
1731305663.5754344,788.8109421159076,911.9526852678231,1018.4616098228928,815.9166094039455
1731305663.5778997,790.1917243763165,884.239802203815,971.6290573337508,818.729521482455
1731305663.579336,792.2343963920097,831.0224367375965,907.3600784029974,825.5331020235699
1731305663.5832374,794.6428930896908,796.2768466444247,852.1476761562132,834.3042452195054
1731305663.5871391,795.8422697693233,814.8558553674118,822.7600129827313,839.0577894830004
1731305663.589699,794.2302609997234,865.0832152990329,818.50790807417,834.1678695519311
1731305663.5910406,789.4627362359892,871.4523003173206,827.450296364029,819.1025018943454
1731305663.5935304,782.7481155586321,770.2441751628072,837.7141605654801,799.421617328502
1731305663.594942,776.0766651109973,582.9110190465843,843.8657080285913,783.035837948246
1731305663.5988438,771.0727249373701,421.70990408896284,846.3061269395029,774.7184040076097
1731305663.6027453,768.2291263043766,408.34749169951624,847.5872509224577,773.1590196691538
1731305663.6066468,766.8675313378591,570.2510480991629,849.5560699513516,772.583382789226
1731305663.6073332,765.7513717978613,808.2418537472336,852.5911529885027,767.3975232685862
1731305663.6085634,764.0535203659532,970.7507139192453,856.1995511690922,756.3822109570926
1731305663.6091616,762.2040198291745,974.3846483398917,859.8203741598902,743.7166159080023
1731305663.6105485,761.9801213097716,866.1773946809599,863.2134314946036,736.4207016421353
1731305663.61445,765.3880072299265,772.1030478590928,866.426146282674,739.9304565364433
1731305663.6183517,772.7177318025546,778.3211297962231,869.5996962723531,754.4804025654929
1731305663.6222527,781.200851671939,854.5719987796922,872.8271231338124,774.5462154128396
1731305663.6247926,785.8456539339426,891.3549417421552,876.1224213275115,791.8923411115759
1731305663.626155,782.579450612204,814.5288103195437,879.456642549408,800.4334513652475
1731305663.6274278,771.6603317105715,665.222475362785,882.8002473458635,799.6653211214505
1731305663.630056,758.4593478777838,565.4122989527536,886.1416720272755,794.2585795234598
1731305663.6339576,750.4003854902111,600.2142740032997,889.4840507117896,790.2218397048886
1731305663.637859,751.9826464461047,729.0422717840742,892.8345736808642,790.6122280129954
1731305663.6404238,761.6764120514678,811.7516986558763,896.1973352746338,793.9467058501539
1731305663.6417608,773.2467943777854,729.721466464706,899.5722128766552,796.2234320748304
1731305663.6422412,780.5924158609301,495.80555774967866,902.957143069257,794.760600633897
1731305663.6456623,782.3223683651752,257.2362983064816,906.3504865417459,790.8732728723872
1731305663.6462922,782.3999023647887,187.85607768078182,909.7518059373735,789.2997566530929
1731305663.649564,786.2799829890473,357.3643858193331,913.1610813663049,794.5819655806514
1731305663.6534655,795.7271238395696,680.3027960674951,916.5773499654715,806.9877282005676
1731305663.656055,806.8431863331772,979.6037260998467,919.998126299852,821.3751166102004
1731305663.657367,813.3028598624825,1109.3943041219268,923.4207729961113,830.4781645755806
1731305663.6612687,812.1659994599838,1042.5670177314269,926.8457843339899,830.366651201105
1731305663.6651564,806.9848589924537,865.9452401831452,930.2795436096261,823.4975065653726
1731305663.6651702,805.0432507769132,701.6345908349307,933.7319561161453,816.5107068600754
1731305663.6690717,810.8850580146644,623.6865402662104,937.2057760833192,814.6023837587579
1731305663.671686,821.9160133282531,629.3364768271496,940.6822196021448,817.5163919496899
1731305663.6729734,830.241695976694,670.840903197132,944.1188528123365,820.6924224927726
