timestamps,eeg_1,eeg_2,eeg_3,eeg_4
1731306218.7546997,822.780621043708,735.4980794758357,698.6620917075131,800.9689109999207
1731306218.758601,795.2131350383428,741.7335571524832,680.4854862731838,779.2824651880967
1731306218.761762,782.6052103361876,745.7370261401525,663.8939927602288,758.231833924156
1731306218.762502,790.2212158180769,745.6997569802005,644.2899989521887,740.6391557448546
1731306218.7655084,810.7100316224647,741.0755334010239,614.6824036288599,731.0419606169226
1731306218.7664032,829.889341777812,733.42777641647,576.3972753489584,732.6218143785096
1731306218.7703042,836.8589615831069,726.2307238677525,543.3647655432026,744.3906303555265
1731306218.7742054,830.9440999144065,723.1159907128317,532.2385092432058,761.4895337101544
1731306218.7773335,820.5383208052756,725.4848506112876,546.6523806649584,778.4806069041676
1731306218.7781067,815.3586049672873,731.3489230365918,572.0028589602913,792.4942290289699
1731306218.7820077,818.7456440184601,736.5987420188687,587.2318659156495,803.2561848071322
1731306218.7843769,826.1021263980435,737.9538964294096,582.5956152068213,810.3904028160026
1731306218.7859087,829.9621409947415,735.2635208812391,566.4870915246704,811.4545839712343
1731306218.7898102,826.7020474977013,731.1887529364559,556.1638964177031,803.4789531057237
1731306218.7929046,819.2865816354132,728.5644814014205,563.2700054277432,786.8800894527791
1731306218.7937112,814.4951794324055,727.9152235030441,587.9622904189158,767.6202423803211
1731306218.7976124,817.4968276824221,727.4578040228711,623.5966766292544,754.6550385048315
1731306218.8015134,827.8940669821219,725.4169561510556,662.4753403923786,754.0777754558571
1731306218.8032453,839.6009915237556,722.1403599390862,695.5301319270784,764.7618074721997
1731306218.805415,844.3713111475786,719.8250168584719,710.4362412761681,779.4245267251711
1731306218.808476,836.8641853366131,720.2725013854234,696.9907112575042,790.4763489177712
1731306218.809316,818.1847280946374,723.0961363318995,658.4867639528297,795.7627499802179
1731306218.8132167,795.4231585589713,726.1188327886608,615.6047139246409,799.2528375549679
1731306218.8171182,777.2356456236614,727.307387744575,592.5540280792359,806.1325870787049
1731306218.8210194,768.5732261405867,726.2074655750333,594.1638987878625,816.8219097030586
1731306218.822114,768.5001950581077,723.7602152066936,597.06330569901,825.5518585364346
1731306218.824047,772.4560530901267,721.211106266613,568.838147472205,825.0813134680698
1731306218.8249204,776.5281382358693,719.4284901414553,501.4173807831217,813.4114406325531
1731306218.8288217,779.8905498313627,718.9731121847516,426.56650979141733,796.3167694641148
1731306218.832723,783.7296992928983,720.2206533245621,394.3357667980379,783.3078805592618
1731306218.836624,788.4240201838926,723.0149035665087,430.7427132723979,780.7303384227546
1731306218.8396184,792.1496744300799,726.2599721505243,514.1120361451244,788.0673347578903
1731306218.8405252,792.3107196068811,728.1929882983401,594.0827014908743,799.961883910858
1731306218.8409824,788.195275606299,727.3663344371095,635.7455576616051,811.0203085409212
1731306218.8444262,782.0482267207234,723.517329045752,645.7904051921364,818.6844454814446
1731306218.8483274,777.4357448201754,717.5583608870477,655.9090980828837,822.4528347362535
1731306218.8522284,776.5275078046697,710.8250849831325,682.9136623732566,821.6538695853535
1731306218.8551898,778.9005198567677,704.4302884089818,708.6226586805145,814.8527859642898
1731306218.8561296,782.7722151803512,699.2730067069876,700.5780256298303,801.5902139805905
1731306218.859851,787.0925898032116,696.3244656831805,650.599127762486,784.420202779508
1731306218.860031,792.2455920507124,696.4300024476371,588.7858546246352,768.8490246422197
1731306218.863932,798.7849711680451,699.5801797094147,556.3117358542224,760.8348559152906
1731306218.8678331,805.771901027929,704.5446395934798,564.281701289171,763.7512976063347
1731306218.8707612,810.6779638765237,709.6235146480611,581.9863499205685,777.0053431716454
1731306218.8717344,811.1810771502521,714.024989924332,568.6089240486015,796.8715509145127
1731306218.8756354,807.2686180783321,718.4787934538602,517.4502910290344,818.4443106981506
1731306218.878719,801.7436806684805,724.3377192360625,467.6137204367756,837.3705758398893
1731306218.8795366,798.6502096999259,731.9953189791544,470.0531842882355,850.7934832912017
1731306218.8834376,800.7957969420903,740.2014918876002,540.5120149338219,857.5095494876426
1731306218.8863325,808.0379411421231,746.9351812801938,644.7018012202082,857.4687256630646
1731306218.8873389,817.2619546213688,750.9068644910433,728.8928478068605,850.9943261113754
1731306218.89124,823.9221092631723,752.2122927431927,765.5215629136507,838.4540369789709
1731306218.8951411,824.3165922365287,751.6642762295852,771.4972973519951,820.8545237716717
1731306218.8975878,817.5116681381159,749.7453445804036,785.4909490872896,800.8669304663256
1731306218.8990424,805.9823607646974,746.4328269170288,828.9721315541896,783.1075269908457
1731306218.9019036,794.5923681609082,742.0670650988137,887.5900229179509,772.9200880105423
1731306218.9029436,788.3006334149002,738.1597446067947,926.8026056689764,774.0604015040926
1731306218.9068446,789.6309223539837,736.9492292412258,922.9380659486102,786.5649640162538
1731306218.910746,797.2189136991134,739.736656796604,879.4366854452113,806.1244003067706
1731306218.9146469,806.393358014369,745.3802601142961,816.7477396034658,825.5411601998444
1731306218.9164562,811.6254691445937,750.4659024114999,752.1814316134756,837.7147400027825
1731306218.917475,809.3861875491477,751.385832994492,693.4225264465852,838.6708231289284
1731306218.918548,799.6481088196821,746.8889193922313,649.6165847094048,829.0811867540768
1731306218.9224494,785.367565758465,739.0760495009508,640.9415650025184,813.6309021967045
1731306218.9263504,770.7058663751263,731.9658318243751,689.1181741928784,798.7852316819994
1731306218.927738,759.1553442550681,728.7682988990838,795.7256465221946,790.0969118039775
1731306218.9302516,752.1687882548403,730.0449379720918,932.6413703048189,790.0096836019094
1731306218.9330463,748.522732881992,733.9948640680503,1057.6203614396943,796.7945449176464
1731306218.9341526,744.9362384254218,738.1767771773648,1141.0687284387711,805.2399372274435
1731306218.935325,738.3733256524426,740.9997361231237,1179.0935455783997,809.4396517960796
1731306218.9380538,729.0381840547155,742.0363812555679,1184.6133422578728,806.7025018073854
1731306218.941955,721.4509643931184,741.5359058932131,1171.6431591029873,799.9294419716794
1731306218.945856,721.6074375500197,740.0145517956948,1150.7500913790232,795.9081001387397
1731306218.9486177,731.6171931978251,738.27136254638,1135.0075929162708,799.9201864636606
1731306218.949757,746.38454320519,737.4791650588102,1140.2332789199177,810.6977229600393
1731306218.9536586,756.0785402123855,738.8824127259912,1170.903585922588,820.3335856068087
1731306218.9541934,753.2662318880475,743.0877994654015,1205.071421568809,819.9640847320916
1731306218.9575596,739.0350821716822,749.4686174695778,1200.4591409525283,806.9752684453122
1731306218.9614608,722.7564943376459,756.3210516505876,1126.0330723131963,787.8146081604241
1731306218.9625244,715.3571725296335,761.9080828942886,995.4429976240306,773.893278097787
1731306218.9641888,721.4540110129622,765.7100725404705,870.1414738880874,773.6053526989532
1731306218.9653618,736.644822788678,768.8084571176147,822.3580805890209,786.4834715221682
1731306218.9692633,751.9137109759507,772.9036860019226,883.4164307302227,803.7339667488591
1731306218.9730618,761.2491330499627,778.6659581731201,1019.4753435673903,814.5819588970178
1731306218.9731643,766.0529518529564,784.8485787654855,1156.964892353658,813.742464425659
1731306218.977065,772.793764637736,789.0634457700946,1237.7295122225091,804.7276898539521
1731306218.9797602,786.20830024582,789.6980524304718,1256.6183851046337,796.8469832577747
1731306218.9809666,804.1507675835528,787.4122155824846,1249.9006707258864,798.3746124076289
1731306218.9848678,818.5983034212579,784.9612629301629,1249.3343811549357,811.0744858517811
1731306218.9887688,821.874477376251,785.4837080430759,1249.04717705661,829.947306829626
1731306218.9919302,812.8612687103966,790.6036012121994,1217.527086440958,847.7033256603205
1731306218.99267,798.4072900891177,799.6784922222012,1139.8209751742256,859.7395467546012
1731306218.9953313,789.2526312350158,810.4279100675483,1043.8458328992326,865.5865743804786
1731306218.9965713,793.6788121453054,820.14268615166,980.9944694564401,866.5871302898865
1731306218.997311,813.0584864527212,826.610562238746,977.8870570269544,863.1789476467369
1731306219.0004723,841.6990720065417,828.5924042084773,1006.3973825042581,854.9829628610197
1731306219.0043736,870.547566877009,826.1960574130928,1003.3643897838367,843.2795478711906
1731306219.0082746,892.088473163542,821.2350007792921,924.956159663842,832.3993936063541
1731306219.0107987,903.2873948662882,817.0200409214921,787.5943982727701,827.5011870116036
1731306219.0109026,905.0947511692638,816.9579641798878,658.4356678745918,830.2450112329889
1731306219.0121758,899.7502749333244,822.2910405250711,603.0655838469355,836.6364807269119
1731306219.0160768,888.6884752239771,830.5902964583493,635.4541991504894,839.6969692806788
1731306219.019978,872.8089909465269,836.7266044729532,712.0250051880181,835.0868770032795
1731306219.0238793,854.2816503534928,836.2714754820394,771.7257975537889,824.8739419742958
1731306219.026474,837.50185914502,828.9120883459198,784.233093486992,816.1828013374148
1731306219.0277803,827.7309625117718,818.9182730459921,764.897626949833,815.9233332488642
1731306219.0296671,828.2374932549802,811.9453923793519,748.9191668289149,825.9243377784074
1731306219.0316815,838.1761247982988,810.6457705384436,754.3626571102938,841.9967734129538
1731306219.0320976,852.9125538488901,812.7023106895302,769.1794052185104,857.0369326745634
1731306219.0355828,866.6630213253675,812.8661188544287,769.7525462786654,865.5378734642283
1731306219.0394838,875.5998266499562,807.2072284288921,747.6034394745944,866.5963567384398
1731306219.042045,879.2419629976247,796.0641309450241,716.2979360550106,863.9693245042167
1731306219.043385,879.4036383780137,783.4966510947064,693.6661654614215,863.4488967925166
1731306219.047286,878.0700918805445,774.063981935886,680.2427586823284,869.0438028329704
1731306219.0485358,876.1822760806696,769.7657817445573,657.8627663702598,880.0072159473068
1731306219.0511873,873.8590685116603,769.4139180315964,610.7246491033263,890.4470363433039
1731306219.0550883,871.0852046589761,770.345163536987,547.3823534554626,892.0688327886852
1731306219.0576165,868.0038762785649,770.5468150222532,500.27650472133365,878.9462582019635
1731306219.0589895,864.8246323898084,769.5144677884722,501.4226946844675,851.7744588029486
1731306219.0628908,861.6831819446419,767.7617209481192,556.3018508945368,818.7311642543023
1731306219.066792,858.6080447741276,765.9488821971738,639.2138953145588,791.6985196288833
1731306219.066884,855.5669433334743,764.3964389114541,712.2412150092322,779.7837087620576
1731306219.0674045,852.5227003165251,763.0816475075951,749.2361283953668,784.4210003733258
1731306219.070693,849.4596666946057,761.8493753703556,745.9387712496269,799.3756630885746
1731306219.0731878,846.3814155940391,760.5847445879564,713.9572874288134,815.1737173044436
1731306219.0745945,843.2976713020403,759.2619558469701,669.9693414185152,824.2512072257435
1731306219.0784953,840.2148255646179,757.9095383915296,629.7677658823941,823.3091587825706
1731306219.0823965,837.1339369718336,756.5614408482879,606.3994711710429,812.42312563955
1731306219.0862727,834.0532019799386,755.2326124762684,606.8396003963495,793.2185615620309
1731306219.0862978,830.9708055783277,753.9203739919949,626.737595420736,768.3581887246863
1731306219.0887587,827.8861539424785,752.6160186745807,649.4308288127877,742.2118409555384
1731306219.0901988,824.7996406084812,751.3135626779791,654.301348969764,720.7364712177199
1731306219.0941,821.7119278463449,750.0118029542547,630.8981941566783,709.311038768515
1731306219.098001,818.6234697936708,748.7122130989999,587.8219532464519,709.576512919497
1731306219.1016707,815.5344409905771,747.4163651492248,547.2523609014756,717.6390750083873
1731306219.1019022,812.4448878479668,746.1247584500265,527.0654903917527,725.2228608259858
1731306219.1043303,809.3548806479085,744.8369847148442,524.1639701662117,723.6366832987579
1731306219.1051412,806.2645602178941,743.552364111545,514.3356253235813,708.9452319749423
1731306219.1058035,803.1740918674011,742.2703871102477,471.85852573191096,685.605865597726
1731306219.1097045,800.0835985893269,740.9907987812381,394.3064717067551,665.5105657286848
1731306219.1136055,796.9931515907217,739.7134789962411,310.31122069449714,661.3957904555474
1731306219.117507,793.9028597462365,738.4383095148379,260.2791563494666,678.0035775964445
1731306219.1199017,790.8130167111278,737.1651129943566,264.32339307320507,707.5926821437612
1731306219.121408,787.7241548847325,735.8936515328344,305.8569478531106,734.1645199077525
1731306219.1240096,784.6368116432877,734.6236469276264,347.3296644950943,743.860636178722
1731306219.1253092,781.5509777433081,733.354810949694,364.88258625553675,733.691302228792
1731306219.1292102,778.4656144069813,732.0868973376953,369.357343646237,712.3027070603188
1731306219.1331117,775.3790321961006,730.8197678633351,392.77634657739645,693.2075170372207
1731306219.135473,772.2907213855931,729.5534085669018,452.55072392413575,686.2718948902934
1731306219.1364572,769.2038963070545,728.2878007011726,528.165398590465,693.0709590730162
1731306219.1370127,766.1260014651739,727.022631039856,574.3271659052593,707.7017900844359
1731306219.1409135,763.0637403712506,725.7570440414775,560.2991499723935,721.1243976611179
1731306219.142878,760.012588547238,724.489851801329,499.60580733733696,726.137794816809
1731306219.144815,756.9487193015893,723.2205065458853,441.3749567440067,720.7317215109978
1731306219.1487162,753.8382815586765,721.9504358037105,428.6334601330282,708.5629484592224
1731306219.151044,750.6735645304332,720.6832813208582,460.00040506963063,696.6133035884483
1731306219.1526172,747.5191554851083,719.4222401196203,490.6775299878856,691.5152963643243
1731306219.1565185,744.5142858759169,718.1645286599656,474.3745188364963,696.567976899956
1731306219.1604197,741.7699558678859,716.8972013662489,409.2415885051011,710.6512418159197
1731306219.1617467,739.1711705307916,715.6021994818863,344.6829909999435,729.0640225832029
1731306219.1643207,736.2470228138845,714.2755370077972,340.6207822465413,745.7557410477025
1731306219.1666155,732.3909291332408,712.951491554493,415.1258253365231,756.1678446676071
1731306219.168222,727.585951119121,711.7032876982088,527.8044479505176,759.3977341206064
1731306219.1712437,723.2834290052773,710.588139880002,613.438023537334,758.3198278413975
1731306219.172123,722.4613454444366,709.5428713180363,634.6457286365915,757.5575234117489
1731306219.1760242,727.9980434016394,708.3166982972696,606.922899111434,760.925530107225
1731306219.1799252,740.0180758722618,706.5894648524594,577.0316789279459,770.0970098955793
1731306219.1806152,754.5698671880264,704.3533724424645,578.3253359142124,784.4997047373471
1731306219.1821868,765.3301105122003,702.3648660927903,604.5287413286433,801.2256849291922
1731306219.1838264,767.1986949034315,702.1398895066832,622.9622665074562,814.9781598903172
1731306219.1877277,759.105664052636,705.0076512531207,610.985576370149,819.9355364496729
1731306219.1916287,744.6060725245565,710.5494163558856,579.8399629311018,814.2460754347869
1731306219.19553,730.6186855213717,715.8212147179107,563.9095171484887,803.8142006584113
1731306219.197758,724.9641235895151,716.6586427328144,586.3921056487636,800.3048874493439
1731306219.1994312,732.9562599852939,710.5757105514674,634.3305609423513,812.8271291208582
1731306219.1994836,753.8883536940781,698.9501823085691,667.3726461565514,839.9100341013859
1731306219.2033322,779.6661971919307,686.3969594691114,653.4460455114847,869.7825879344431
1731306219.2060304,797.8777646139371,677.5221277788659,599.2703105743971,889.4790768080081
1731306219.2072334,798.8061572232322,673.6052408447517,547.771717401206,894.2742337649038
1731306219.2111344,782.0917872494257,671.9903670023177,544.4118209173208,888.9435058508509
1731306219.2133293,757.7782885873569,668.7126438340905,602.1184989942917,881.5032864610305
1731306219.2150357,740.1553865533187,662.0911111778729,694.0960785262553,876.9204820471565
1731306219.218352,738.5086093414488,654.2650464760445,777.1222903413437,875.6724604598596
1731306219.2189367,751.6510888689797,649.6342287919127,821.9949910188606,875.9222276624153
1731306219.222838,770.2828176714809,651.8875781258605,826.3618947968016,875.9577907757226
1731306219.2267392,784.966380227317,662.1209719517991,805.5589357296041,875.1815113802953
1731306219.228901,793.0819813721891,678.9516717596782,776.296556014181,873.8452319635566
1731306219.2306404,799.3575014286008,699.5755447968744,748.6562279352236,872.4076467476266
1731306219.2345414,810.320687661134,720.5013161392947,728.0843510839726,871.1294869119977
1731306219.2372203,828.0147754254181,738.0221458696461,718.2983837179298,870.0234256092651
1731306219.238443,848.1485618161262,749.2962903630427,718.8658330781395,868.9876079067794
1731306219.2408168,863.2961235984837,753.9773436961963,721.7312377849215,867.9346266959595
1731306219.2423437,867.6511330533859,754.8192308479777,715.1482945957947,866.8379376184679
1731306219.2444718,859.7561906380221,755.7814003728878,695.3954778292756,865.7137807096528
1731306219.246245,842.495761771104,758.4653818947171,675.2580374019049,864.586675485703
1731306219.2501462,821.7446590080751,760.1460530711905,677.8374418545827,863.4694146305278
1731306219.2540472,804.5848757059997,756.2345219115585,718.0238837160609,862.3617898237615
1731306219.256089,796.7467878315496,746.0557201784225,788.4015453827782,861.2581650664484
1731306219.2579484,799.5080191284366,736.6081383842078,864.4673005864819,860.1541206913455
1731306219.2600431,808.325162986818,739.2642989482731,925.2580114509749,859.0485464345379
1731306219.2618494,815.6932872358901,760.3140701957643,968.9645332130634,857.9424704951105
1731306219.2657506,817.2687195101435,792.9179929668426,1007.6384106163058,856.8372172130197
1731306219.269652,816.134904418001,818.5142650765001,1047.045250880031,855.733427262255
1731306219.273553,820.4521602707712,818.4218767217517,1073.823068394633,854.6310607498326
1731306219.2749577,835.5979725543481,787.4825315891198,1064.9857478561262,853.5298208017404
1731306219.2756033,857.7612943955222,739.2446030115591,1011.7438755311542,852.4294931182486
1731306219.2756145,875.3969606182455,698.5258158967171,933.9899400635077,851.3300371157534
1731306219.277454,877.9432172085268,686.5558191931509,869.0134855325988,850.2315132635797
1731306219.2813554,864.4468563155385,708.6947125629256,841.6872738088216,849.133985512934
1731306219.2852564,844.7464687906512,752.0753888477657,842.2322996594988,848.0374743204123
1731306219.2891576,832.4785941987809,793.6246599757521,833.9431095003182,846.941961143916
1731306219.2911856,836.0008806234973,813.04182459031,787.8548513230548,845.8474121557401
1731306219.2930586,854.2405134755323,803.3292597633477,715.0813711781193,844.7537943409391
1731306219.293826,879.3990023407996,773.2450403354342,665.2954823597651,843.661076513409
1731306219.29696,902.7678889191814,740.510864730389,687.6361290073908,842.5692224112045
1731306219.3008611,918.686932074592,720.2010898042932,785.8988062462735,841.4781872936593
1731306219.304762,924.9482538273302,716.1918966277335,909.2482822479925,840.3879249261939
1731306219.306757,921.6207756140839,721.4301112964447,990.0578850051534,839.298401331159
1731306219.3086634,910.7539026982627,725.8679633169156,997.1781197001346,838.209599671182
1731306219.31039,896.9673311439092,724.9900198838404,957.7522692358496,837.1214968601495
1731306219.3125646,886.7733550410624,722.1990123385355,929.3025710647019,836.0340100155471
1731306219.3126943,885.2790711960027,724.1818993605713,948.7434435989638,834.9469522004322
1731306219.3164656,892.0906887363321,734.126596929548,1003.8128877531717,833.8600748042326
1731306219.3203669,900.3978988268099,748.6199035738281,1049.5127924857904,832.7732498374372
1731306219.3223283,901.4287835714451,760.2873686786725,1050.9281722966896,831.6867125084069
1731306219.324268,891.5983182904495,763.4635043988977,1012.0840808684202,830.6010913576418
1731306219.328169,876.2750847933158,758.1819021197845,966.200586324042,829.5169004990324
1731306219.331563,866.1346371106041,749.6177740274966,939.7155910967037,828.4335188427955
1731306219.3320704,868.4453480774039,743.885637715636,926.368797824686,827.3484599454086
1731306219.3359714,880.54386759562,743.727124484083,896.8150546652532,826.2583796725797
1731306219.3378997,891.2831352056355,747.266518951545,834.2589262748453,825.1626623339237
1731306219.3398726,889.4410927377749,750.2687428644908,760.7103541315381,824.0677928237106
1731306219.3437736,872.1446500854138,749.6221239543437,726.551118961166,822.9872020005114
1731306219.3451765,846.5889227043966,745.2671967291202,770.6839987548782,821.9308056928016
1731306219.3476748,824.2005143675018,739.5881465275963,886.4016458533381,820.8857737346484
1731306219.3504314,812.4743848224238,735.4282879886104,1022.8075104867055,819.804854078215
1731306219.351576,810.9451992849339,734.4673311739228,1119.529193463859,818.6292552250854
1731306219.3534708,813.7025255990671,736.7036566729473,1145.057593005036,817.3586898215744
1731306219.355477,815.4131562319983,740.7353508435649,1110.1755766248457,816.129391946189
1731306219.3593783,815.4555652381124,744.4402287556828,1052.0489407428856,815.1974978839996
1731306219.3632796,817.0365138579222,745.9964990887203,1006.7977411466466,814.727104548494
1731306219.3671806,822.8052847883581,745.0145335211765,991.1817755185215,814.4341345119577
1731306219.3690422,831.4774516752826,742.9969321603262,1000.9022047621972,813.4190013602864
1731306219.3693,838.7546350750446,742.421774544039,1019.5426936169097,810.6743975803364
1731306219.3710818,841.5028363961455,744.811355764295,1028.8148197600444,806.3283990360527
1731306219.3749828,840.8342946472053,749.2174550219381,1015.5260898251606,802.6368751550003
1731306219.378884,840.8201770870362,752.4203162513196,975.4234031903746,803.1583709330879
1731306219.3799627,844.1111205623276,750.844127068913,914.4424067561933,809.7931546261221
1731306219.382785,849.036977873161,742.9358579633446,846.3066906909639,819.849569182549
1731306219.3846135,851.2147927107565,730.4997383900562,786.1554677983927,826.2732573792539
1731306219.3866863,847.9591990239672,718.1369413517659,743.4085408224221,821.8920333156765
1731306219.3881686,840.9623397145114,710.9295090187727,719.3714902765918,804.7394257125736
1731306219.3905876,834.6428036150022,711.4839349737753,712.0272744043144,779.9396842451545
1731306219.3944888,831.958038513732,718.1019797826173,723.2027331110173,756.1935688965714
1731306219.3983898,831.7975228041803,725.5417283454767,759.0370024126072,739.6479100626948
1731306219.4001846,830.3473660800935,728.2494187418857,820.0727843819086,730.4867955415683
1731306219.4022913,825.0725426537037,724.0041650194971,889.5070511480416,725.1445991189261
1731306219.406192,817.7007493161249,715.347771737733,934.5541379870763,721.5730247447157
1731306219.407037,813.5365562591429,707.7393673077871,926.5529438068838,721.912537852933
1731306219.4100933,817.4901389967362,705.8639674664715,866.2861388510253,729.6165228537242
1731306219.4139946,829.8156396564747,710.796100383807,790.8349056418684,743.9880527907015
1731306219.4147496,844.8288615305448,719.7824379252015,750.2890375930687,758.1490017341034
1731306219.415756,853.7824428108364,728.2995215305681,768.9916388913197,763.4467709734209
1731306219.4178956,850.15957556925,732.6643957272817,823.226629886567,757.0472492651505
1731306219.4217968,833.8690105766626,731.6917805405558,857.4073823451768,745.882033827885
1731306219.4256978,811.4192975399744,726.9430389715599,829.1573205336014,742.6331354524028
1731306219.4259057,791.8494330472512,721.8177833200051,746.5972614140186,756.0586987310459
1731306219.429599,781.1836482181707,719.8687581220801,664.4376490371051,783.1240627271393
1731306219.431327,779.2373923347345,722.8896643242803,639.697322867897,809.6407811531965
1731306219.4335003,780.8612710838561,729.7688213718633,684.2036457959538,819.731905815108
1731306219.4374013,780.4575971838353,737.1266336370054,755.5287433763558,807.3416736796365
1731306219.4413023,776.2872235510881,741.697002005824,794.4332697106024,780.959508167257
1731306219.444774,771.4151898184783,742.855225476503,775.1813623946337,757.7448871552638
1731306219.4452038,770.8156840396257,743.1998169513017,724.1307265794512,751.5342033034707
1731306219.4468985,777.0650455186884,746.4913322510641,691.8685858761553,763.9343583417871
1731306219.4491048,787.9497517433241,754.4775111299123,706.3019307989498,784.8941132515549
1731306219.449536,797.6610822270532,765.1589356261838,749.4996817694055,801.3915498885758
1731306219.453006,800.5383774880418,773.9125510305482,777.2133879919272,806.8344012745218
1731306219.456907,794.6471980114034,776.6233900825657,760.6452594480795,804.0651213661946
1731306219.4608085,782.8344103534532,772.5175792299376,711.3862952075323,800.5741853791629
1731306219.4624698,770.7623714836409,764.7813341468102,668.045859067093,800.7468221015282
1731306219.4636424,763.4341240236633,758.7111281482025,659.0675027400084,801.9320791765471
1731306219.4647095,762.6028999343515,758.6976985864532,677.0151020355856,797.510132763759
1731306219.4686103,766.6719277452144,765.8726640773921,687.1515143460483,783.948713653802
1731306219.4725118,772.7772036452109,777.6793416893097,660.5663062266866,765.3169970202644
1731306219.476413,779.1187836431667,789.4434228959427,600.2810657530448,751.037902766355
1731306219.4780412,785.6009627614302,796.8985257980364,537.1344953311595,748.7613867646169
1731306219.480314,792.5417534821553,798.223429688412,501.4209224712873,758.5120114462269
1731306219.4825108,799.1294675931312,794.652966659489,497.90439206058295,772.9493081996239
1731306219.4842153,803.5534465233254,789.6057330864081,506.31372846096826,783.2839914881176
1731306219.4843223,804.8952273879197,786.8577187487733,503.96222221949137,785.9791737938908
1731306219.4881165,804.6922408008626,788.505771489452,487.110304681605,785.1499524865656
1731306219.4920175,806.0072501797227,793.6411582484928,471.25782476075307,789.0339918230543
1731306219.4936123,810.3482915318618,798.6951631318115,472.32748765552617,803.1444621526882
1731306219.4959188,815.4556570678855,799.7226488074625,488.79652657914113,825.004858263995
1731306219.4998198,816.6959781279073,795.4013989315068,502.47129671823046,844.4579591871014
1731306219.5013795,811.3643895706888,788.4515230226102,496.3855786016127,849.8976180067023
1731306219.503721,802.0086164146609,783.9664677179799,471.5984423135139,836.4705621104532
1731306219.507622,795.4506656213006,785.6155344528062,446.3599963731325,810.3335831528105
1731306219.5091836,798.0916764745391,792.706792426653,438.6655535159922,785.4074876944204
1731306219.5115232,811.4054505187436,800.628535644782,449.1191239071646,774.5571937259157
1731306219.5154245,831.0828863513076,804.416978208134,460.30093890297496,781.5439752475247
1731306219.5191092,849.8817145574977,802.5285086342723,452.9619100969491,799.5788884085613
1731306219.5193255,861.3885958281628,797.7008206782759,423.8145824756459,817.0947565970038
1731306219.520248,862.053360245296,794.2776075492768,388.7684770487561,825.8657658282394
1731306219.5232267,851.1994840760082,794.4133354914127,369.379533028724,825.3802260634924
1731306219.524755,830.5031607999534,796.4950653096196,375.6606074672883,821.0012920734926
1731306219.527128,803.9684570927675,797.0260537982703,400.8380904033936,818.4564972540205
1731306219.531029,777.6737787325874,793.9652214674661,431.12970937115495,819.4822250376943
1731306219.5349302,757.9288609476964,788.2199386065495,458.8312956610199,821.6700826558257
1731306219.5388312,748.0504682793836,782.0087872802515,485.226637668636,821.7241946109253
1731306219.5391164,746.12897956305,776.1214667260485,512.7536327671753,818.7436176668886
1731306219.5403264,746.2345007545877,769.1947648130696,538.5304002058206,814.6750881774543
1731306219.5427325,742.7922983114843,759.8042729659325,558.5454561654386,811.9014746351919
1731306219.5466335,734.7300164522526,748.9890136606988,576.7044634043223,810.4460378371577
1731306219.5505347,725.7214068079246,740.2698323321962,604.5020337841141,807.4235649030659
1731306219.5538957,720.1541652252309,736.8562281193894,647.2540143396105,799.2750814182294
1731306219.554436,718.4795156127619,738.689151486389,690.7517082119724,784.9289808408981
1731306219.5558977,716.4649448855454,742.1890729066556,706.1712095485123,767.2881344073367
1731306219.5579848,709.4307399360839,743.004327969625,674.0139070720647,751.773362846686
1731306219.5583372,697.7560187676995,739.3363294001529,606.3516739335746,742.8983061957603
1731306219.5622382,688.2926744029672,733.0386603055914,543.809150061546,741.3262003707498
1731306219.5661397,689.687988682832,727.7554675082358,525.0864182229863,743.5255771136603
1731306219.5700405,705.1828497389907,725.8947158858441,553.6750601714788,744.2646635835114
1731306219.5714688,729.0643361860336,727.0520529191157,592.6339665214006,740.1776363702069
1731306219.5739417,750.0093167332504,729.0280868354948,595.4816592506244,731.9988124081939
1731306219.5768533,758.7063480471008,730.2272351738762,548.3882388130277,724.147311733151
1731306219.577843,753.705672125308,731.1366667818953,486.069428628993,722.1623232177305
1731306219.581744,741.2458122749232,733.6631092183397,464.7946261995575,729.681063723621
1731306219.5856452,729.8465027341521,739.1617589277148,514.0570881796978,746.5875651581205
1731306219.5870402,724.3037858856112,747.010598236407,609.6005103256548,769.0141261960763
1731306219.5886822,723.5271504775283,754.828155928475,693.3131635003223,790.8869259404302
1731306219.5895462,723.1327608470933,759.9862697737918,723.2488270171636,806.2037345966651
1731306219.5934474,719.9940604770879,761.3131635127631,708.4211407840452,811.1550465493901
1731306219.5957215,714.9006930420682,760.019476909624,696.3468160392878,805.3374854528984
1731306219.5973487,711.558064455553,759.3010869933751,725.4230541950619,791.7037297577036
1731306219.6012497,713.3698840659808,762.5769273627459,787.320799156044,775.5029148334893
1731306219.6026113,721.0380017481386,771.1526835839738,834.664783896555,762.7782701239704
1731306219.6051507,732.7545819919449,782.9067392318734,825.9925561653502,758.6716148952712
1731306219.6090522,746.0410210576506,793.2927792484504,765.0954141901988,765.474979277064
1731306219.6129532,758.9072084525053,798.2079275034198,698.0859852325932,780.9148513845158
1731306219.6145904,769.3438540634905,796.5418670644523,671.6717100198828,798.0893672842627
1731306219.6168544,774.5621169997921,790.4247398401068,691.7585010273251,808.2685084829104
1731306219.618183,771.9312317488525,783.3106280958298,720.3535463500511,805.8322563156771
1731306219.6207554,761.4836301357328,777.8546024899231,713.1957049785328,792.3975138738183
1731306219.6234689,747.5752657380716,775.2148247058733,663.4450412207817,776.8591783220157
1731306219.624657,737.5696545908719,775.6069160273144,611.3347344755441,770.4947369589732
1731306219.628558,738.0852012218884,778.8351107836927,610.6210980231004,779.959408089583
1731306219.6324587,751.5279084930809,784.1192312419689,681.8503113980724,802.9686339489908
1731306219.6334589,775.1571627714144,789.7448949169057,793.9080971710533,829.7700997989284
1731306219.633754,802.7310508777404,793.3793026509886,888.9001532819613,849.2914997046382
1731306219.6363602,827.349276699765,793.135255101992,926.8241115928031,855.5711387574906
1731306219.6402614,844.2819501543687,788.6318258128089,911.6077302688935,850.2684386825115
1731306219.6441624,852.9839990322081,781.230456837209,880.0053384371555,840.1811240338087
1731306219.6480637,857.2572165758562,773.243806143056,867.9093631165208,832.1583199743341
1731306219.6493251,862.7382323078411,766.6088821103881,884.4417057079378,829.1969761137686
1731306219.651965,872.6379637177992,761.8299692640265,912.1224989975867,830.0633071026108
1731306219.6523273,884.6802408506435,757.8442128880869,926.7542150535303,831.7588764823245
1731306219.655866,892.057338918434,752.9393395943086,916.6037753004972,832.182291125759
1731306219.658255,888.4019014906991,746.1650276087923,886.3346226235919,831.0294708481946
1731306219.6597672,873.428686734626,738.2438950286124,847.304706167678,829.0781586211749
1731306219.6636682,854.7937604675396,731.2549068184506,806.5563161682662,827.1392353533811
1731306219.6648965,843.9811363506396,727.2863555724211,764.7933691042225,825.548848056989
1731306219.6675694,848.4314441147028,727.0992132919334,723.2730532760976,824.2349055551522
1731306219.6711955,865.6169919709074,729.8049902543145,690.7359702204601,822.9968919317394
1731306219.6714704,884.1647842027108,733.6618332222704,681.8750787177474,821.7051296398871
1731306219.6753716,891.9635645826247,737.2064478408254,707.8506694237034,820.3417582491351
1731306219.679273,885.2783626969976,739.8716944111047,767.6947844394823,818.9483481893594
1731306219.6804678,871.6420906796598,741.8822989138417,847.9240881075785,817.5662055924074
1731306219.683174,864.2417487472015,743.7923700198809,928.6591477322589,816.2108638993373
1731306219.6870751,872.2812231242332,746.031825390254,989.8045843537714,814.8772176838609
1731306219.6900642,894.4466488709654,748.5276344644417,1015.4754201879696,813.5546227364088
1731306219.6909764,919.5350833368794,750.3872479915187,999.7099861531387,812.2368460000195
1731306219.6930418,933.0022888965033,749.8600945611022,952.1848561737687,810.9235847052068
1731306219.6948774,924.8653664835431,744.9250158301971,895.8505212402436,809.6174113515642
1731306219.696039,894.4674183241348,734.5302092076619,853.5844938287482,808.3206599168125
1731306219.6987786,849.9648163626857,719.8631497689012,834.6087094018551,807.0342322564726
1731306219.7026796,803.3898949302113,704.6143611307621,833.0778772707876,805.7579789143286
1731306219.7065809,764.4442887799678,693.5772239909649,837.4408067836866,804.4915250181139
1731306219.7089326,736.6927172162591,690.0830946441689,839.6624060159832,803.234775493374
1731306219.710482,718.1011612541413,693.8987031685923,837.8337207224067,801.9879595258923
1731306219.7116103,704.8415458365153,701.2344723982808,833.7400645241802,800.7514260423004
1731306219.7143831,695.0798190279017,707.1120108927875,829.5965338225003,799.5254332767195
1731306219.7182844,689.8228998656866,708.4992795099721,826.4052651142925,798.3100710211777
1731306219.7221856,690.6153675864476,705.9230317206287,824.0166465487143,797.1053574181163
1731306219.7260866,696.6969569906438,702.4311074110902,821.8783284151946,795.9114705317562
1731306219.7271817,704.649779802703,700.8745489361319,819.6097945654143,794.7289578095246
1731306219.727801,711.1190807829269,701.7245809273488,817.1422734990315,793.558646352734
1731306219.7278285,716.0893784842461,703.0383232176548,814.5841827060996,792.4010326532472
1731306219.729988,723.3974720000509,702.3793794534268,812.0526042618949,791.2553601838665
1731306219.7338889,737.5772182687778,699.0327947989587,809.5954361298061,790.1193015857373
1731306219.73779,759.5959832157806,694.7938968583803,807.2011528279008,788.9904961376242
1731306219.7416914,785.2090668726486,692.8106506012019,804.8401214018393,787.8701620290947
1731306219.7427528,807.2883554254569,695.3908941743289,802.4936642190496,786.7662848875239
1731306219.7455924,819.9277378017064,702.3237713721579,800.1596953762087,785.6911882164195
1731306219.7466698,820.9932948667803,710.8041265483268,797.8447659526532,784.6495671290753
1731306219.7494936,811.9515072025059,716.9774755249197,795.5552377859617,783.6217304501287
1731306219.7533946,796.506331482323,718.1901008280918,793.2935975483134,782.5600559381684
1731306219.7572958,779.7989425178051,714.6743481983891,791.0592833223543,781.4213415496334
1731306219.758324,767.9574734267529,709.6631255596418,788.8509342910506,780.2356505791064
1731306219.761197,766.5325306877713,707.6902594782399,786.667846453794,779.1600116122293
1731306219.762615,777.5788152263871,711.873797135757,784.5101775222973,778.4189132005076
1731306219.765098,797.3982307457711,721.7939333494652,782.3784861954866,778.0682137773251
1731306219.7655382,817.4707288240787,733.4766554394658,780.2732732571191,777.6923120831605
1731306219.768999,828.950598834071,741.7272377010487,778.1948102499099,776.3890008189969
1731306219.7729006,828.1044561695404,743.3650267171395,776.1431988720096,773.4540535585476
1731306219.7738955,818.8649902899518,739.1619933674599,774.1184925045635,769.7244590542716
1731306219.7768016,810.4409731288459,733.238344649943,772.1207685927171,768.5809661188445
1731306219.7807028,811.4483070135191,730.5543440819059,770.1501347667241,774.9454715257432
1731306219.784407,824.5987198216859,734.2971289663222,768.2067027565284,791.6314481966855
1731306219.7846038,845.491249259609,744.5455716639777,766.2905648679222,815.3594405814852
1731306219.7885053,865.8881499815491,758.4022012282818,764.4017863710485,836.8100444113472
1731306219.7894669,878.7361678960045,771.1281185176592,762.5404096040543,846.4965640467693
1731306219.7924063,881.621536781837,777.9180589428836,760.7064606744127,842.0909390286379
1731306219.796307,877.2231666732167,775.9533035614174,758.8999532221928,829.9144273843574
1731306219.7974014,871.4140186124981,765.8651627881441,757.1208887076896,818.2992777509032
1731306219.8002086,870.3052131758325,751.4980990213095,755.3692551697227,809.2104649773463
1731306219.803275,877.2476781128557,737.7093430430858,753.6450262521031,797.3698036308668
1731306219.8041098,890.8738202484208,727.4587684853828,751.9481611083429,778.8732662713896
1731306219.805038,905.5094549546163,720.2380173158368,750.278604902897,760.6181836416886
1731306219.8080108,914.3727418407118,713.0631955617428,748.6362894198697,759.3090956582387
1731306219.811912,913.80860703291,703.3265199624585,747.021133506547,788.3722330603576
1731306219.8158133,905.4840596064164,691.2907996392155,745.4330433422061,843.8140060727391
1731306219.8197143,894.8900172448923,680.2198574875882,743.871912640833,902.7027904174272
1731306219.820609,887.5934580308534,674.0251359453376,742.3376228779607,937.215522287147
1731306219.8221436,886.3069327539281,674.3441320997492,740.8300435667045,933.3650948394295
1731306219.8236156,890.4666669005102,679.3785431574871,739.3490325655353,899.6300839811901
1731306219.8275166,897.4869235511246,685.2733818624741,737.894436396706,859.561379352098
1731306219.8314178,903.989480557989,688.7608272680769,736.4660905698788,835.2542705453234
1731306219.832188,906.5305101706485,689.0158344266345,735.0638199140794,834.4562007359447
1731306219.8353188,902.6096531455348,687.6280050739756,733.6874389102469,849.4859143184551
1731306219.8361807,892.303858784395,687.17193715755,732.3367519964769,866.3281337847326
1731306219.83922,879.3571287714414,689.6346450793211,731.0115538177047,875.4905132208404
1731306219.8410122,870.054778484005,695.5565222163317,729.7116294389682,876.7911254399847
1731306219.8431213,869.7165964573593,703.943512631313,728.4367546266723,876.2007783614413
1731306219.8470223,878.9055191792892,712.6701261023856,727.1866963477783,878.8456281476674
1731306219.8509235,892.2462684452953,719.2236246258434,725.9612135223358,884.161039965379
1731306219.8517518,901.1236732283169,721.6843592626087,724.7600577450895,886.543223832072
1731306219.8548248,898.7169055077718,719.5936881739099,723.582973360671,880.3195595263398
1731306219.8587258,884.0823946075868,714.2069408172564,722.4296964009167,864.8219941399612
1731306219.8598807,862.6279613663822,707.8948605320267,721.2999528957777,845.6310767948686
1731306219.862627,842.7686191180635,702.9664953888556,720.1934586587947,831.0906673197052
1731306219.866528,831.078569390244,700.5295307655989,719.1099232914949,826.7034953776198
1731306219.8669746,829.1735994529103,699.9903723638276,718.049058657899,831.5681069703317
1731306219.8673232,834.2060515647064,699.4899857456039,717.0105859142486,839.5065671977983
1731306219.8704293,842.0895943238977,697.0960262758128,715.9942294314445,843.9667626050303
1731306219.8743303,850.5141829350432,692.1076598925698,714.9996895289866,842.7991896134238
1731306219.8782315,859.3125887618838,685.6815063946535,714.0266060184014,839.0860037930755
1731306219.8787491,868.4503150336456,680.3622319582813,713.0745538273015,837.5333735792607
1731306219.8821328,876.207228940174,678.7843998227995,712.1431200842221,839.8171468373874
1731306219.8828945,879.6686023472896,682.2898588256351,711.2320591262768,843.1742443910988
1731306219.886034,877.027090948596,690.1875965402089,710.3414039186158,843.4834272857873
1731306219.889935,869.317166754624,700.020283467185,709.4713145456819,839.867127859707
1731306219.8938365,859.9513230315974,708.7478207270765,708.621535684489,836.4315506764049
1731306219.8976176,852.6626826034939,714.3098799518922,707.7907334697694,839.3875313537843
1731306219.8977373,849.6672696460571,716.725232282489,706.9765161904812,851.8968080130012
1731306219.8984656,851.1342813935013,718.0329689949012,706.1770162867452,870.9032997261585
1731306219.9016385,855.6983664214584,721.0697787660756,705.3938054508625,888.5573804670676
1731306219.9017613,861.266064259202,727.842040826726,704.6336739946373,897.274024395795
1731306219.9055398,865.7566864470386,738.4521321765892,703.9051816480128,894.7924091035993
1731306219.9094408,867.7077047028239,751.0682260093263,703.2080583923884,885.6346840008868
1731306219.913342,866.5267385117338,762.791732549158,702.5213789697955,877.9431861042297
1731306219.914037,862.2257369208205,770.9520303010834,701.8060752740558,877.9328653376247
1731306219.916486,855.0695534140123,774.311223920824,701.0371542731665,885.7779295449218
1731306219.917243,845.8666578682596,773.6449586110404,700.2581917249927,895.5863025736244
1731306219.9211442,836.7381221957276,771.2684424253647,699.6084328591875,899.2397313129774
1731306219.9250455,830.9459485675362,769.618861165722,699.2467614448552,891.4417280438628
1731306219.9289465,830.7266069651774,769.821197479788,699.1462400515732,872.8321764263399
1731306219.9296083,834.4234017545053,771.4086830199675,698.8861575945781,849.5124750486865
1731306219.9328475,836.031502613257,773.4528782553926,697.7404293958652,829.6192344611312
1731306219.9353545,828.8253439715737,775.9580092835392,695.3265115126484,819.2088188313443
1731306219.9365478,810.7363417055494,779.9873103365495,692.6136528356986,819.7816691659091
1731306219.936749,786.6719058540799,786.248647254689,692.2971761009338,828.4903616774694
1731306219.94065,765.2330521160119,793.5902229672121,697.1405051694087,840.4182078430922
1731306219.9445512,752.6125603649361,799.1695904258593,705.9586338754651,851.261243750102
1731306219.9451797,749.1472486364411,800.4842710510102,709.8281273056148,858.8057002043957
1731306219.9484522,750.8739871091924,797.5532008528368,693.9490992625101,862.6950749007657
1731306219.9523537,753.447220826988,793.2612819194967,648.7669514764616,863.3585862249612
1731306219.9542232,754.6648008418045,791.4813868537287,584.4517788839568,861.4442163106364
1731306219.9562547,754.4892618508474,794.4800784033383,533.1263288253798,858.1472506637951
1731306219.9601555,753.7937594554248,801.5855266749102,529.2969947099026,855.4382846390506
1731306219.9607508,753.2831057326019,809.9019037933414,581.6587550233005,855.0502929665281
1731306219.964057,753.1446338841198,816.2116422672094,663.3564731034792,856.6034232999684
1731306219.9679582,753.2245394933457,818.5397739481173,732.1428096788902,856.8153109747926
1731306219.9713342,753.3178292731171,816.5370533494579,762.0526013824149,851.3252498818497
1731306219.9718592,753.3252586135554,811.0050827402154,757.8010680256202,838.2007890993724
1731306219.9730916,753.2548194421987,803.3994463862779,742.3122245777405,820.0727747440504
1731306219.9757605,753.1554114932543,795.6975304074865,733.6770770709213,802.5403723985845
1731306219.9763222,753.0627858572045,790.2725892892822,733.6754808749527,789.7927571372619
1731306219.9796617,752.9845325178925,789.2319143914555,733.9393698350406,781.2371476071926
1731306219.9835627,752.911228160518,793.282078535214,728.0673470112552,772.3181968499264
1731306219.987464,752.8318622001652,800.9819845234028,715.9939398784163,758.9524899583091
1731306219.991365,752.7414625349177,809.3200716698495,699.0609031057102,741.6217808215017
1731306219.9918935,752.6406030581513,815.5639280685108,675.4465995051376,725.4617945893189
1731306219.99196,752.5317291480548,819.060064770367,644.0823253472842,716.340022392031
1731306219.9952662,752.4164124973605,821.4373541272681,613.2846823800834,716.406953576067
1731306219.9991672,752.2947237157598,824.9527824679872,601.734080163799,722.782072160982
1731306220.0030684,752.1659106223235,830.4009338388937,625.4641137463957,730.047140699827
1731306220.0061207,752.0292134561397,836.4224561843431,680.926044921529,734.0244607741398
1731306220.0069697,751.8842209867545,840.7300791034029,742.6954428451302,733.7300475413351
1731306220.0074646,751.7307920494253,841.9999431968134,782.2022172685984,730.5572199913988
1731306220.0108285,751.5688318959112,840.6620117357205,791.2953619179211,726.2520686732021
1731306220.0108707,751.3981664605203,837.9935418765714,786.6907774443644,721.7049947999358
1731306220.014772,751.2185932577979,834.5674088870018,789.6877145138426,717.0755562507254
1731306220.0186732,751.0300335437984,829.6534431824846,801.8715846517626,712.3698057569017
1731306220.0225742,750.8326098624527,822.1755806523591,802.9366662070292,707.6893226759347
1731306220.023036,750.626467061257,812.3016964112595,774.0933386777642,703.2290338469552
1731306220.0264754,750.4113190391253,802.1037541845958,723.178407270109,699.3187100346075
1731306220.0296967,750.1860538093608,794.5124431392977,684.3172861444839,696.3282407404839
1731306220.0303764,749.9490518489121,791.2956790957508,689.3350033619892,694.1569823840993
1731306220.0342777,749.6996879298683,791.7267346051397,735.899542107101,691.7173060810187
1731306220.0381787,749.4403910975508,793.1284219206341,782.3043575037458,687.3759912019542
1731306220.0386074,749.1770046753744,792.8894214648019,776.8815763205533,680.6694408210434
1731306220.0409074,748.9146700140366,790.2147204183575,700.4409440167898,674.0396267214691
1731306220.04208,748.6492834980902,786.1167701795458,587.1859543500473,672.4954665964691
1731306220.0459812,748.3610761745364,781.8682190890414,504.4296492691566,680.3937828313763
1731306220.0485656,748.0224675964355,777.6410951632848,504.2848111354901,697.3309521510301
1731306220.0498822,747.6277191363289,772.7410162402679,585.4913567450843,716.8180149294068
1731306220.0537834,747.2302212281496,766.9940767739628,697.1582645269956,729.7579008704824
1731306220.0541785,746.943411202617,761.4958106506598,780.3930662109358,730.6091626343899
1731306220.057685,746.8559712718262,757.6654554448228,810.2910818600093,721.2674888916943
1731306220.0615857,746.8715770852939,755.5997252260973,802.6397932086181,709.2447000373936
1731306220.065487,746.6082344006345,753.7084964493708,785.434801549472,701.657347201593
1731306220.067434,745.5892505351951,750.2701858819903,768.1767541037585,700.2736914133754
1731306220.0693882,743.8556014529659,745.3090379863208,739.2722322869129,701.7614269795664
1731306220.0697498,742.7315957874091,740.6727209167415,689.4996174275657,702.3761817338751
1731306220.0732892,745.0282629235874,738.1000498502087,632.6961088405293,702.3425765178074
1731306220.0756938,754.0396516042065,737.3115566997569,599.6881650026801,705.7819770389705
1731306220.0771904,771.4746304526981,736.1734640638523,610.434864732116,716.4137519015576
1731306220.0810914,795.3960369114492,732.7456139890197,652.3454334180213,733.1366472861671
1731306220.0849926,819.6625474426965,727.0612681038485,687.7310545597015,749.5174559442814
1731306220.0853212,835.9418155695098,720.9292135166197,685.8169912943337,757.69205702299
1731306220.0863025,837.8630581321798,716.2043552999232,650.9089264338759,753.74630350176
1731306220.088894,824.9509895138336,713.3542033072698,620.5857647619198,740.9371978769299
1731306220.092795,803.4125702886281,711.472206051663,634.4505640650576,728.7077749645083
1731306220.096696,782.7359930728479,709.2861624118359,700.6422780938991,727.6416704123706
1731306220.1005974,770.2214056924,706.018815457832,789.1810944375661,742.7074442770653
1731306220.1008923,767.3394446488663,701.6073014175373,856.5758789581954,769.0002398460979
1731306220.1044984,770.4814516129769,696.6856236263071,878.6147829447547,793.8077482765535
1731306220.105171,775.1360462567463,692.764764959422,863.6616815484864,804.724819116898
1731306220.1083996,779.7566025163549,692.2803015252674,839.1992875269342,798.2169926615386
1731306220.1104803,786.064045515333,697.6993742933319,827.818948883581,781.8025871058535
1731306220.1123006,795.9672343598752,709.5604218542705,833.7558104414079,768.0563415326643
1731306220.116202,808.5590490718077,724.7448747229633,847.0081512755501,765.6358744016303
1731306220.1164637,820.4847885918073,736.9220398724951,856.0095129663821,774.7276795863686
1731306220.1201031,829.3302458342298,739.8180829151781,856.2210531276006,789.6316962351557
1731306220.124004,836.2536821176147,731.4405554090208,850.0508354725005,804.60938383402
1731306220.1240394,844.6735596192586,715.9555969400667,842.0965986614614,817.2391940862556
1731306220.1279054,855.9791982168642,701.3227859444037,835.3079587495938,827.4611542531161
1731306220.1318064,866.5569722261672,694.1673352719263,830.1751507621565,835.122620583158
1731306220.132035,869.4033083164812,695.7031049093453,825.8547870204311,839.2316198636026
1731306220.1357076,859.3454543481531,701.6340572075856,821.4667921031752,838.9944083616616
1731306220.1396089,837.6533283588577,705.7483750689672,816.6682028673547,834.5290766359266
1731306220.142908,812.4046686545624,704.2868242333846,811.5620577236757,826.2330598258393
1731306220.14351,794.3485625187908,698.0657485194596,806.3788627945228,814.0368901761698
1731306220.145267,791.0932374854393,691.304848736865,801.2598054491656,798.0252889941909
1731306220.147411,803.151871499019,688.3780045422278,796.2193098746149,779.952155147506
1731306220.147606,823.900400067157,690.858623959463,791.2081256925845,763.6670046812421
1731306220.1513124,843.2199650766984,696.8045774160443,786.1802247903357,753.3794423210488
1731306220.1552134,852.7323145186441,702.5801403882261,781.1195380122497,750.9878390398059
1731306220.1591146,849.7961491762868,705.6896692224914,776.0327192314923,754.7853973857433
1731306220.1617763,838.1565267285754,706.4053888832574,770.9318233425543,760.6238745171344
1731306220.1630156,825.0783552800103,707.0153199791879,765.823477198101,764.4882522539788
1731306220.1631775,816.873295644906,709.5092895238876,760.7076294630791,764.5149144141809
1731306220.1669168,815.5960924327117,713.7868325969457,755.581228541822,761.3085252234519
1731306220.170818,818.7668884085406,717.9053005523577,750.4417256387318,756.8249681799043
1731306220.174719,821.9299840522963,720.0126908339289,745.2882540835561,752.8389580867066
1731306220.1786203,822.04055570643,720.1360019548916,740.1209493307219,749.9025237819287
1731306220.1787488,819.2232023911711,720.2100470835704,734.9398020177541,747.259091225969
1731306220.1800537,815.6843195221679,722.3341400559282,729.7441410562045,743.7860758189938
1731306220.180645,812.7567259900727,726.7755956230802,724.5331396453685,739.5878120253104
1731306220.1825216,808.6948507463718,731.4633791473766,719.3069829950035,737.2342992742493
1731306220.1864226,799.498725169809,733.5026745344464,714.0676003361327,741.3317672003961
1731306220.1903238,782.6019842474044,731.5154578684555,708.8175178383877,755.9190803740953
1731306220.1942248,760.4528418979157,726.7754223352019,703.5562865185404,780.9880565452604
1731306220.1943202,740.4327975687522,722.0434918393587,698.2766003229368,810.7199954712831
1731306220.198126,730.3210996519119,719.0632582901034,692.9653285476438,835.3601901728304
1731306220.1995134,732.6464092247255,716.9221299194118,687.6144144505594,846.2820400306148
1731306220.202027,742.8629827617478,712.6772097145176,682.2388345940161,841.4303993192269
1731306220.2059283,753.2247278332393,703.6477215882314,676.8848660377997,827.5560185216175
1731306220.2098296,758.9412481726963,689.545052285526,671.6037985645141,817.0571635539715
1731306220.209891,760.9168383398447,673.0416158450423,666.383483272043,820.4351599929639
1731306220.2137306,762.7387872548985,658.6887000481593,661.0813022471814,838.7787227203644
1731306220.21484,765.3635822364043,651.0570894616939,655.4578921071378,861.7699428263379
1731306220.2176318,765.190147656007,653.1145217762163,649.3962697728438,873.6827959286921
1731306220.218382,757.6864794930628,665.4428059261792,643.2338275814782,864.0543213181303
1731306220.2215333,743.2292750104666,686.361121298969,637.8745157047865,835.5653650405519
1731306220.225434,729.6965437935035,712.6186682083118,634.22719881597,803.1266685228193
1731306220.225463,729.0969980629151,740.197054039872,631.894804797334,784.6147434596062
1731306220.2293353,750.1859549638534,764.9964963809546,628.0321840458162,789.9122408354507
1731306220.2332366,791.913707092486,783.5790525557138,618.2758527435576,815.7740256836305
1731306220.2371376,842.1332643296078,794.195360037367,601.2010906012224,849.2789325780101
1731306220.2372503,882.8846655810623,797.7430963430604,584.6865919546249,876.4986851100601
1731306220.241034,899.5433243240373,797.6725056465301,588.0195012593123,890.0274219758501
1731306220.2410388,888.4591419022388,798.1993482865813,632.736497503487,890.6495744093568
1731306220.2449398,858.3577528545638,801.6428784815961,723.9591355822093,883.168545917898
1731306220.248841,824.7949126190285,806.9322494379593,837.8673472779467,871.0454076658398
1731306220.2496266,801.7000811353967,810.7689615469574,931.8799696575479,855.2895694039664
1731306220.2527423,795.6642451239316,810.6971304332438,973.376008047436,838.4014790517416
1731306220.2561188,805.6182968582251,807.4220837652515,961.5872925809841,827.7088384647856
1731306220.2566051,825.8552322686571,804.1709200680746,922.6346750420547,831.4673210681513
1731306220.2566433,848.6666697558527,803.5845879235192,884.5559560388753,848.7795203309577
1731306220.2605443,865.385179834981,805.0765682883301,857.2657734659184,863.754958088965
1731306220.2644458,867.7003683014677,805.2476800000968,834.070716780636,853.7977016037814
1731306220.2683468,850.8648234499626,800.9828475984635,808.3958893981749,808.8683967671576
1731306220.2721765,817.3725400495777,792.265153926371,785.8315799983095,745.167109699891
1731306220.272248,777.7292307789356,782.189377642544,779.1118453493767,698.2344887161021
1731306220.2749877,746.3836914275442,774.4960492344768,792.6767790775777,697.9824155069934
1731306220.276149,734.4192620941388,771.075358023279,814.4126093528523,745.4868149245259
1731306220.2800505,743.3031747689708,771.3789922402823,824.2762438909081,811.3231659051464
1731306220.2839515,763.9589844459088,773.616257409772,811.3744200044467,857.2293115359056
1731306220.284413,782.4499767064318,776.2837589427312,782.2579821621379,863.4414639271934
1731306220.287748,789.0820650930092,778.8584087417815,753.274818089817,840.3976978935385
1731306220.2878523,784.735284479601,781.5227294152176,736.564427118462,817.6005798270251
1731306220.2917538,779.5981532165127,784.5030044500115,733.2981463179947,820.6358017499682
1731306220.293856,785.0377126676264,787.6546414805491,737.2352914822281,854.399344955515
1731306220.2956548,804.875328117084,790.556597998471,741.7700555950325,902.9251494852867
1731306220.299556,832.8807939808227,792.9203786049785,743.864085329491,942.6075412626345
1731306220.303319,858.0550370247369,794.8945339404005,743.7796814667366,957.3944230337596
1731306220.3034573,872.8560159750714,797.0183410195676,742.991167949911,946.1419397045906
1731306220.3073585,877.6260589530841,799.9510813103889,742.5585743383579,919.8384366483203
1731306220.3112595,878.4062982860945,804.2364360204289,742.6968126374221,892.9448957631187
1731306220.3127244,881.0515965723448,810.1082874730887,743.1215940511751,875.0071914443273
1731306220.3151608,886.9545838979561,817.1267735814731,743.51101806528,866.9338838222321
1731306220.3188903,893.2877350277906,823.7241624955357,743.727798601224,863.224346617735
1731306220.3190618,896.4321090585457,827.2891739374262,743.7995358632156,858.0441439419616
1731306220.3191996,895.1072627158266,825.3502467132002,743.8072470177248,850.4022049000484
1731306220.322963,890.8632363440447,817.3754934420897,743.8040912444872,844.1754391039088
1731306220.326864,886.2231676873403,805.6717366901355,743.7978490029108,843.3648821313466
1731306220.3307652,882.5046512162968,794.2643835658008,743.7717496784948,847.7889045950418
1731306220.3315928,879.26029274056,786.4567813886201,743.7087679073923,853.5760356190764
1731306220.3344617,875.783503968441,783.1337482781375,743.6022296387042,857.0246124863007
1731306220.3346665,873.2354777688822,783.1392979441582,743.4539069000056,857.2080522602308
1731306220.3385675,874.9960246361298,784.9419096938469,743.2679255303518,855.4497907660079
1731306220.3424687,883.9897123355343,787.6880571508335,743.0466800599829,853.4360183819043
1731306220.34637,898.6665917504051,790.8136488473119,742.7901640200939,852.0276009900729
1731306220.3500328,911.5467505810113,793.19701916161,742.4971869288329,851.2162648968302
1731306220.350271,912.9942510646362,793.2029736895639,742.1666420039626,850.6329483784239
1731306220.3504612,898.3528406750972,789.6375700540908,741.7980037722989,849.9865666344411
1731306220.3539865,872.7083510898539,782.4431096039592,741.3911839494376,849.2021948544615
1731306220.3541722,848.5528940027583,772.3864709042863,740.9462017416084,848.3448447858191
1731306220.3580732,837.3857151136269,760.3415427110342,740.4629805900763,847.4990790392524
1731306220.3619745,841.7749036447932,747.2204201450849,739.9413264669247,846.7049838958702
1731306220.3656042,854.3173515608923,734.5961650494291,739.380997970468,845.9584117096523
1731306220.3658755,864.0426044897958,724.9244129177688,738.7817722836852,845.2387095191591
1731306220.3693297,864.5165495116325,720.5185877571736,738.1434683448557,844.530940583331
1731306220.3697767,857.0518859789429,721.8615131295359,737.4659373525581,843.8318551352178
1731306220.373678,847.4735894820656,726.8091560783785,736.7490453662388,843.1451446489348
1731306220.377579,840.6011158565761,731.6310976677839,735.992663584066,842.475053867502
1731306220.3811755,837.6378852575715,733.2330756368393,735.1966681981561,841.8232786364848
1731306220.3814802,837.7704946916284,730.8812232977176,734.3609446592133,841.1892183489371
1731306220.3853817,840.9515856918437,726.1906658539377,733.485391373598,840.571519550686
1731306220.3881984,848.2785356695822,721.5584487555486,732.569921047573,839.9692140936008
1731306220.3887727,859.5775671171078,718.3761375174217,731.6144603807099,839.3819633481675
1731306220.3892825,871.1636863318635,716.3833372658642,730.6189494407524,838.8097403351526
1731306220.3931837,876.852609400277,714.5005250042507,729.5833414905468,838.2524415578029
1731306220.3967466,872.0582071724766,712.2499117493581,728.5076033145748,837.7097189222663
1731306220.397085,857.4483739948435,710.407962101119,727.3917157519688,837.1810895637411
1731306220.400986,838.6321283802823,710.2393960390416,726.2356741794586,836.6662252454569
1731306220.4048872,821.928472558552,711.9930915772813,725.0394888635462,836.1651973068894
1731306220.4070668,809.9619852760594,714.1195491618307,723.8031852270465,835.6783609907267
1731306220.4087882,800.96629166138,714.1184633380764,722.5268041008256,835.2056665923226
1731306220.412318,792.1448173986548,710.4889981621885,721.2104019981832,834.7456748210514
1731306220.4126894,783.6897546006916,704.2310538854307,719.8540514113755,834.2953028834969
1731306220.4165907,779.5598106558813,698.6137826694045,718.4578411136001,833.851614308043
1731306220.4204917,784.1557085603138,697.2007825886067,717.021876453027,833.4157468996339
1731306220.4235592,797.7559529724408,701.3900078754009,715.546279635029,832.996104328266
1731306220.4243927,814.706267569318,709.1470972090024,714.0311899950493,832.6052010032851
1731306220.4259353,826.0442935505408,715.9394613758493,712.4767642654638,832.2463332160403
1731306220.427889,824.6526961587579,717.4525992624061,710.8831768378897,831.8959591116762
1731306220.4282942,809.232562140681,712.31565485568,709.2506200204955,831.5017094780798
1731306220.4321952,784.6079453599643,702.8250458646511,707.5793042892274,831.0196569173613
1731306220.4360964,758.7543753544713,693.0335731889309,705.8694585320789,830.4887487950315
1731306220.4399974,739.0440738884121,685.7063593740327,704.1213302857452,830.0835193036266
1731306220.4434607,730.0200439611806,680.6493181129057,702.3351859637825,830.039697711951
1731306220.443899,733.0704104929778,675.6698718392295,700.5113110751233,830.3924238833623
1731306220.4448037,746.7384011351526,669.0121351500364,698.6500104323699,830.6595816925667
1731306220.4478,766.7376179815465,660.8926138298963,696.7516083511141,829.8594406642894
1731306220.4517007,786.4069894650648,652.9053304990932,694.81644884356,827.285528744565
1731306220.4556022,798.9244598891665,646.2723577444958,692.8448958090491,823.9324814485443
1731306220.458346,800.890696492101,640.8934082476347,690.8373332180578,823.4118968372063
1731306220.4590318,794.7048044937422,636.0452697465182,688.7941652764704,830.4986819913746
1731306220.4595032,787.3087714312884,631.7462492273374,686.7158165527168,846.7342926147727
1731306220.4634044,785.7222824516979,629.1867629314606,684.6027320651909,866.2098475085168
1731306220.4636722,792.633592261859,629.7232231190591,682.4553773649583,876.94429344864
1731306220.4673057,805.3583911875284,633.4314197315298,680.2742386846212,869.0730662950931
1731306220.471207,818.663774174925,638.5916842605201,678.0598232039306,843.2966131139771
1731306220.4746032,828.8380107670866,642.5549825655822,675.8126593612603,811.4968717523071
1731306220.475108,835.6787678412836,643.2898428397897,673.5332969597823,788.72354217834
1731306220.4790092,841.2500092279506,640.5290799100734,671.2223067621056,783.4775950521926
1731306220.4825406,847.2077679949451,635.8773486315197,668.8802795834367,793.7015712539885
1731306220.4829102,853.4602401238733,631.9431429577824,666.5078256138081,810.1768637427838
1731306220.4868114,859.1252905142211,631.0409949944504,664.1055753133854,823.3021237868768
1731306220.4901743,864.1673905709793,634.1190953074456,661.6741826975574,827.9269965296078
1731306220.4907124,869.4949629015103,640.3768763034748,659.2143294136742,823.8396059013587
1731306220.4931324,875.2943315999682,647.7210495546316,656.7267247154923,813.3568886383412
1731306220.4946136,879.7078825445067,653.8953515753709,654.212095887045,799.0496890867013
1731306220.498515,879.9149531944893,657.7985437671364,651.671170297285,783.2421556596884
1731306220.5014093,875.1207682190168,660.2286828507888,649.1046639727336,768.5392558647169
1731306220.502416,868.5957033293234,663.3917491676633,646.5133018202945,757.7636161512228
1731306220.5057456,866.326366480818,669.2643902874655,643.897881932238,752.8132078007003
1731306220.5063171,872.7823845922477,677.8967036010096,641.2593487848578,753.4063307961499
1731306220.5102184,887.0203409985164,687.0176120772547,638.5987805039838,756.871600207638
1731306220.5141194,902.3637092615538,693.3815664731081,635.9171944681736,759.2602235725554
1731306220.5180206,910.2146396400308,694.8795182773823,633.2152125810112,757.2778413068372
1731306220.5202775,905.4355077679865,691.809654451008,630.4928863359859,750.2942950914165
1731306220.521317,889.6208532611535,686.4325466856324,627.7501475976071,741.5342959368928
1731306220.5219216,870.1003522801841,681.3427758523353,624.9880594512028,737.3623003596747
1731306220.5258229,855.3637337356627,678.0378826201829,622.2101096675656,744.095739905909
1731306220.5279188,849.9068378451876,676.6931904316626,619.4217225538451,763.5101319655645
1731306220.529724,851.9788246230962,677.0004551329113,616.6263349412673,790.0939512114636
1731306220.5336251,855.9360880078216,679.0742144805013,613.8191822905002,813.0289739854965
1731306220.5368884,857.585005747399,683.5731422197537,610.9847898142145,822.7935084055814
1731306220.5375264,858.1853454344462,691.0516057534857,608.1067299242065,818.0998230649978
1731306220.5391462,863.2816419749497,701.2612911707082,605.1917325651079,807.4078602451135
1731306220.5414274,876.71101783843,713.0638333836356,602.2921378572969,802.7719417254152
1731306220.5453286,894.8394698689273,724.9819771999884,599.4918507053143,810.118172670974
1731306220.54923,906.6682623993217,735.8692611260756,596.8277941937445,823.7430196585908
1731306220.5524597,900.6040628756061,745.1739545709047,594.1754676428022,830.019432044669
1731306220.5531309,872.6473819303781,752.7215993064522,591.2173158408634,817.934146432111
1731306220.557032,829.4285867302182,758.3855529994562,587.6496197262841,788.4421436121605
1731306220.5580146,784.0769706690509,762.0627985648665,583.6431832506692,755.3735410531973
1731306220.5609334,748.6159396931073,764.006863013764,580.2236320262183,736.7809309753469
1731306220.5627055,728.3602885341631,765.1446513705972,578.9082933451454,742.3278886434078
1731306220.5648344,721.2456170039691,766.9356103019029,580.130417879924,765.2824976989973
1731306220.5680308,721.2332350147229,770.729956058714,581.099172742669,785.2968989535501
1731306220.5687356,722.659681968911,777.1052791979312,575.3543788025803,781.409802202771
1731306220.5726366,722.678936993735,785.7550424119805,556.5930939241988,747.139768854722
1731306220.5765378,721.0993694027023,795.9631597116198,526.2761456063463,696.6032273781533
1731306220.5768833,718.881065730228,807.0487184870744,499.03005086381313,655.9755531016731
1731306220.580439,716.8437704715564,818.2179662972733,497.8283118033907,645.5511150149168
1731306220.5836022,715.2231007825063,828.0847739182808,537.7916415829201,665.5384953594942
1731306220.58434,713.8525466989367,834.7295201717438,609.5230424191424,696.4324376634564
1731306220.588241,712.4954913647737,836.6740073389783,677.9702489040453,713.6748134810626
1731306220.5921426,711.0325539773593,834.0317802609422,702.6265800616508,705.3371688515317
1731306220.5957515,709.4691357106042,828.7074213558018,666.2385923114416,679.6134230463658
1731306220.5960436,707.860789847541,823.3790618243168,589.2944090968227,657.3231435946028
1731306220.597492,706.2498437064754,820.1285249421821,516.9193273625139,656.2046171818436
1731306220.5991733,704.6464389902308,819.7740177726325,486.41356480416914,679.1030709358186
1731306220.5999448,703.0405052349319,822.1701343072109,499.8258531958517,713.6914426823262
1731306220.6038458,701.4195458433342,826.9251760395657,523.6049522406136,741.9631295950064
1731306220.6077473,699.7778078295684,833.8575314721545,517.4547292681095,751.4614419737269
1731306220.6116483,698.1160166674262,842.8873908291531,470.98704092013634,741.0224160816539
1731306220.6146202,696.437220220549,853.4298195598977,417.9400823964112,719.2706681728274
1731306220.614745,694.7435588657461,863.6648979728002,413.3039434631027,698.9510881605736
1731306220.615549,693.0354580522195,870.4559933878369,489.33474605708886,691.17783472978
1731306220.6194506,691.31237419839,870.69559312116,626.9387891556396,701.6599647699678
1731306220.6233516,689.5737420597834,863.7564241028349,768.3559582158408,729.0302929551019
1731306220.6272528,687.8193988705864,853.102772328031,861.2267768924129,765.3533815150288
1731306220.630316,686.04948542275,844.994800977106,895.2571198558684,799.3504190542837
1731306220.631154,684.2641636398464,844.5542119514313,899.811828867473,821.6163436236415
1731306220.6322784,682.4634704714417,852.2184410121448,908.2263159165635,828.7912045862122
1731306220.633489,680.6474418184893,863.6889346302858,925.6849127484834,823.5739586332863
1731306220.6350553,678.8164099266487,873.44758858508,931.728994804169,810.8356152014466
1731306220.6389563,676.9711624111114,878.7452220052738,912.2933294235427,793.5522779252551
1731306220.6428576,675.1125778384427,880.7900458277978,885.546935220777,771.8820038887707
1731306220.6458874,673.2406440738048,882.6726055295834,890.9753726051298,745.102459765463
1731306220.6467586,671.3535117020572,886.4145166993164,948.2211351057591,713.7214968332693
1731306220.6506598,669.448009892669,891.7348089056334,1026.0385417485627,680.2605951810538
1731306220.652357,667.5227994530725,896.9210337673651,1057.6588807384824,649.5416540632232
1731306220.6545608,665.5830631313065,900.180015470849,996.6795235415392,629.2123385138838
1731306220.658462,663.6419485868048,900.0418436225402,865.4735957103993,628.9968062383363
1731306220.6614585,661.712360269675,895.1372817164511,748.6137734396502,656.5091350949733
1731306220.6623633,659.7882332647615,884.6286656521677,731.046047319278,710.602315025712
1731306220.6662643,657.8285609943068,869.5593683376048,832.1177032224791,777.4202119345548
1731306220.6670651,655.771050605129,853.7010295438183,992.1434997035713,834.442427742629
1731306220.6701655,653.5948635654731,842.3031450300244,1121.3793078178046,862.123364485401
1731306220.6712255,651.4063714004864,838.9632135758462,1166.8605481692935,855.6380686492798
1731306220.6740668,649.4538667193847,842.8586790887023,1141.384933913151,827.6216971867501
1731306220.6770298,647.9558260712329,848.719688195289,1097.449186340053,799.1139554312192
1731306220.6779678,646.7457420195615,849.8933987180299,1077.0904726835986,785.2879978701274
1731306220.681869,645.0086393011151,842.3874438398452,1083.0020798051057,786.7994887464797
1731306220.68577,641.620497243382,826.994201033157,1090.0333467930811,792.8590263617529
1731306220.6896713,636.4171684384348,808.1464570149016,1078.2756882014457,792.5190078206347
1731306220.690094,631.8434210551376,790.70570065666,1053.2125579035317,784.4932256102759
1731306220.6926012,633.2806141826435,777.2838534452101,1034.9684519473612,777.9638110229936
1731306220.6935723,646.4128337956246,767.8817649520473,1029.7413293056552,784.6578382430062
1731306220.6974735,672.6114133817098,761.5091288603073,1014.0022366624285,809.0448542869364
1731306220.7013748,706.5345577344837,757.9477431779957,950.717536397695,843.9959720934764
1731306220.7018516,739.2135648041151,758.057919988655,826.4316301341346,874.4261288030223
1731306220.7052758,764.4499824959721,762.5302108592134,675.9109800164783,885.8872609798451
1731306220.7081723,782.637943419922,770.3727875498915,568.6847561273707,872.6899079227233
1731306220.7089624,798.5996337710193,778.6375083381408,564.0629621316068,841.2637490005798
1731306220.709177,815.7897983281237,783.856548336373,669.376661009208,807.110879743941
1731306220.7130785,832.522125217713,784.2121963030236,834.4801764232533,786.5396114163702
1731306220.7169793,843.8540694009832,780.723374240137,985.5061161700951,787.2779409636963
1731306220.7208805,847.3226345881814,776.3617971966295,1069.7697697237315,803.8487464742636
1731306220.7237437,846.8512241680452,773.6310573333926,1078.7011114560314,821.6584497396102
1731306220.7247818,850.6690847334703,772.4841814896038,1038.3260456690323,827.7803674744434
1731306220.7278311,864.7653843324446,770.3262591463545,983.4646418784436,820.7201038619344
1731306220.7286828,887.7930564323366,764.2153807155535,938.683174575919,811.5220431015155
1731306220.732584,912.1313111046038,753.536824333005,914.8224750155756,815.1660876835625
1731306220.736485,930.1733922989973,740.9734646524464,913.0574588977206,838.948325451905
1731306220.736638,940.2338203373338,730.9844672490688,925.7586379277011,876.776027343386
1731306220.739315,947.0619493461859,727.0477047786025,934.2794910503006,913.2308923046714
1731306220.7403862,956.977084969424,729.8158282424002,913.2939819632295,933.5004068622196
1731306220.7442875,972.2332157814451,737.3492854307021,846.7957003300003,931.4775464687392
1731306220.7466996,989.318541625061,746.7489957179382,745.6861669722422,911.0369153117639
1731306220.7481885,1001.9790281049887,755.5725151567079,648.3834974599932,881.4256199124059
1731306220.7520895,1005.8601207648228,762.1312174104363,597.5238026397511,851.5157907924835
1731306220.7548862,1001.0635922504546,765.1662622650247,609.5993536651395,826.8957090640197
1731306220.755991,991.2973996665527,763.8821431249007,665.0063258651596,810.269495661242
1731306220.759892,980.9815738833986,758.4515420590768,728.251304349481,802.9640366717697
1731306220.7637932,972.6732569884022,750.1457242606278,778.0665117632597,805.4254188093842
1731306220.765568,966.4169946836075,740.5424518166928,817.6824213255126,816.5197395487999
1731306220.7676942,961.0495656719625,730.4860970295538,858.0263410379368,832.9743451788381
1731306220.7704575,956.0914730127745,719.9864752350156,896.1732645995808,850.088371385842
1731306220.7714248,952.494628649615,709.240250256322,914.6456028931773,863.4943570594406
1731306220.7715957,951.5569873458533,699.5741660286105,901.0652663221397,870.7521800348078
1731306220.7754967,953.0753203393542,693.0532712421489,863.5142224836906,871.7091876813921
1731306220.7793975,954.7551218449635,690.9526724983667,823.9119619191507,867.5433607053768
1731306220.783299,953.9243336377085,692.627626662054,799.1978925951103,859.406960110022
1731306220.7844365,950.2914816711227,695.9744653012954,791.3885370731339,847.8831960997884
1731306220.7860289,946.9990649558515,699.0131587741478,792.4313813311152,833.7221414499961
1731306220.7872,948.3696747840527,701.0119312589655,793.8884297010503,819.0226686027848
1731306220.7911012,955.8717669202284,702.1981007533018,792.0739958368955,807.4418222641792
1731306220.7950025,965.927420872708,702.6382079719208,787.5324705353986,802.9011986711737
1731306220.7989037,971.8438703927884,701.5990514983001,782.2483881161606,807.6961826571405
1731306220.8016,968.4621173795128,697.99355605881,777.5726219331859,821.2835166865401
1731306220.8028047,955.7590291673637,691.3444675948624,773.7351364379497,840.187192047826
1731306220.803305,938.8141911400617,682.3114075785613,770.3385911644406,858.8159381193673
1731306220.8062112,924.6459505958504,672.4040782090992,766.9633194055185,871.1610837447358
1731306220.806706,918.2982923046675,663.2561187706549,763.4415833510378,873.2695735381963
1731306220.810607,920.229982399439,656.0458270259866,759.8181224483254,865.3482102672712
1731306220.8145082,925.9501988349286,651.3183498261742,756.2004518200999,851.6753976649844
1731306220.817171,928.1282571597139,649.0525518503925,752.6552921139104,837.8161492963822
1731306220.8184092,920.6317914603636,648.7152318650932,749.1895384440865,827.1481588344819
1731306220.8221734,902.6162607041383,649.2849733397434,745.7794593653056,819.6165292694973
1731306220.8223104,879.9285193252878,649.4939628580098,742.4023817769904,813.5814281244063
1731306220.8262117,862.2455287006771,648.4445780632066,739.0496390276741,808.5848222410547
1731306220.8301127,857.3310237567799,646.2868758386212,735.723360529489,806.0453984671468
1731306220.8327427,866.2154816744892,644.3021680741647,732.4283127038129,807.1823338066233
1731306220.834014,882.7312534360078,644.0678314065101,729.1667280251553,810.5097347099324
1731306220.8379152,897.7528562224092,646.2111070273786,725.9377038765989,811.9148825560421
1731306220.8409977,905.0744333528864,649.7419401664514,722.739004221563,807.8910017155143
1731306220.841042,904.7200898570709,652.5148632308529,719.5687603408894,799.253421646167
1731306220.8418162,901.4711829429078,652.4414135540732,716.4259048217763,791.731847741541
1731306220.8457174,900.0218371538451,648.586960310114,713.309508321322,792.2060859353899
1731306220.8483138,900.7110893276097,641.5796346298483,710.2179064305832,803.1025057918594
1731306220.8496184,899.2289830393266,633.3312056599602,707.148651804389,819.416673523154
1731306220.8535197,890.3897802376832,626.3421190826928,704.0998997829362,831.1569816030305
1731306220.8574207,872.6723871128561,622.8375662497414,701.072648895911,829.808469891919
1731306220.8599105,849.7128672351095,623.9932967036384,698.0715780394601,814.0536507820143
1731306220.861322,827.7998791847562,629.60758520823,695.1014939570093,790.3971889272846
1731306220.8638852,811.925952286238,638.4623748156698,692.1588633393931,768.3358437446959
1731306220.8652232,803.7211678813215,649.1694731961162,689.2242871588824,753.9562180612958
1731306220.8691242,802.2083888367999,660.8736244239137,686.2681056469771,746.8202766939409
1731306220.8730254,805.5815715186691,673.2626563977401,683.2783742930048,742.0934646793033
1731306220.8757844,811.8561202796802,685.9342409838689,680.3001950981277,735.6532963073283
1731306220.876927,818.1114278619917,697.7504406598686,677.4442841770805,727.8122846523108
1731306220.8787787,819.8598102181916,706.8216280443992,674.8115130638903,722.8327775051322
1731306220.8794563,812.1309905954231,711.2190755722874,672.3316444443697,725.1242789667468
1731306220.8808277,792.3180228276855,709.9611101837473,669.636817729001,735.6607278503003
1731306220.884729,763.0108427534627,703.7005618046527,666.1996299474765,751.5147719307117
1731306220.8886302,732.3530864981657,694.7982511902434,661.8855703984699,768.2985362540492
1731306220.8925312,710.6726591623706,686.7454780078505,657.6648287129541,782.8378619928194
1731306220.895028,704.7770721362733,683.0393316504269,655.6553291245209,793.8659275099579
1731306220.8964324,713.540100438115,685.772742495362,657.5324798866413,800.9918826669168
1731306220.8976474,728.2295340850358,694.4995499532024,661.4052302297794,803.795866110133
1731306220.9003334,738.0262778109313,706.1335139881195,659.5251081474634,802.1696436448577
1731306220.9042346,737.2736478627351,716.3014394812075,640.8326216950962,797.2893012539911
1731306220.908136,729.2490090328737,721.6396008875389,600.0147752341447,791.9078976038753
1731306220.9105709,723.4794975457941,721.6541139964257,547.4524342177963,789.409218712729
1731306220.910599,728.4624735065865,718.8408504705858,508.5906844524502,792.216242696456
1731306220.912037,745.2424061597163,716.9412982270342,506.8980485600025,800.6875396939685
1731306220.915938,766.6008450597149,718.5902772958408,541.010835259524,813.2857214762118
1731306220.9165158,782.2341788862361,723.9960049481751,577.6445490105414,827.8235594627179
1731306220.9198394,785.8310225413966,731.368017900353,572.535370950224,842.6499812608657
1731306220.9237404,778.8001882786677,738.4426921943835,507.0637797658023,856.6307192570948
1731306220.9261703,768.1621347538289,743.8332068938379,410.3502644287982,868.0200916502447
1731306220.9276416,760.587631612503,747.429472293361,344.2054158445355,873.7400686753432
1731306220.9315426,757.4197147962053,750.011716104181,358.37925351084635,870.4829897630274
1731306220.9353845,754.564538486115,752.6740501509289,451.21847626527614,857.1910029907505
1731306220.935444,747.060730743844,756.3555854464526,569.7011442341516,836.7962245150254
1731306220.9393451,734.2677995140816,761.3668880897435,650.4126644821295,815.6034216501085
1731306220.9417417,721.2473838805015,766.9083173854785,667.0107390089211,800.7743746384251
1731306220.943246,715.2679118586971,771.0351294666395,643.9965143493665,797.6294772638552
1731306220.945357,720.4202524095601,771.5663543221037,627.5531755348711,807.907374798597
1731306220.9471474,734.7206315996397,767.6891518140907,642.6905874182467,829.1323810006537
1731306220.9510484,751.919197931635,761.0968052297598,675.7677046635467,855.1921531215554
1731306220.954253,766.4561879750872,755.4693370577113,695.0316493216443,878.4522219705756
1731306220.9549496,777.5805141549674,754.2882424989484,685.918402455761,892.9820982778107
1731306220.9573128,789.391775851452,758.4677179057321,666.1133767143032,897.2096659223471
1731306220.9588509,806.8627055866338,765.6996507047653,666.7320985573133,894.2284173106552
1731306220.962752,831.1104042064367,772.1977862240834,698.8161609576821,889.5428197037495
1731306220.966653,857.7241032656627,775.5827910199359,738.1417739703833,887.8334513457553
1731306220.9705544,879.3980377654264,776.6162058982661,744.2276601322682,890.7393991792815
1731306220.9728842,890.6004820155702,778.3322280516762,697.5289792595663,896.5706863460919
1731306220.9731214,890.5272780069754,783.2205501494642,620.9921014833633,901.4931494371758
1731306220.9744554,882.3713235530149,790.7514592894778,564.584483336338,901.210460859306
1731306220.9783566,870.2099843321862,797.3164810143244,563.8250442778243,892.5446436280282
1731306220.980144,856.4687300163165,798.7319391572869,607.7584712290881,874.768001574052
1731306220.9822576,841.7129065831296,793.3972709390607,645.9988400086064,850.4364784046656
1731306220.9861588,826.1374032573517,783.6891079954801,631.4464069979712,825.0981877968079
1731306220.9884555,810.9563388733471,774.5622652688324,562.9034869833467,805.4186147745562
1731306220.99006,798.485656127925,770.4239302717305,489.8713346879098,796.2528702010677
1731306220.99199,790.9266987261908,772.5114103028816,474.1006269411124,798.2126949615755
1731306220.993961,788.7349362801828,778.491901263245,540.6073057379547,807.2387460181147
1731306220.9978623,789.8118759965074,784.351030588631,659.5977119474464,816.4918101816578
1731306221.0017636,790.417006321403,787.077744258041,772.1945755170865,819.5397751043326
1731306221.004027,787.4861426328638,786.2545269319357,834.6358218976675,813.2875473122525
1731306221.0056646,780.6954271850956,783.6620871054492,843.2228515082296,799.3588783028654
1731306221.0095658,772.5280916591528,781.5890510643352,824.2333712786606,783.2509998414846
1731306221.0108583,766.1876893810462,781.3729768868559,805.0154887878065,771.4869244557281
1731306221.0134668,763.0971930721179,783.1242657127577,794.501414568458,768.1569989921211
1731306221.0149305,762.1423560757996,786.3059534521453,786.4198840669561,772.9349253177645
1731306221.017368,761.3298686445787,790.2261370400165,774.9599008929891,781.922184093664
1731306221.019598,760.3844066813162,794.0617668810237,763.34959518523,790.6726804204247
1731306221.021269,761.8187580403765,796.8809992747347,757.102942988368,797.0358721046836
1731306221.0251703,769.1291353536512,798.1075742890704,752.0765038029873,801.644254110315
1731306221.0290716,783.2542948145557,798.0380027134808,733.7089445032063,805.9442798966162
1731306221.0297267,800.2431625026973,797.6053670629296,691.398502594739,809.7771674497469
1731306221.0329726,812.4652187728675,797.3436248707746,633.9759384801836,810.7184067617661
1731306221.0351694,812.9425224431238,796.6148871033186,588.603180560961,805.654352756208
1731306221.0368738,799.776694672846,794.1397411387968,581.5453767643205,793.2098348458284
1731306221.0407753,777.4812490633416,789.5072648725433,618.4268867865426,775.2098218298751
1731306221.044676,754.4153809767,784.1234702115461,682.4078298707792,756.2889519769416
1731306221.0485773,738.309654910892,780.452270934499,749.8879226369365,742.001302420503
1731306221.0485952,732.8287976228273,780.0895786684615,806.0851964194719,736.5394469899891
1731306221.0497167,736.888021866906,782.4164078246403,846.2152311061402,741.2152038198271
1731306221.0507405,746.4468054326074,785.0623452558044,866.5252982243715,754.2943874393575
1731306221.0524786,757.221804965751,785.7415020602799,860.5370550363159,772.0246088087055
1731306221.0563796,766.6113397925873,783.8437116583438,827.1069626904937,790.22410341591
1731306221.0602808,773.8464280915183,780.5094979906828,779.7817601402874,805.7023547299264
1731306221.0641818,778.6509753836567,777.330992056901,742.3356569861512,816.8845015622128
1731306221.0663118,779.9068691598227,774.944148455703,729.6854807952997,823.3936414758825
1731306221.067464,775.9197118932942,772.6785846917313,731.5027324659807,825.1359533922498
1731306221.068083,766.3640306421112,769.3803664628796,717.5288363174722,822.0262271836682
1731306221.0719843,754.0619479852978,764.5609693423737,664.6965932306182,814.8779440262022
1731306221.0758853,744.478893907581,758.9116920810936,583.5671809175528,806.3791101224242
1731306221.0797863,742.724498278928,753.8666861359978,517.8955241351638,800.3871666287059
1731306221.0818832,750.1109650921561,750.6603161141164,512.9707772843543,799.381063582788
1731306221.0836878,762.8270344247956,749.6442455307832,577.8396148350873,802.3487850349997
1731306221.0845037,773.798003225932,750.3568766350323,675.4916784114403,805.6122534343324
1731306221.0863323,776.7128273238167,752.2037183486751,752.1401699167345,806.2751798411352
1731306221.0875888,769.8582802136318,755.0661359112189,780.9453999257735,804.984079579658
1731306221.09149,757.3941101504691,759.1686883488702,780.7393207236132,804.9864875938435
1731306221.095391,747.1022149115232,764.2201777792556,792.4684239048886,808.1351969738197
1731306221.0974543,745.8699324319483,768.6949711095803,835.6849965662743,811.9032939308358
1731306221.0992925,755.7699907143282,770.2678435615231,886.6712755549823,810.9500843499258
1731306221.1031935,773.1963274927664,767.471797470984,899.5663635250374,802.4015112806223
1731306221.1052008,791.3191348865528,761.3374241609307,851.2116027223437,789.9153548230772
1731306221.1070943,803.9507437159859,755.4079912156938,767.717913469727,782.102836374881
1731306221.1109958,808.388826575115,753.6698766495125,706.7063948421239,785.9560298193921
1731306221.1130257,805.9227824235172,757.7076610496995,708.9222341461326,800.8153726873904
1731306221.1148968,800.2866192086243,765.2345016928474,761.2408413924973,818.2285397111824
1731306221.118798,795.3880363464898,771.272230309592,805.1225620923632,827.9030962663248
1731306221.11929,793.7471565802134,771.3082318009359,786.1611535809478,824.82715498729
1731306221.1226993,796.2752933219186,764.2543671497384,703.654536818038,812.1461667797781
1731306221.1240692,802.8205167761424,753.1459601568658,616.5760605919185,798.304806647213
1731306221.1266005,812.3448188296943,743.1508509468695,598.2875765538408,791.2256153292254
1731306221.128597,822.4080018345802,738.344742436367,676.7975252538959,793.6171660438773
1731306221.1305015,829.0547733240614,739.4488305408094,810.8298227918735,801.9736416831527
1731306221.1344028,828.3928515036683,743.8678110488353,921.5164143704518,809.3908545992474
1731306221.1383038,819.4112229589084,747.6721172396436,952.11994500069,810.3189736106048
1731306221.142205,805.66965411953,747.9485424116431,906.2558640538332,804.276890506601
1731306221.1429377,793.7996778885649,744.0243426780734,836.6406401472901,795.9635818117496
1731306221.1441684,789.4008752123588,737.1661033537863,799.2941557703653,791.4887535183846
1731306221.146106,793.3938027834834,729.4178908503102,813.4544075803092,793.430267851342
1731306221.1500072,801.7725449631263,722.5065857315593,856.3966629203992,798.6372332842236
1731306221.1539085,808.9893753912673,717.3377196309291,889.7585555381116,800.6995029991331
1731306221.1540766,812.173960461288,714.1157601855982,890.1756709947822,795.1990915178084
1731306221.1578095,812.6420361984065,712.8314959417697,859.822738815881,783.4667771077176
1731306221.1597395,813.489363899204,713.6999723886136,814.611036635378,771.6804922778376
1731306221.1617107,815.5857045835205,717.1281901372904,767.052532444572,765.8616757321253
1731306221.161806,815.7938962864739,723.1103192184087,720.8433405826727,766.6840753968153
1731306221.165612,809.2829644735427,730.5098812800185,678.3463217536465,768.441955022471
1731306221.169513,794.1566047424309,737.0170734872185,648.4002040848129,763.5967263844972
1731306221.1734142,774.5006472650892,740.2053543870953,644.1705134317264,749.8936676590153
1731306221.1753109,758.9966031387162,739.1615256148965,674.3068020368859,734.2999187148248
1731306221.1773152,755.4518328892589,735.3975536435563,738.036453246866,729.5778906605492
1731306221.1806748,764.6982877426757,732.0250309519552,827.518817940923,744.8873973126205
1731306221.1812165,778.390835954292,731.535275649679,930.2812669619973,777.3802436608902
1731306221.1851175,783.320421961399,733.8880532962168,1026.6251801119881,812.1572964210653
1731306221.1888633,770.4511617737356,736.5859472490515,1088.9407363150965,831.7584037636892
1731306221.1890187,742.6638371821775,736.7794983891895,1093.275520002709,828.2587552430175
1731306221.1908822,714.9192189825058,733.6304277289407,1039.3717560371813,808.3684597778309
1731306221.19292,705.6355060313361,728.9172217945389,959.1871320437588,787.5640216647604
1731306221.196821,724.9763611878022,725.4708347171804,898.1989839822356,778.360701105797
1731306221.1995432,768.4306661964525,724.9402475433485,879.5079581775212,782.2256530810245
1731306221.2007222,819.9057645543637,726.8390746332129,882.4092093904502,790.8037305865921
1731306221.2046237,861.3055026931141,729.535578189532,859.2361039756017,794.1813639895474
1731306221.206453,881.5711314467485,732.1120802361138,780.4095930547812,788.94745731747
1731306221.2085245,880.0134142273114,735.3334400279373,669.0997892013238,780.1606299791405
1731306221.2124257,863.5787883848084,740.7868697070375,592.2389046680223,776.63710359336
1731306221.216327,841.2086031257921,748.8597980735075,611.2001714058498,783.6673432302028
1731306221.2184117,819.1024212244482,757.3498380537261,731.4287559896901,798.5469875796124
1731306221.220228,799.3486678527908,762.2033432716236,893.4446532677988,812.050364983532
1731306221.222025,782.0401801959571,760.2197119400478,1014.115640762009,814.7807860897562
1731306221.2236495,768.5066381029499,751.7653169073503,1045.2307474958857,803.7425673076824
1731306221.2241292,762.3656796237826,741.1966863407886,1002.2169565928923,784.1082652190919
1731306221.2280302,767.1318928571799,734.3337507608422,941.7100074656275,764.8117170265134
1731306221.2319314,782.7199772416121,734.7176690535752,910.3084747631287,751.7564612816038
1731306221.2358327,804.5649168037949,741.4492001389868,910.1329751974819,744.555545281515
1731306221.23728,826.4185441083013,750.1387240059987,909.1930472845696,739.434880879778
1731306221.237596,844.0232318884434,756.044288411524,882.1990201723812,735.0112343066539
1731306221.2397337,856.2252914227283,756.9877801430519,839.7458571864876,734.8520655238765
1731306221.2436347,863.2142248686608,754.1770679302847,816.8573628645867,743.9728817905602
1731306221.2475362,864.5891099878432,750.795812747986,833.0048206096196,762.6274607965034
1731306221.2514372,859.5608681691951,749.6276818440342,864.8848689797235,783.7570929935479
1731306221.2531672,848.779674618534,751.279358257855,861.8166461911833,797.188385187652
1731306221.2553384,835.3938385746258,753.9425618661869,792.4085655445673,797.149042712349
1731306221.2561486,823.7897371535436,754.6442272139194,679.6525338649461,786.3164861708781
1731306221.2584362,816.9637688673447,751.1065895613099,589.6037438405906,772.946566537448
1731306221.2592394,814.9774365542327,743.0893323181818,579.2259949458559,764.2895266642835
1731306221.263141,815.743866850973,732.5358986719159,646.2997588270752,762.3922580972068
1731306221.267042,816.9943061048907,722.638141596615,726.0124355503465,764.8902135759065
1731306221.2687385,817.569959856056,716.4366450820969,741.6329202743075,768.3880704723127
1731306221.2709427,817.4387489171478,715.4993989904114,669.5740377395966,770.9208053385593
1731306221.2748442,817.0488967941302,718.9850311412171,562.6682847781587,772.2853924213249
1731306221.275017,816.7673566046706,723.5416214593573,508.17817357860724,773.136894433815
1731306221.2787452,816.6945360615459,724.7015174397662,554.4276042724567,774.0814877866821
1731306221.2826464,816.7529358555701,719.7278237297346,670.1520640075779,775.3229266312293
1731306221.28431,816.8369699975394,710.237967228494,772.320580699606,776.7639040197083
1731306221.2865477,816.8950911552929,702.1129972396175,795.6506574235717,778.2383421725657
1731306221.290449,816.931380926583,701.8582746323241,740.4170783422339,779.6544062231901
1731306221.293223,816.9714903021469,711.8018812720876,659.4057831763731,781.0096516749028
1731306221.2938857,817.0345253097574,728.1402200434941,603.6053326332403,782.3417037858708
1731306221.29435,817.1250504305773,743.7085959978499,580.8862654773893,783.6820299485602
1731306221.2982512,817.2387341418281,753.0701606202585,562.393125090148,785.0399213359411
1731306221.2998812,817.3703300880526,755.4752829527955,522.3989605793577,786.4094663942773
1731306221.3021522,817.5176749962968,753.7684101957514,468.36608626662917,787.7820488986354
1731306221.3060534,817.6814762844011,751.2993411738584,433.4266822177799,789.1534111025221
1731306221.3099544,817.8634225451556,749.842098368769,443.1126275494442,790.5239673773685
1731306221.3127542,818.0647536954374,749.4824982419382,491.17447339038546,791.8960207207195
1731306221.3138556,818.2859220741943,749.5588443959326,545.9709542297204,793.271387296839
1731306221.3154523,818.5269341878496,749.5119325170701,577.2915478153834,794.6506806306795
1731306221.317757,818.7877713713801,749.1794074755957,576.8506958144754,796.0337561618884
1731306221.321658,819.0685812243571,748.6720606450631,557.1592966478322,797.4203760983803
1731306221.3255591,819.3696504408557,748.1492545880355,536.2679122549856,798.810552685007
1731306221.3280094,819.6913003386677,747.6918081686038,525.5685246456653,800.2045385639472
1731306221.3294604,820.033814783728,747.2963591682848,528.3356739329464,801.602672900847
1731306221.3310237,820.3974283099632,746.9255156626766,542.8373895370232,803.005264617797
1731306221.3316226,820.782348911205,746.5506676072192,562.0723645748587,804.4125665584016
1731306221.3333614,821.1887810603214,746.1648991025578,572.1572873303305,805.8248016031187
1731306221.3372626,821.616930297562,745.7749829548194,557.9720108402726,807.2421837656694
1731306221.3411636,822.066990149856,745.3893867501926,517.0627073004088,808.6649107284927
1731306221.3450649,822.5391262641035,745.0120586958914,468.8762211837727,810.0931494794247
1731306221.346595,823.0334788426682,744.6425805200936,444.7437756347746,811.527059868185
1731306221.348966,823.5501970886901,744.2789619723698,461.34456377423936,812.9668776601549
1731306221.350491,824.0894915409015,743.9198255781171,500.62044721150926,814.4130053128948
1731306221.3528671,824.6516496248573,743.5649649411499,518.9979374881437,815.8659781806615
1731306221.3567684,825.2369438425619,743.214854305418,483.75705504710777,817.3261856120376
1731306221.3606694,825.8454252099408,742.870010515283,406.4093415500981,818.7934280497304
1731306221.3621662,826.4767508098053,742.5306859108485,340.40863362263525,820.2667387990404
1731306221.3627958,827.1303412931888,742.1968948797684,339.85706129758273,821.745082037612
1731306221.3645706,827.8060765389098,741.8685762733539,412.6981143494836,823.2290746620638
1731306221.368472,828.5052316304456,741.5457307299152,511.30922241527605,824.7225862630014
1731306221.3693595,829.2306111027335,741.2284740220224,572.6163902383141,826.2317288905697
1731306221.3723729,829.9846227358917,740.9170026898605,573.8491203587819,827.7592421982789
1731306221.376274,830.7653577358449,740.6114798046382,552.4840521556769,829.2963278688393
1731306221.3777375,831.5637308658467,740.3118810822269,570.3213170567403,830.8204198079197
1731306221.3801754,832.367243843604,740.017924477426,654.6449464377267,832.3100052835738
1731306221.3840764,833.1736869669754,739.7292662260154,771.9840181642767,833.7775696829453
1731306221.3879776,834.0080440004805,739.44602812349,858.2660537964192,835.2968134996129
1731306221.3882282,834.9222739724299,739.1693388685228,874.2338789160168,836.9769744967555
1731306221.3918786,835.9555695732565,738.9011307046032,832.8153953103055,838.851404701967
1731306221.3933089,837.0604255195398,738.6425024524882,778.1356125954377,840.7285990352749
1731306221.3957798,838.0566070955489,738.3911254012615,745.4751992830938,842.1723203083651
1731306221.3975823,838.7168544499781,738.1401907795455,741.6741781384251,842.8106416201244
1731306221.399681,839.034208254718,737.8824723395546,753.8471001595033,842.9599836446548
1731306221.403582,839.5224170815064,737.6203837967832,767.1922953845086,844.0717948575881
1731306221.4070966,841.1539736932082,737.3753644856216,774.8492603646937,848.107902472279
1731306221.407483,844.5370475939325,737.1820615154426,777.5004695169855,855.3026147500151
1731306221.40888,848.493218420917,737.0556067938538,778.5933508201178,861.3361257101117
1731306221.4113846,849.2319283590905,736.9438947414758,780.5934746536891,856.9746245366636
1731306221.4152856,841.8771677177602,736.7144212880892,783.9988058916502,833.1336227875478
1731306221.4191868,824.7189332785276,736.2409222892383,788.1490782400185,789.7287252375685
1731306221.4230878,803.2545316614193,735.5970513427944,792.2985691770306,740.7445611100313
1731306221.4244514,789.2494530376894,735.2199964453433,796.1309855332591,708.78326051123
1731306221.4259653,793.4514398839409,735.7738659561555,799.7125766324617,711.537656967095
1731306221.4269893,817.074456174637,737.5364174019164,803.2329947292619,750.5266705193375
1731306221.4308903,849.5131660962381,739.6398440098245,806.8168145851954,810.5681422159009
1731306221.432369,874.7910676075452,740.1296787479,810.4831845767711,869.418884215555
1731306221.434791,881.9668275948932,737.5059109455682,814.19435945786,909.5644293489485
1731306221.4386926,871.9222849174756,732.6850847061824,817.9121134032625,924.3418789251447
1731306221.4400227,856.19629644152,729.0445951518711,821.6222889077718,917.0422124007084
1731306221.4425936,849.1839267103605,729.6662448884692,825.3302997420313,897.196082435717
1731306221.4448335,858.8790570673298,733.9984459235377,829.0469433949128,877.5273380275213
1731306221.4464948,881.6967693951544,737.3651909453656,832.7789085185343,870.5319683649027
1731306221.450396,904.289184412096,734.4279351233707,836.5272590673728,882.4178308929456
1731306221.4542973,911.2541543746939,723.9197570678627,840.2903557246876,906.7557681348795
1731306221.4555938,894.3731141310915,710.4593929726535,844.066910161565,924.7073050530101
1731306221.4581983,858.2375788427281,701.729148325451,847.8571397740259,915.6209574318808
1731306221.4620996,818.9351100379322,703.3994204121782,851.6621750669651,872.0941688885904
1731306221.463702,795.7466029675982,715.802907006619,855.4828058828938,807.2800968118125
1731306221.4660006,799.61014892148,734.2534983756138,859.3186884371914,747.363398826252
1731306221.4671557,825.2357983249179,751.8397660095039,863.168825897476,714.7989088787783
1731306221.4699018,853.4451263906326,762.5757085127593,867.0334713491811,715.6237871215847
1731306221.4711652,864.2111395147826,763.8021996550818,870.9163044536111,739.5803351209755
1731306221.4738028,851.7553248978087,757.4332686910724,874.8242255435791,770.3652958831284
1731306221.477704,829.1480127708209,749.2700008898084,878.7621379940525,796.3083934553822
1731306221.4816053,817.1716619022255,745.7824672538911,882.7237797746676,814.1505732652723
1731306221.4825704,826.1494061189511,749.6708637408012,886.6866914949296,825.8455572440225
1731306221.4855063,846.8910833821396,757.5415517143156,890.6240695074908,833.343796113659
1731306221.4867363,859.2977598555474,762.2936642903132,894.5386285209123,836.2352454301806
1731306221.4894075,850.8407276390056,758.9519591018502,898.4984319579788,833.5780244144075
1731306221.4933088,827.9978659017503,749.1418290844714,902.6252218450416,827.3705194807052
1731306221.4972098,810.723074627648,740.1028093248276,906.9892109834299,823.6313552446429
1731306221.501111,815.7291276192238,738.9483936039023,911.4391922459133,829.1304540433839
1731306221.501439,843.3641992544805,747.2201981792651,915.529098352757,845.9365288003696
1731306221.5019422,877.923308134985,760.3103228238577,918.7756177285617,868.4203559313811
1731306221.5023077,899.1500812277342,771.6268241032858,921.31123192546,885.6970136447835
1731306221.505012,895.0343629836952,777.3137808114603,924.5069901224845,888.1439245238308
1731306221.5089133,867.4857822913375,777.7381810208612,930.6167592100226,873.5017163323026
1731306221.5128143,829.1259328593973,775.6384920887917,940.6534589046378,848.5716717748073
1731306221.5167155,795.1508511713813,773.5143625312409,951.2128064770243,825.6475032973096
1731306221.517879,775.8888011064398,772.3760600951321,953.3843499008094,815.8260460919149
1731306221.5203075,773.6969996304908,772.0193385576351,937.4502729894656,822.6502344882763
1731306221.5206168,784.3500967771279,771.8640170959717,901.9321972388211,839.3766721544695
1731306221.5245178,800.5128444609791,771.536823146416,857.8694888678145,851.9024898810233
1731306221.528419,814.7102407933843,770.9885660348924,821.4460691170152,846.7304232038895
1731306221.5323205,820.9455138771397,770.3406816856608,801.729703579749,819.8912999239404
1731306221.5334504,815.784380619717,769.7122292017842,796.2653592405245,781.0078712660471
1731306221.5362213,799.6274805049216,769.146872834399,796.7132618205641,748.9444056135849
1731306221.5367286,777.356778985299,768.6285581627336,796.3318746896932,740.8361540437477
1731306221.539176,756.6891263143121,768.1255467405841,792.9268454242956,761.0420348448908
1731306221.5401225,743.9985601650941,767.6191355311155,787.5149928261689,797.3336047337499
1731306221.5440238,740.084671913714,767.1078518629224,781.8208713320264,827.5928382141718
1731306221.5479248,739.5007609956563,766.598487047624,776.783626820777,833.4959334668581
1731306221.5490215,734.847973835702,766.0970757335123,772.4141127626874,812.373967836351
1731306221.551826,723.262965615532,765.6054884140666,768.3161491534114,778.9294712154901
1731306221.555727,709.7172696688099,765.1225657342382,764.165755733034,755.3355417152476
1731306221.5580444,703.5008275916871,764.6464962069665,759.8722985409012,756.6997432095079
1731306221.5596282,709.873651924606,764.1762426633862,755.5020350040284,782.2570451737356
1731306221.5635295,724.0352920316179,763.7116684754789,751.1472409641851,818.1428847901022
1731306221.5645928,733.935698417095,763.2530260042288,746.853702491707,848.7197592187663
1731306221.5674305,730.9391032197492,762.8004905959008,742.6185989708539,867.1715830997313
1731306221.5713315,719.0721669255081,762.3540054835188,738.4199707052732,877.3338189010974
1731306221.571515,713.2525964090743,761.9133574023685,734.2413514571168,886.3715049385094
1731306221.575233,726.4628647523105,761.4783040746025,730.078917008627,895.5491449446864
1731306221.5769129,756.9211781579695,761.0486438389715,725.9366205767129,897.5689171491783
1731306221.579134,787.7952516650186,760.624216098607,721.8191791834578,882.9508116386384
1731306221.5801642,801.3301432709592,760.2048713899311,717.728545236981,849.9841596390985
1731306221.5830352,795.5804479869951,759.7904483016315,713.6641892735435,809.5430391701074
1731306221.5869362,788.194609836268,759.3807708728878,709.6249858827449,780.0820744476287
1731306221.5908377,802.5664990354504,758.9756594592232,705.6106238391391,776.1022980106341
1731306221.5947387,847.9206435794488,758.5749390651386,701.6216266425031,798.7809072429964
1731306221.5957355,910.8951081611021,758.1784314609962,697.6581626333003,835.7449669637683
1731306221.595781,965.5492485841231,757.7859302666656,693.7186617011673,869.5766332440139
1731306221.5986395,991.9334060701592,757.3971793187912,689.7998300055299,887.9925435176166
1731306221.602541,987.0484823791516,757.0118915738096,685.8993812939874,888.3311943946338
1731306221.6063018,961.2223330307486,756.629833164331,682.0207742276441,874.6647204977473
1731306221.606442,926.7426010836981,756.2509349109761,678.1756749827681,851.9760934679978
1731306221.6103432,890.2306346734184,755.8753048099602,674.377651523544,823.1087878440055
1731306221.611307,853.3297673972976,755.5029922176653,670.6247422716525,790.2122094497132
1731306221.6142445,817.1904029479684,755.1335177291164,666.8815228844436,757.5273794445762
1731306221.61465,784.4631347638217,754.7655417595872,663.0860629391183,731.3385809765286
1731306221.6181457,757.911629617087,754.3973377389341,659.2046493257044,716.4864166404741
1731306221.6220467,739.4461135481445,754.0284493688392,655.3180719481386,713.0126067978547
1731306221.625948,731.7355663469606,753.6616934794318,651.6559030600567,716.5152186752217
1731306221.626878,739.5374907577536,753.3030554313361,648.4599477579437,721.6753565448361
1731306221.629849,766.7673727942598,752.9568335617663,645.6487345996366,725.3871840870253
1731306221.6335185,810.325047424327,752.6167888181192,642.5067636180748,727.2680520494733
1731306221.6337502,856.9173989259848,752.260865655506,637.8828270502387,728.3117855855663
1731306221.6376512,887.7492756996658,751.8618943490375,631.2835947851795,729.4720248195957
1731306221.6410882,888.7224390389042,751.419912051809,624.457828379223,731.0856546579486
1731306221.6415524,858.2724548824569,750.9977810858574,621.8114163417251,733.0127021995913
1731306221.6424494,806.93113147502,750.7126551193393,627.4753096213803,734.9951896931543
1731306221.6454537,749.9242263402916,750.6369903145442,638.775937632312,736.8853612293395
1731306221.6493547,699.4198899019349,750.6325807480914,640.6042354084507,738.6749922364609
1731306221.652387,661.9141634117082,750.2687158367808,609.3730125776893,740.4208317360443
1731306221.653256,640.6707174286779,749.0509688460255,531.6055470371159,742.1719684742513
1731306221.6571572,638.7605174036316,747.0276143023287,426.84875338485404,743.9434023325706
1731306221.6580205,658.7616005377349,745.3546849133425,350.1283711969195,745.7259875605384
1731306221.6610582,699.4020744515418,745.9384735334756,359.07181713000847,747.5057961473883
1731306221.6649594,752.9696225368749,749.7592110009662,465.3740186778334,749.2754312505322
1731306221.6688604,806.7753330950945,755.1815213791778,613.6908965205329,751.034811608779
1731306221.6712554,848.0814136934063,758.5641436041142,713.2128796051161,752.7869402768711
1731306221.6727617,868.7713079321484,757.6069994535601,702.1950751870933,754.5341614076574
1731306221.673592,866.8334230044975,754.5060980076294,595.1566162133753,756.2769657633812
1731306221.6758747,845.2129065372279,755.2002332581061,473.41597962927295,758.0146381517528
1731306221.6766627,810.5817463481776,764.3713415610591,423.8454263085039,759.7462920841772
1731306221.680564,772.9657541353907,780.3227718449698,473.3366382475879,761.4714244337629
1731306221.6844652,744.3886698979794,794.8149578184606,572.0379067327725,763.1899172523458
1731306221.6883662,734.6576739757069,798.8573377477971,639.0719199459191,764.9018008634567
1731306221.6891632,745.6720663322666,789.74949689335,631.042697012327,766.6070624017439
1731306221.6901238,768.6418791516837,772.9691750878926,573.7222174108911,768.305593539078
1731306221.6922674,787.699396771956,757.0618893039887,531.0685932492714,769.9972307144436
1731306221.696169,788.758416043591,746.3667515994771,542.9417466313353,771.6818099967616
1731306221.7000697,767.9761171788573,738.4743652317286,589.9108469715416,773.3591939609507
1731306221.703971,733.7780162638318,728.5232969553604,615.7735932948858,775.0292697397264
1731306221.7047343,700.8852018576749,715.6565294718878,583.8060777932345,776.6919358961007
1731306221.7078722,680.8832937551547,705.0588516054321,513.0791931584093,778.3470926807676
1731306221.7089922,676.4047286656656,703.6672632912316,461.86045257524063,779.9946398144219
1731306221.7106614,682.3902810881586,713.8597759373157,474.21225126480925,781.6344788681516
1731306221.7117732,691.688768659202,731.0244267597684,538.4735760516503,783.2665161070057
1731306221.7156744,699.7057748471669,746.8820768097888,595.3451794420266,784.8906637268302
1731306221.7195754,705.4379945862937,755.2655960105635,589.6058123912564,786.5068395952728
1731306221.7203057,709.9294864278913,755.5717719848038,520.418475598706,788.1149664746641
1731306221.7234766,714.4119329325333,751.8803982656239,444.92134032096584,789.7149714644269
1731306221.727378,719.4150482870867,749.4340096708738,430.6479147244131,791.3067858366418
1731306221.7278607,724.8316021766684,751.4743782933612,498.8929062435567,792.8903450919938
1731306221.731279,730.3462082410347,758.0856762410525,609.579019104648,794.46558903105
1731306221.73518,735.7506210547001,766.8598222817009,699.3164853795212,796.0324617561521
1731306221.735877,741.0126182228873,774.5662897301695,735.5801396369841,797.5909116154625
1731306221.7390814,746.1957242047845,779.2168354744938,738.2289183365375,799.1408911053325
1731306221.7429824,751.3649151354288,781.745596479768,753.6417315206545,800.6823567036623
1731306221.745448,756.5451948479606,785.9254825691817,810.3653249813208,802.2152686080552
1731306221.7467294,761.7287722198539,795.481493473947,897.0125312431184,803.7395904573114
1731306221.7468836,766.8986421250962,809.5667886123657,977.156444921007,805.2552892692527
1731306221.7507846,772.0444831202427,820.4219339312148,1021.7180547975788,806.7623358414331
1731306221.7514484,777.1653195900091,816.9204700484413,1028.5105885551789,808.2607055183582
1731306221.754686,782.2648301914413,793.1875737831419,1015.9228071389002,809.7503785615547
1731306221.7585871,787.3464231802027,755.7043951185825,1002.4209833348341,811.2313389160637
1731306221.762488,792.4112845068599,721.5437082312476,992.9074200524007,812.7035708946906
1731306221.7655978,797.4589241488438,707.2997878828274,982.1054145710768,814.1670556941691
1731306221.7663894,802.488465942918,717.2586781968151,967.2946842529261,815.6217724434417
1731306221.7670195,807.4994696636501,741.0319680105977,954.8329612661156,817.0677081334723
1731306221.7702904,812.492047348758,762.5540521982708,953.025577621851,818.5048736388101
1731306221.7741916,817.4665769600055,772.0455903956627,959.2588273201368,819.933310487077
1731306221.7780929,822.4233510224919,770.6969205452078,956.5933008173863,821.3530661308571
1731306221.7802346,827.3623459630252,765.7569058729935,926.4880880008099,822.7641317583304
1731306221.781994,832.283219395288,762.5826005305062,867.8171351200217,824.1663832293461
1731306221.7825909,837.1856316974975,761.2865203181757,804.362217654354,825.5596150245516
1731306221.7844665,842.0698522653587,759.414058900799,772.1748327453262,826.9437411269706
1731306221.785895,846.9372350078286,756.1891201295667,796.0581856647872,828.3190921491113
1731306221.7897964,851.789770304772,753.7474073764284,873.7160552363736,829.6865043447145
1731306221.7936974,856.6281594541194,754.8819994066185,978.5412688428387,831.0467949414563
1731306221.7975986,861.4492357225874,760.1261449631888,1076.1082579847543,832.3995723442639
1731306221.7981622,866.245593459952,766.866626757006,1140.6918731859848,833.7422284073903
1731306221.8014996,871.010883102168,770.919810432898,1162.6559482744049,835.0708191385157
1731306221.8033347,875.750591094845,769.1298690682672,1147.419974941899,836.3840585298975
1731306221.8054008,880.4899142746483,761.1983957283304,1111.0393211113806,837.6887492112478
1731306221.809302,885.2634296238068,749.7506473453499,1074.5225523609042,839.0006610155892
1731306221.813203,890.077423818971,738.8044201982545,1055.789331273482,840.3335406702977
1731306221.813733,894.8633620410428,731.7064718424092,1060.237821260746,841.6764813073621
1731306221.815021,899.4783425583588,729.7813989643424,1075.9379795466057,842.9770981586236
1731306221.8171043,903.8140798584702,732.3023307095035,1080.239694331791,844.1626381858086
1731306221.8210056,907.999573389789,737.4226005062965,1057.0257906561978,845.21855978168
1731306221.8222032,912.525946698691,743.1583366018937,1012.6834855518717,846.286287529087
1731306221.8249066,918.0051226783532,747.7763209453201,975.2678701563912,847.6625492736849
1731306221.8288078,924.4163033139993,749.7190997673264,972.6782598667675,849.5678631793813
1731306221.8293047,930.2220032631005,747.7358186385908,1005.5218125539282,851.7057513745507
1731306221.8327088,932.3604231807457,741.603532477714,1040.254846388584,852.9489474909668
1731306221.83661,927.9641507849207,732.9215989585534,1034.408627004122,851.6944879443708
1731306221.840511,917.0183857071639,724.9031544261924,976.2313564526554,847.0648806259715
1731306221.8410718,903.3579889306012,720.6914586557493,902.8420371735451,840.143850373425
1731306221.8444123,892.236158564697,721.1555961708606,875.0024323804139,833.819801947717
1731306221.844876,886.1911922347542,723.9807221691527,924.6496272339026,830.772547433632
1731306221.8483136,883.0596088525687,725.0978724768034,1019.8691927000473,831.1130946020229
1731306221.8498075,878.03663622577,721.5858569764115,1082.2746322868527,831.9591710693489
1731306221.8522146,867.8657399607068,713.8271179181378,1048.0602859600551,829.6713516490512
1731306221.8561158,853.5008054659895,705.1914622598907,923.0074384927889,823.0069592966894
1731306221.8599403,839.2718118083366,699.4768480155749,781.8798402519783,814.4524594948507
1731306221.8600173,829.6770772108515,698.1087888421266,708.5259006772358,808.4505101880699
1731306221.8604472,826.5533700349556,699.2699980689524,726.7136641325313,807.8992957465866
1731306221.863918,828.569626768384,699.6114828106963,783.3771367633052,811.8374923633561
1731306221.8678193,832.9611499140149,697.167174358867,800.5176381955786,816.2522800746065
1731306221.8717206,837.8464848621895,693.1140124730028,748.6440337748954,817.241321214076
1731306221.8756216,843.2171248273881,690.9185684300203,673.7113711830802,813.695588796029
1731306221.8760183,849.8027306914635,693.5560157776338,653.2378631492364,807.1996519259037
1731306221.8788087,856.8619312342817,701.100098366854,724.1401134587317,799.5868751100638
1731306221.8795228,861.1812693788754,710.6313438879979,849.6663056687432,790.9143304680144
1731306221.8834238,858.8347890015904,718.4038801951659,953.1661510011411,780.1332777058127
1731306221.8845942,848.7342206448169,722.3626173530981,983.7262547075329,767.7920953634978
1731306221.887325,834.8387132400725,723.0030955180328,953.2344112433393,757.6655508432655
1731306221.8912263,824.4169872422993,722.1404801234061,915.7783145744534,754.8719674030548
1731306221.89159,822.959746883391,720.8917234598088,913.7736272355598,761.4325186146162
1731306221.8951273,829.5449171269805,718.6363560609857,940.9506770263446,773.1895467585438
1731306221.8976772,836.6891836960449,713.7360937811837,951.8200635862232,781.5133533256027
1731306221.8990283,835.4570046188861,705.327127019809,904.2770298809813,779.3090535872624
1731306221.9029298,822.3179726284635,694.6709506872418,795.5273839321002,766.7805610922908
1731306221.9068308,802.4443621039336,684.885902230701,661.4961795511796,751.9938027136466
1731306221.907161,786.5291460864005,679.1350966247956,544.2635543103895,745.2914252197288
1731306221.910732,783.1565357330715,678.617018515448,459.63024900682495,751.8166173650832
1731306221.914633,792.3997095404075,681.9268146585948,393.7801712738531,768.1745567046287
1731306221.9165456,805.6300798102739,686.2219220097392,328.41579339169,785.7351374199848
1731306221.9185345,811.87614952967,689.1105177017271,266.6941858377786,797.2584990887489
1731306221.919381,806.0015108663715,689.7207089848263,233.7952225650676,801.0218723173399
1731306221.9224355,792.4202995067519,688.375359749529,252.83922456461772,799.8784840391312
1731306221.9227324,781.3860134590008,685.5973716184094,320.73825178723496,797.6438946665235
1731306221.9263363,780.7037710638824,681.5107415844732,406.39372563243586,796.4825748835643
1731306221.9302378,789.4596516345139,675.9854687293887,470.926318366815,796.6007371046611
1731306221.9341388,798.7779007505599,669.0837888073621,491.1239825323149,797.2678356532787
1731306221.935414,798.8257893054283,661.2859257853075,468.8924598451937,797.8181772318999
1731306221.93804,786.2762763780871,653.4069988458659,424.30211484988223,798.0335139074757
1731306221.9383037,766.5664781382942,646.4041543110045,381.18529054058484,798.0255073946834
1731306221.9419413,750.0061557255743,641.1997099202581,355.1263793488774,797.9782901806228
1731306221.9458425,745.4203093784373,638.5155329457377,348.9770310506767,797.9922768771999
1731306221.9497435,755.748030385368,638.7371810098249,356.092847915884,798.0692586667487
1731306221.9536448,777.3671143829281,641.8656467112189,367.4553330516934,798.1675940276789
1731306221.9538748,802.1457867380858,647.5440431674917,377.27978737864623,798.2530619517473
1731306221.9541671,820.5125436163506,655.0984298369692,384.26650496247635,798.3160819902914
1731306221.9542828,824.5730111911066,663.6281306592903,389.69158174134134,798.3637197050194
1731306221.9575458,810.7608943072144,672.263940021981,395.0875703107733,798.4058490847654
1731306221.961447,781.2263350656201,680.5673348812911,401.12232943083035,798.4474490614964
1731306221.965348,743.1607409052363,688.784356205847,407.66913091262967,798.4883510384884
1731306221.9692492,706.2005495969513,697.6590528892307,414.3370979884132,798.5263504682378
1731306221.9694462,679.1370808327705,707.8609169867811,420.86550415328907,798.559824703981
1731306221.9731505,667.2788613666381,719.424014022209,427.212351320701,798.5885028775396
1731306221.9731512,671.119086005991,731.5450206494166,433.4559244262096,798.6129497745576
1731306221.9770515,686.4382084830635,742.7475013766978,439.6773828624939,798.6337995554892
1731306221.9809527,705.8935708711832,751.2298117133809,445.90853357561593,798.6513482520322
1731306221.984854,721.8741320419,755.3393863170048,452.14024486632337,798.6655779282947
1731306221.9850175,729.6155018770456,754.2409042603925,458.35166435164876,798.6764230863831
1731306221.988755,728.9709238182401,748.6386334754056,464.5301202074484,798.6840560458006
1731306221.9889538,723.7180514752146,741.034507103289,470.67458067904903,798.6889873553511
1731306221.9920197,718.8104709682531,734.9863588654262,476.7898847004248,798.6918070130059
1731306221.9926562,717.4310882211585,733.4459584468616,482.8806146662042,798.6925610901433
1731306221.9965572,719.8243434587254,737.090474584273,488.9486515955123,798.690169330089
1731306222.0004585,724.4608160734364,743.8288471665355,494.99384534853624,798.6827302075181
1731306222.000589,730.2385288196797,749.9822899123458,501.0155954071958,798.669410611362
1731306222.0043595,737.6933803608911,752.4577563525531,507.0138061038091,798.653269088396
1731306222.0082607,748.1757270800613,750.4835919173042,512.9889432443257,798.6421577073052
1731306222.010888,761.7797166273057,745.7678937129771,518.9416749882597,798.6438540231953
1731306222.012162,775.9581381576628,741.0647872596276,524.8726453306713,798.6548503034318
1731306222.016063,786.302139227337,738.241665990325,530.7825945748168,798.6506822133371
1731306222.01616,789.2253116762953,737.1999175877919,536.672628837697,798.5938964368669
1731306222.0199642,784.5620004252827,736.2519604007291,542.5441798583481,798.471475319261
1731306222.0237403,775.8358802309448,733.4488202931486,548.3982965470998,798.3464018111752
1731306222.0238657,767.6919172451958,727.7991569264019,554.2345196383931,798.3671994545618
1731306222.0277665,762.5122108932553,719.6833672828411,560.050511011152,798.6659436000339
1731306222.0297563,759.253704214822,710.5393090798934,565.8440016881323,799.1454005084626
1731306222.0316677,755.71394372496,702.274188662261,571.6172828235027,799.3187076959018
1731306222.0317314,752.1039064451977,696.6323041633804,577.3810573290715,798.5075933473641
1731306222.035569,752.2234746824206,694.4922895268604,583.151190516549,796.596580549082
1731306222.03947,760.6000908264473,695.2930822251324,588.9336628269207,795.0150348004906
1731306222.0433712,777.8847968447594,697.1470245353058,594.7039534505642,796.9161660615061
1731306222.0472722,798.7171415955211,697.9208971978634,600.4034421920456,805.5181083615927
1731306222.0473027,814.2835457584979,696.6597881473415,605.9806418741267,821.1051539186753
1731306222.048625,817.8892590146278,694.1996623483209,611.4768105496713,839.250893017432
1731306222.0511734,809.5228173222574,692.4214268515594,617.0904264093413,852.6261364493796
1731306222.0550747,796.1868286970632,692.8057108471613,623.0989683455996,855.5837323075561
1731306222.0585268,787.6623479400689,695.5052255765041,629.5630696723381,847.8474425656896
1731306222.0589757,790.30995457441,699.5426051729498,635.956427339628,834.231585818489
1731306222.0628738,802.8107917611948,703.6918208412573,641.167139826591,820.693608813942
1731306222.0628767,816.6691824018943,707.1807404529233,644.3802036027616,810.0312898409369
