timestamps,eeg_1,eeg_2,eeg_3,eeg_4
1731304522.5886996,619.5495177071718,893.4568279088201,1220.629084010504,604.5284194308023
1731304522.5926008,580.7561675294746,899.3694379242284,1193.264951065058,597.9734936381117
1731304522.5965018,559.3328853608093,904.4106963859128,1167.0138245783387,602.4324529244592
1731304522.6004033,560.6194448606241,909.9319493098541,1141.6574672179545,617.7561553486121
1731304522.604304,575.0003721883692,918.2312617552665,1116.9412225735214,630.5127707161737
1731304522.6051087,585.9215611438548,928.8900094278181,1095.683325522439,623.4484079889415
1731304522.6057265,581.9769193179222,937.4875223737612,1085.9516022161802,589.7125059293262
1731304522.6082053,563.683546528166,939.3436014710176,1099.3302918090951,540.3065012993153
1731304522.6121066,540.2577549612652,935.1911570094207,1145.5095556404133,497.3091468431575
1731304522.6151886,519.6831164765434,932.8142645510026,1227.3504169003058,476.7072358647611
1731304522.6160076,500.6588771223888,942.1552846362072,1341.252039621806,474.5197335516184
1731304522.6199088,473.4530925806693,967.6825749889485,1483.2185375689542,468.82973573979706
1731304522.6206667,429.0393633706104,1004.4822969955393,1654.6153851121953,437.4010218738543
1731304522.62381,368.32684442448675,1041.1745256933182,1860.0688884735214,376.5075578238753
1731304522.6277113,302.813762286645,1066.9725222608886,2096.955522932176,304.7078449617684
1731304522.6316123,245.72250176687248,1077.3421193118538,2345.704900387575,248.0203245483392
1731304522.6340473,201.738642698185,1074.6752587946896,2571.8307651283453,218.99691722011016
1731304522.6355133,165.047558832473,1064.7209597945814,2740.8671886647717,207.29672249337636
1731304522.6362247,127.55706503093143,1052.3920155195829,2835.6102688706196,189.48380582956258
1731304522.6394143,89.40432408001402,1040.0388386642492,2863.0519784045637,149.78067157258488
1731304522.6406667,61.482474544625575,1028.407173614062,2847.2945227079617,94.59443896563164
1731304522.6433158,56.971205132528326,1018.1114838556098,2815.1795458749766,48.64395981264852
1731304522.6472168,78.96029485691349,1009.675658052466,2784.602150050322,35.43581449683779
1731304522.651118,115.20914502896824,1002.4769219061482,2761.1004357998345,57.988807917888835
1731304522.6517825,145.4764700361793,994.5729145603883,2741.834755964296,96.15663500283654
1731304522.6529057,156.26785948004112,984.3688675471949,2722.312967826241,123.33886074176326
1731304522.6550193,151.01125802038985,972.4910750352981,2701.191236366075,128.597293611591
1731304522.6589203,146.70382401790312,961.3560479308398,2680.7457429746855,124.99908964835538
1731304522.6628215,159.28114870586546,952.3456795806028,2663.4585729250693,136.82462319644696
1731304522.6667223,190.11445013253353,943.6720635742955,2647.348192945526,177.04789872149308
1731304522.6673405,225.60996870394615,931.8537758946237,2623.3625001212877,235.12930015083293
1731304522.6706238,250.36097012197956,915.7571796663997,2577.069275894469,285.7014384045664
1731304522.6717644,261.99061131763153,898.7477835938873,2494.5162719939253,310.1612963708835
1731304522.674525,274.30221374162056,885.9382789000244,2369.5539216175594,312.4470284342717
1731304522.675607,305.9330482876836,878.7236579416095,2208.4430826758316,316.06606039697306
1731304522.678426,364.41933119545564,872.1847170440794,2028.4488211053024,345.44469429369025
1731304522.6823273,439.21837368216666,858.6021691097512,1850.5581118802247,407.0805917482188
1731304522.6828983,509.37033599249224,834.3647976331536,1690.5102144769537,485.4881067054756
1731304522.6862285,559.3801563559371,803.9632947193232,1553.6708561126775,556.7264444125481
1731304522.6901295,590.4541355096669,777.182446798692,1436.3973873743644,608.0510364460845
1731304522.6906228,618.1711704034192,761.6873115690199,1331.810309583208,647.1240576380814
1731304522.6940308,658.6395828833586,757.1906910850436,1235.3457651775914,692.8774857216247
1731304522.6979318,714.5110117821783,755.8926557623902,1146.71611027495,756.0082016280846
1731304522.6984563,772.3145111586944,748.6524154160447,1068.1487292249583,826.551311700028
1731304522.701833,813.1527478943913,731.9463010953403,1001.2763121540783,880.0382923062027
1731304522.7057345,827.7861266276827,710.3172416719408,945.3868244703376,897.3128706988971
1731304522.7094817,823.975826299308,692.6240424899102,898.0992084678645,881.07199184371
1731304522.7096353,820.8802119400851,685.1384866602282,857.2912918520685,855.2550450238717
1731304522.7105472,835.5781294915478,686.8842835286362,822.1459698277661,848.009102841951
1731304522.7135365,871.886993059602,690.7312812880042,792.4280576468135,871.9320971964223
1731304522.7140143,918.8205105335326,689.1088758781808,767.276353461596,916.5071489859006
1731304522.7174375,958.8798531321654,679.615173989908,745.3526491805469,957.6297903962306
1731304522.7213387,980.0899181328842,666.230106365864,726.2737268504304,976.4271092589327
1731304522.72524,983.6009386147558,655.7033822835372,711.1545776440823,973.1890258705879
1731304522.72834,981.7454553760344,652.4741414129553,700.7236118691816,966.1399726775703
1731304522.729141,988.1265933323169,656.0861369424384,692.5341835263284,976.1593752481148
1731304522.7295723,1007.2898899518311,662.4857929306197,680.7092433973833,1009.3821815850894
1731304522.7330422,1031.9514123967592,667.4686347910126,659.7334473799808,1051.5419732144283
1731304522.7369435,1049.7216872002193,669.4001178453108,629.6178832594944,1078.8193722003539
1731304522.7408445,1053.5955673349156,669.5289063831332,597.6073385647637,1076.6952073992818
1731304522.7447455,1047.6890556330638,670.2360356451717,573.9729392172236,1051.7888283613001
1731304522.7451303,1043.924668931454,672.8094100783334,564.4648606491263,1027.3451846351745
1731304522.7454877,1052.645962467798,676.26806546063,565.2639737058196,1025.9890019101804
1731304522.7471986,1074.5635443961319,677.8531562867161,564.8066380898109,1053.014009659947
1731304522.7486467,1100.125052107435,674.7816640172737,551.6420076641015,1092.7839748040078
1731304522.752548,1116.7776118695456,666.1966616117811,522.600191160642,1120.8931459449313
1731304522.7564492,1118.546762633228,654.1539231844317,485.0240830165137,1122.7673429191836
1731304522.7603502,1110.1648460176941,643.0156780522738,451.3499094939935,1104.044127193792
1731304522.7606883,1102.0046598728666,637.5459730952628,430.3481349185797,1084.2591044601345
1731304522.7642517,1100.014792982969,640.7353792013748,421.76257114006086,1079.353343985457
1731304522.766057,1099.9238189473208,652.4356735339506,417.910049185561,1088.5838292880244
1731304522.7681525,1091.6225133416895,669.3569971728167,410.07506856176565,1097.5770979288136
1731304522.7720537,1070.068504693464,686.3566285428728,394.2959430932536,1094.1273115609185
1731304522.775955,1042.3719449090527,698.5014747505531,372.62870340971796,1081.1568907942547
1731304522.776246,1023.8244382640096,703.0911067596035,350.1073030281725,1074.0843103392997
1731304522.779856,1025.768493122297,700.7569083146451,330.61003033897623,1085.042272032842
1731304522.7804277,1045.7227433680027,695.1059418456764,314.6827797671476,1109.1466525316384
1731304522.7837572,1068.352640225734,691.0776673886179,300.0382333490283,1126.2394867843263
1731304522.7849157,1076.806902035078,692.78813708301,283.4306097283146,1117.3301322278567
1731304522.7876585,1065.4923436803927,701.7918701023237,262.41137489347255,1081.632246417069
1731304522.7915597,1044.12024002707,716.4381483951805,236.4670249458935,1039.264836172994
1731304522.791804,1029.652468867038,732.5802384025708,207.6003353113622,1016.6330647457722
1731304522.7954607,1032.5030429685169,745.4399618365917,180.020544363284,1026.0019378877232
1731304522.7993617,1048.3374038391523,751.9517990536465,158.37281058586734,1055.8518673829471
1731304522.8032627,1062.50884588139,752.5321614520842,144.9301063676312,1079.9853047814568
1731304522.803774,1063.5775457681964,751.2228849355529,137.6621754081392,1078.0104378383871
1731304522.8071642,1054.338214698347,753.7743221271907,131.15564904513985,1050.6046839317555
1731304522.807362,1050.4736663239064,764.3588113588887,120.2713679694591,1017.6599069323194
1731304522.8110652,1067.2095724428664,782.6768609262316,103.92354177316577,1001.7236398914765
1731304522.8149664,1104.65428627604,803.418818032578,85.97498688331734,1010.6288738640903
1731304522.815368,1144.2620953213373,818.883623878443,72.54159421593829,1032.682002080685
1731304522.8188677,1160.40401226201,823.4980656520477,67.92368452468725,1046.9435228190046
1731304522.8226328,1138.946036089596,817.4214570209461,72.29916472187983,1039.64504653394
1731304522.8227687,1088.6687763371601,806.7014165715603,82.56658630281675,1014.222650058457
1731304522.82292,1036.3729327829801,799.6359679431383,95.07078907629273,988.142747444913
1731304522.82667,1008.8833704607142,801.6428437233677,107.70455544833044,979.5086673159594
1731304522.8305707,1015.1927642570197,812.0895131715441,119.87804158598522,993.496364878159
1731304522.8344722,1041.723840560564,825.2291448003906,130.95554097301783,1018.5447495706474
1731304522.8383734,1063.4369851455322,834.4526062397701,139.09604734789832,1035.0302077776646
1731304522.8384778,1061.6328181107326,836.6720162445052,141.9358060114023,1029.768276487843
1731304522.8414912,1035.1666409355264,833.6933443343396,138.71880574461557,1005.1672349665453
1731304522.8422744,997.9488666203913,829.9106472088913,131.92142447380058,976.1141217316181
1731304522.8461757,966.3452000273967,828.5199864962209,126.57096233971481,957.5438104031768
1731304522.850077,947.0423502707441,829.3533715599642,127.3715904373637,953.0395352964664
1731304522.8503082,934.5769257270011,829.7765136104421,135.82102219946182,953.6434934560926
1731304522.853978,919.6432518824928,827.4640980675367,149.70619904567207,947.4150763746175
1731304522.854036,900.5094893551972,822.4990299482308,165.286536652599,931.3190103108152
1731304522.8578792,887.0436349162383,817.113968735978,180.04472515450948,915.0171870434305
1731304522.86035,892.7757534767406,813.5893727357134,193.58214467789935,912.7880433827688
1731304522.8617802,921.047082545684,812.4335958532279,206.34577628625277,929.9559185089842
1731304522.8656814,957.7188785669337,812.6120344128975,218.0740184464429,955.587622347231
1731304522.869583,978.5812162510563,813.5214521151726,227.8014394801063,968.7958753564964
1731304522.869594,967.0991444399656,816.4995938947077,235.2339798991274,954.730807891399
1731304522.8734837,928.2506671395251,823.9094024576243,241.7172012460864,917.5733031154035
1731304522.877385,886.4061040772634,836.2743091087777,249.5540659186534,879.438671643515
1731304522.8792086,868.144644822082,850.2209858322481,260.2524420900325,865.1180174242877
1731304522.881286,883.275936259831,859.642826882783,273.3346962479792,883.9242420983369
1731304522.885152,918.5324181581833,859.652464850921,286.73572297658643,922.4096348975504
1731304522.8851871,948.0720199595996,850.2455678304985,298.42590085770325,953.6607683584025
1731304522.8852484,952.1599865443317,836.6709009351189,308.00239056382947,956.551697316259
1731304522.8890884,930.0102957505793,826.1790751677621,317.09154783222294,930.7984315215042
1731304522.8929894,897.9519035628128,823.6271498366701,328.2489118595594,896.4591746689666
1731304522.8968906,875.3742156681675,828.9745483369234,343.102654607563,878.0249620975669
1731304522.898067,869.9580748164831,837.9089288882858,361.1077861508398,885.202515103677
1731304522.90071,873.76352335317,844.617996932874,379.90499053935497,905.4819188437132
1731304522.900792,872.5371775882488,844.8150658673486,397.0244334413069,914.543408612518
1731304522.904693,859.4319973736015,837.5309158132048,411.54562591563166,896.2424721072017
1731304522.908594,840.8637517718764,824.9892328675203,424.4000615698638,856.023481728256
1731304522.9124951,829.7477878154912,810.7815747519512,437.25941057332716,816.9189636268836
1731304522.9162676,832.9596709950839,797.6075350584565,451.1518616888646,801.4797312136955
1731304522.9163964,844.7058201567161,786.3199699467527,465.94482590005197,814.216325190277
1731304522.9169257,851.4921248622204,776.9664419239309,480.8163584233112,838.3657206347758
1731304522.920189,843.8740678568543,770.5592514966647,495.013602846392,849.2209593993052
1731304522.9202976,824.8302441542871,769.4907711599801,508.30162906841224,833.4180805068564
1731304522.9241986,808.0967746844265,775.8874422766055,521.0737639328061,799.1586276290711
1731304522.9281,807.9465352848583,789.3508956490105,534.2826980812729,769.3703959499816
1731304522.9318256,828.0446873522643,806.1992797234985,549.093062338155,763.099257313909
1731304522.9320009,857.4878824274961,820.9565369561685,566.1054237678514,780.042567619833
1731304522.935784,877.3587691060834,829.0086559675336,584.4782137042071,801.1566953718178
1731304522.935902,874.0161797856447,828.7290977444951,601.7263929384914,805.3740047674224
1731304522.9398034,849.9599144227894,822.0544051456733,614.6952863827321,788.6485822864137
1731304522.9437044,823.5195751977172,813.4362075368555,621.2900204895446,768.6938043946625
1731304522.9473836,816.1207592140612,807.6936013566451,621.8260332732801,770.3042821447934
1731304522.9476056,836.0015803630956,807.702702783932,619.0342746412813,802.9961614090429
1731304522.9515069,871.4149578557332,813.1105696533594,616.7022704293507,850.2533576222453
1731304522.9546428,899.5367430432062,820.8702326597083,617.924853120312,880.6715357921931
1731304522.955129,904.3131433338851,827.2551631530323,624.1663058589729,872.862979888493
1731304522.955408,888.6381595995488,829.970396556768,635.5208843801945,833.7405502781867
1731304522.959309,870.7763109283663,828.9971745167139,651.3642927090989,794.3824497462814
1731304522.9629416,868.0990524622623,825.8485231936595,670.267987144448,785.8093102896662
1731304522.96321,881.8039182407877,822.0414624112973,689.1691913296814,814.0157638480773
1731304522.967111,895.4837495602683,817.9880777177227,703.2487637543308,855.0115322678851
1731304522.9710126,888.906332864522,813.0526162039409,707.8701471786826,874.3491682750557
1731304522.9735012,855.6691871655196,806.6237989676857,701.8626565531557,854.9703649417081
1731304522.9749136,810.0419432058823,799.2932296374877,689.4129574079335,810.222024248012
1731304522.9784994,777.1106293600376,793.1136324213556,678.2990867350027,771.8475377793374
1731304522.9788148,773.9986171065691,790.5781628503821,675.1547603237335,763.9804831118272
1731304522.982716,797.175323303172,792.9887644128818,681.2082229827797,785.0317807009158
1731304522.986617,825.8014720213034,799.4530904830392,691.862554943177,811.3648217438806
1731304522.990069,838.0327012186924,807.3037632579261,700.538334456157,818.0136502953656
1731304522.9905183,827.0410814032911,813.5849220630582,703.8429163300285,798.636627870501
1731304522.99236,804.3792777747034,816.4523532909516,704.0724110931492,769.2048927886528
1731304522.9940574,788.9687443697123,815.6456364169302,707.1147817575389,753.9401855075741
1731304522.994419,791.3687675766984,812.186407460911,717.4408171839849,765.6500500235268
1731304522.9983206,806.0720069903837,807.9587902120626,734.2513943188314,795.876500319397
1731304523.0022218,817.4284312596477,805.3394280022809,751.9768438208106,821.9188641601045
1731304523.0061228,813.5305548164425,806.4039018576109,764.692473745841,824.7180043258601
1731304523.0096154,796.1999751103303,811.5454485391634,770.6468202434163,803.5477799184501
1731304523.010024,779.0306047569853,818.4411733429707,773.0848312371606,776.3024604879158
1731304523.0112183,775.7191205569941,822.7711757475458,776.9489655950797,765.4796212146493
1731304523.0139253,788.730265281526,820.9339000582503,784.6192242160755,780.8455813487237
1731304523.0178263,807.4353720864351,813.0234895982106,794.3330418368214,812.003295319511
1731304523.0217276,816.7611290645992,803.5607876011311,802.226675649359,836.367517626029
1731304523.0250092,809.1679731706456,798.987625421662,805.8561058353342,836.418837439218
1731304523.0251734,790.634181486995,803.5700665680498,806.201036158525,813.1066592236467
1731304523.0256286,776.1811462800631,816.7175680982367,806.7563003264595,785.0280610091883
1731304523.0295298,778.3466465133085,833.5764539685978,810.6845972846654,773.7559289180998
1731304523.030077,797.3018797190965,848.1823736715198,818.3591196371025,786.6643715688393
1731304523.0334313,820.3033618055018,856.6963807517805,827.215550198061,811.158259310373
1731304523.037332,831.2783600162304,858.6032936761374,834.0261698305717,825.4652780802654
1731304523.0407312,823.3334744948066,855.6277700615045,837.7326174578731,817.3552901239109
1731304523.0412333,804.2321714684014,849.8271920022588,840.4032198343375,794.8588549887603
1731304523.0451343,790.2628215557924,842.5569648876552,845.4412495527255,779.3777718403096
1731304523.0489354,793.3952492751787,834.7994150228544,854.6479872216181,786.827398904326
1731304523.0490355,812.1151858477002,827.884776311088,866.7463994847374,813.2192430262493
1731304523.0529368,833.0572219425037,823.2845611159204,878.4363566544758,837.3923655421141
1731304523.0562892,841.6321079200844,821.3146461885005,886.644442091707,838.6192448635773
1731304523.0568378,833.0424385088074,820.1300474423028,889.9221118832484,814.0846367525686
1731304523.0599494,815.4943841693783,816.5786550482757,888.3949754257787,781.7559416839227
1731304523.060739,803.7094964937221,808.7724284323269,883.2340024129769,766.5857664900395
1731304523.0646403,807.8072906753604,798.2188122915957,876.487547834004,781.2126874913298
1731304523.067794,825.7147098338797,789.3038449303998,870.8951274240243,816.1039068404705
1731304523.0685413,844.7713070291784,786.2183809179863,868.9428521126938,846.5682629976619
1731304523.0718472,851.5188440527922,789.8558485285996,871.465528634275,851.3795494982392
1731304523.0724423,842.0770481743302,797.2666520016107,877.0663505472029,828.8910949617659
1731304523.0763435,824.4338655242371,803.90757567506,883.1035761178018,797.9712440125968
1731304523.0802448,810.4650142084442,806.6134286774342,887.5121246039721,782.5720452235026
1731304523.084146,804.7382675501027,805.0687584622927,889.9736653256878,792.0815276463669
1731304523.0866525,800.5782018577404,801.2505556868198,891.650834150287,813.7259725174224
1731304523.0874052,787.5015973799868,797.8973214530981,893.9697457710722,823.7309871524487
1731304523.088047,763.4220124872585,797.2606652962115,897.5316780450644,808.1542224915935
1731304523.0919485,740.010204821741,800.5877146669468,901.8531657795493,775.8126529501319
1731304523.0948896,735.2490006390314,808.0430566013147,905.857487186994,752.09805599974
1731304523.0958493,758.6748072823493,818.6763425809388,908.5571103035184,758.4621042271924
1731304523.0997505,801.8079636749237,830.4061983600502,909.4413611130003,794.4553332281176
1731304523.1029632,842.4122044440461,840.3426751494826,908.5076903158767,837.1904564572436
1731304523.1036518,859.6598245084778,845.7141803214533,906.2006517831832,858.6881303052228
1731304523.1055112,848.0734426389383,845.1486302969325,903.4492326825095,846.927702909981
1731304523.1075528,819.3476505489676,839.5159795184953,901.6510264187496,813.7513959888203
1731304523.111454,791.7375293764965,831.6165579686293,902.2811292364639,783.9721355785781
1731304523.1153553,777.031115061109,824.8337140906116,906.0864719069889,775.4563671155903
1731304523.118521,775.5610533426535,821.7012499166957,912.3415139971032,786.7230476618466
1731304523.1192565,780.6461168161233,823.2381576817925,918.8441066866424,801.3984979979349
1731304523.1231575,785.7590141234717,828.9873094224607,922.9147196657213,804.2671695557368
1731304523.12437,788.2001130018946,837.1396342019009,922.9140854099734,794.3628414598325
1731304523.1270585,788.5169995024739,844.6618513293872,919.3393194697094,784.2382602119981
1731304523.12983,788.2831270979862,848.1309219308289,914.7704741891883,787.2643137997326
1731304523.1309595,788.5205975466598,845.6080369716872,912.6327642535464,804.9324116235598
1731304523.134079,789.3727751682243,838.4221791619713,915.4131515495332,825.1570799197711
1731304523.134861,790.5145985771732,830.9744028658873,923.2530008980366,832.3369469692201
1731304523.138762,791.6222729391733,827.9953007282116,933.6637634565014,820.0264036024665
1731304523.1426632,792.5745763501874,831.0889475094078,942.5908857971401,795.722488505331
1731304523.1432283,793.4128848435952,837.3786266841029,946.3700740119757,774.5392868480435
1731304523.1465645,794.2224208469477,841.4633550838569,943.5752165298592,767.4990677274786
1731304523.149637,795.0538265931675,839.1966117929568,935.7031920638688,773.7174899869551
1731304523.1504655,795.911069468796,830.4832425851853,926.2439118705408,782.0948983856493
1731304523.1543667,796.775415303329,819.2876547553444,918.6691218594933,780.7888095155134
1731304523.1582675,797.6299257565321,811.1848416335437,914.5801294691345,767.1055806211509
1731304523.162087,798.4688729668785,810.2607800101737,913.121043493342,750.2407197940306
1731304523.162169,799.2947842928942,817.1273756605079,911.8772507833283,744.6044483373703
1731304523.16477,800.112011123847,828.7432912762425,908.5495597584527,758.5896103787948
1731304523.165195,800.9228218047073,839.7051788800115,902.3742527494107,787.3730486299736
1731304523.1660702,801.7270332675869,844.324209140352,894.5744700713332,815.6965252170272
1731304523.1699712,802.523417913645,838.896844111112,887.6703304211537,829.0841902024761
1731304523.1738725,803.3110104307184,823.5596639253156,883.9608079440052,824.9453179134716
1731304523.1777737,804.0895289666576,802.8972202126255,883.9083572836755,814.2367159920576
1731304523.1807528,804.8590664765761,784.5468586352232,885.4290534638592,811.5074314270776
1731304523.1809454,805.6195608727446,775.8853625785073,884.8627789965817,821.2294773688346
1731304523.1816747,806.3705132570291,780.2556860994731,879.4030046021688,832.5670090500554
1731304523.185576,807.1112449416286,795.044916285921,869.4544100582042,828.3163266000406
1731304523.189477,807.8416769241668,813.141089527704,858.9518045556642,801.2865035910303
1731304523.1933782,808.5630965386479,826.9953819309156,852.9676878739426,763.8487700839639
1731304523.1963108,809.2778567251752,832.5045168572241,854.1989915148235,741.1637164020544
1731304523.1972797,809.9871319620989,830.1653559781159,861.0856342525773,752.2135372584796
1731304523.1997104,810.6874647530973,823.3203774901523,869.0654774227162,793.6103399386429
1731304523.199804,811.369514319354,815.5102239841207,873.844735724995,839.8410595417048
1731304523.2011805,812.0237229081944,808.9815153684206,873.9929387898242,860.960695201673
1731304523.2050817,812.6538207703264,804.6824783379153,871.0176733281153,844.7043682729851
1731304523.2089827,813.2889316801818,802.6945608154788,867.3729328937866,805.7390677576676
1731304523.2118688,813.9748287228333,802.2683553462696,864.4352893828725,774.2852749520663
1731304523.212884,814.729397314781,801.7491029892968,862.0671395089873,772.7013509758108
1731304523.2167852,815.4795649330513,799.1771120999484,859.6380615191192,798.6038736925232
1731304523.2186625,816.0467798365113,793.6820141997267,857.0889367799467,828.0150666500405
1731304523.2206862,816.2664966612463,786.7308804034761,854.9439381218097,835.8091873158463
1731304523.2245874,816.2455772931304,781.9450032594227,853.5423175418093,816.7705765764581
1731304523.2274268,816.5658825981814,783.0403641112684,852.6000703528243,790.1807734871129
1731304523.2284887,818.0652035800024,791.0068842811862,851.654235088206,784.1186048939476
1731304523.2323897,820.9486661719757,802.6982941855305,850.7463851239626,811.9646055134228
1731304523.2346506,823.6198966716333,812.356467157307,850.3313040204603,860.0651344165387
1731304523.2362907,822.5153111398477,815.3387010083434,850.3161776138891,896.8470059478007
1731304523.2375212,814.3776915645049,811.2831150967091,849.286755374311,896.5437783631477
1731304523.240192,800.4832083164446,804.167567174849,845.0071143492919,858.8301298680311
1731304523.2429843,788.8223096889737,799.2308961607374,836.0463808409457,808.8374437641355
1731304523.2440932,789.7562344869256,799.3058834525881,823.1062243281501,777.8167002906245
1731304523.2479944,806.987310617157,803.4236010138795,808.6513553022318,780.2166298035118
1731304523.2518954,832.5895479232352,808.4166992642078,794.9367462480553,805.3272203257213
1731304523.255797,852.2128719190537,811.729532854822,782.1666774441965,829.0222484436955
1731304523.2563796,856.3165861177765,812.9690399403141,768.6367601810846,834.4669903990595
1731304523.2585423,847.3031374046625,813.2699826787295,752.9305331193142,824.2240557301045
1731304523.2596977,836.5717529466467,813.6487819342045,736.1352098288817,814.8516365530058
1731304523.263599,834.636046312262,814.2080599106549,721.7688934044352,820.3569002122019
1731304523.2675002,842.9521331365144,814.8629544366806,713.1841558612568,839.3885280535753
1731304523.2695909,853.8746510825578,816.5160030758054,710.7128067748472,856.5756302559984
1731304523.2714012,857.9722303316489,821.0638574045914,711.2102445066105,856.02804974228
1731304523.2741003,852.1367913217563,829.8075729604616,710.4693454902871,835.3340275847617
1731304523.2752385,841.9057339662321,841.6050256287677,706.3637936859996,808.5632767697414
1731304523.2753024,836.5411111725672,852.6860363766708,700.0760302155437,795.8170608757409
1731304523.2792037,841.2398295588109,858.7278711929537,694.6692339841512,807.5243615619346
1731304523.283105,852.9283536588472,857.6751452261495,692.5571418669389,835.9610718914615
1731304523.287006,863.0888052248084,850.9410618895394,694.0097389606443,861.0021177959502
1731304523.2896583,865.3700669918284,842.0321227081803,697.519420139803,865.8318003752785
1731304523.290907,861.6614970612894,833.9907580461266,701.1886017028409,850.1292649139709
1731304523.2940967,861.1121231622735,827.957249819566,703.7823065539088,830.0270663956328
1731304523.294808,872.1126780333384,823.7602224990065,704.8224033728895,824.700298890003
1731304523.2987094,893.5578988236111,821.3907135093704,704.0933435612361,840.2374422887226
1731304523.3026104,913.3772549792168,821.6459514464375,701.2909132844063,863.8158326911475
1731304523.304531,916.9590604517796,825.4055916275294,696.1696173504639,873.312411598965
1731304523.3052163,899.3867510314013,832.388836846473,688.9176465830011,855.3634226973363
1731304523.3065116,871.0011068781358,840.543080553088,680.2000301083469,817.7256042026374
1731304523.310413,850.5008059799402,846.5785872754905,670.6575590866724,785.3258574766633
1731304523.3129554,850.359317097525,847.4271822535424,660.3604039282486,781.7262206341736
1731304523.314314,866.588839855005,841.9552686717169,649.030861916867,809.985728256621
1731304523.3182151,881.8480739346935,832.0133975946472,637.20702976056,848.8974214774897
1731304523.3207743,879.6349854173714,821.9440761192926,627.336852782072,869.0901304922963
1731304523.322116,857.6834316855029,816.3516672248867,623.3287127407398,856.7442713631531
1731304523.3260174,829.4533503832054,817.2077893589195,628.1860016168363,825.1259059725312
1731304523.3299186,813.0641274863268,822.3063233047087,641.2933494825461,803.6236756807815
1731304523.3318138,817.548710558227,826.554807529902,657.7897856227358,813.1149930105919
1731304523.3338196,837.5878452651757,825.5488760409914,671.0559417796294,848.4224663594927
1731304523.3363323,859.6120095568835,818.8848488954885,676.6804909613577,882.5906410950483
1731304523.3377209,872.5966393525762,810.6267407385907,674.8474369120918,889.1306491100542
1731304523.339471,874.3858052185527,806.5106820856432,669.3527498173335,863.5114265102716
1731304523.341622,869.9348342654324,809.9831379061469,664.2769832208942,826.3844374371566
1731304523.345523,865.2442477088208,819.8686352167819,661.1316634661241,806.5841741372273
1731304523.3494244,863.0785374800398,831.006083635651,658.5826203532712,818.3958911335092
1731304523.3506725,862.9132505174673,837.1310688583345,654.5036312960918,851.4771686931452
1731304523.3518903,863.1357459778629,834.2160077305354,648.2922267299554,880.7077594682977
1731304523.3533254,862.746587623475,822.6280361320114,641.5070646588384,886.9591951997081
1731304523.3572266,861.6760622130096,807.1279972825379,636.563874697243,871.5778848210442
1731304523.361128,860.31124655779,794.5591655085293,634.8445249196114,853.2297836931862
1731304523.3650289,858.9981911320556,790.1760876554073,635.8139981889535,850.4453574186579
1731304523.3674483,857.8506158631849,794.5999545881525,637.6318185397505,864.9251914309114
1731304523.36893,856.8118862597911,803.3838539799755,638.4640886827324,879.9784468271137
1731304523.369531,855.7877812151937,809.6681542024005,637.3868672905285,875.6765724572698
1731304523.372831,854.7269425068049,808.3199548510129,634.4723974245918,847.7923250260262
1731304523.3744116,853.6286378247377,798.8802379857136,630.4469765934941,813.7313321250186
1731304523.3767323,852.5144531515044,785.43729329543,626.4069192070791,799.2910034690643
1731304523.3806336,851.4021760373739,773.6534891134078,623.6205428322443,816.6698223030435
1731304523.383006,850.2969417450064,767.1173646163398,623.1676760256577,852.4984877296803
1731304523.3845346,849.1953323484289,765.5807264929781,625.4269051831521,877.0089064975328
1731304523.3883896,848.0924817202844,766.1294584439258,629.798664903065,867.7281139335167
1731304523.3884358,846.9860319300498,766.0354636757057,634.9796367977684,828.3490638847676
1731304523.392337,845.8762632353117,764.8110627700253,639.6113405720148,786.858726928413
1731304523.396238,844.76449912197,763.9010743844996,642.7826382098311,773.9665131209545
1731304523.398564,843.6517705547408,764.6693184532919,644.056256997336,799.1403893405744
1731304523.400139,842.5384315866803,766.7902298521299,643.178456363324,843.5014046489446
1731304523.4040403,841.4244245494422,768.5324663879513,639.9000432127038,874.9642849405085
1731304523.4072485,840.3096472077601,768.480990238481,634.1738937466538,873.0561313834978
1731304523.4079416,839.1941115283514,766.9518992202459,626.6172613601739,843.574015957386
1731304523.4093518,838.0778977640545,765.8203369406124,618.844872360203,812.108580952877
1731304523.4118428,836.9610724414507,767.0106080790846,613.2440662256379,802.6292874940513
1731304523.414122,835.8437224743936,770.972024592635,612.0346473191299,818.8157182522901
1731304523.4157438,834.7261144325246,776.2898724844924,616.0026356716734,842.8461006867919
1731304523.4196453,833.6088018198949,780.5780388426914,623.7882169854151,851.766366196105
1731304523.423546,832.4924065372569,781.9138828820053,632.4729895446908,837.2673163113716
1731304523.4261067,831.3769685645011,779.8891799045484,639.2743923242425,812.3297070469158
1731304523.4274473,830.2612643074486,775.771607599049,643.1416142964438,799.6341498236726
1731304523.42968,829.143061641565,771.8373782694946,645.0245108927802,812.0541364797839
1731304523.4313486,828.0211864707758,770.2943940454212,646.7288745142195,841.7499413860745
1731304523.4352496,826.8987940368015,772.3151702673347,649.4875865828717,866.4875387955273
1731304523.4391508,825.7846817548348,777.6140679697137,653.4444719474287,867.3137298707985
1731304523.443052,824.6881348428046,784.7474411175522,658.1664258770408,843.088951888211
1731304523.444292,823.6062195160324,791.9263247259678,663.2731147469833,810.9014120246003
1731304523.4449654,822.5119793589151,797.8219609674143,668.3719787955914,792.8693394087912
1731304523.445238,821.3618956393067,801.8780848597582,672.5208684044526,799.7894347220633
1731304523.4469533,820.1373300319094,804.0390106149912,674.207529911971,823.768419124808
1731304523.4508543,818.9048114729887,804.2522690430891,672.3932935465746,845.0858130848675
1731304523.4547553,817.8326127117572,802.2313291811408,667.8728666339247,848.0064106085662
1731304523.4586563,817.081804154976,797.6704537837361,663.4580783690258,833.2935713938932
1731304523.460796,816.564474303726,790.691381608802,662.3264646443907,817.3236184214245
1731304523.4625578,815.7469207324849,782.1739835070255,665.678872461471,818.2242658589334
1731304523.4638238,813.8513763967858,773.8147189386522,671.7904749147273,840.277464303524
1731304523.4664588,810.7157196575756,767.9091279076123,677.455781613738,869.6271777233733
1731304523.47036,808.0081625319907,766.7852747668605,680.6185082066914,885.1200031496895
1731304523.4742613,809.7293982968429,771.8418738763903,681.8100558865594,875.4606468079712
1731304523.476354,820.8108751221891,782.5446264263988,683.1022269532958,848.4826428815916
1731304523.4781623,843.7403265476944,796.1327489575444,685.5896822164982,824.8343303108533
1731304523.4792323,874.9828076981869,808.5491754715567,687.7646946089287,821.3252178071788
1731304523.4820635,904.1858100871054,816.2499758502387,686.338042091303,837.702124715525
1731304523.4826825,918.4052765065742,817.8348714941295,678.9088364169655,857.6946067356658
1731304523.4859643,910.2465087748568,814.5220865476795,666.2885556423869,863.3551057460844
1731304523.4898658,884.5656876766284,809.255948711484,652.5368362973649,850.7406956160537
1731304523.491912,857.3778430256779,805.05565624052,642.6036802625164,833.7509981824516
1731304523.493767,845.6649690381578,803.5685250480062,639.3704609366316,832.5964477034235
1731304523.497668,854.892394012135,804.5689515561785,642.28726327487,856.2390985958045
1731304523.501541,874.6247291140846,806.5463485805868,648.4115532789308,893.5186625120148
1731304523.5015693,886.8565369206043,807.8917918241327,654.6921594450301,920.7149619110874
1731304523.5054705,880.6756961702325,807.880289751534,659.5171368309975,919.6584226458101
1731304523.5074697,860.863524339349,806.8578661324071,662.5041572000496,891.7566668870477
1731304523.5093715,843.1304856669071,805.6477999007119,663.266282640142,856.7865420703274
1731304523.5132728,840.398490943752,804.7478449360826,660.751027108604,837.7747488056967
1731304523.5141726,852.128167337914,803.9787181283596,653.9791516197572,844.1913296340861
1731304523.5171738,865.5970609013533,802.8115047994443,643.4915134951048,866.3765548482912
1731304523.5203996,867.538980156089,801.0023651803892,632.0825788185514,884.7301563025204
1731304523.521075,855.9312411208097,798.8784077691186,624.026855571401,885.6517831324496
1731304523.5230277,841.9178370015958,796.9103443280142,623.1890557456896,871.4542540875515
1731304523.5249765,840.3095674340321,794.9026982353935,631.0926436042291,856.7229641832375
1731304523.5288773,856.7510450699602,791.660094955954,645.9419846983158,854.5808343423021
1731304523.5327785,882.51932191488,785.77034564073,663.0958144378213,864.5394234706437
1731304523.5366795,901.4463892481729,777.1784184736356,676.8449211105738,872.4460987621004
1731304523.5385857,903.0236445386498,768.2783476358508,682.7189330187873,863.0010202824178
1731304523.539258,890.4944674250353,763.2733210845277,679.2775455806935,834.434482742432
1731304523.5405807,877.304428686698,765.7638152898089,668.6624784844164,802.5235391664405
1731304523.544482,875.3652030350462,776.0690393136281,655.7840811876979,789.6578978379004
1731304523.548383,885.1970284133284,790.3557591540448,646.4143960333931,807.2446663943927
1731304523.5491128,895.8521633096783,802.5537576787322,644.7234471978371,845.8066282824977
1731304523.5522842,894.164749679028,807.953280169274,651.2658235776979,881.327098218789
1731304523.5541437,875.5588955838249,805.979355499122,662.7650793187664,893.1839745860436
1731304523.5561855,847.8693379815089,800.1705321620242,674.3326269746453,879.2498104397467
1731304523.558117,825.3593454739365,795.4665142019595,682.916649004628,855.7963686244157
1731304523.5600865,817.7269400747732,794.8280722824115,689.363525797352,842.4300686095787
1731304523.5639875,822.7750808794303,797.5188302842838,697.2694048171754,845.0165522116176
1731304523.5678887,828.6573040175665,800.0190384899502,709.5312258317466,851.3808325838169
1731304523.5697017,824.0207157849123,798.6574958848819,725.6463937369019,843.4493515179923
1731304523.57179,807.7830893352735,791.977506649036,742.1307436226506,814.8943459497846
1731304523.5756912,790.3313385926664,781.2701790857682,755.5159335286485,778.3354455577751
1731304523.576975,784.9540403729864,769.2326974736806,765.1180926066701,755.4705896078514
1731304523.5795922,796.4822129305172,758.114679139375,773.2469756185436,758.7792804449527
1731304523.5834937,816.470038395508,748.8570611786511,783.0217217326311,780.8602475072285
1731304523.5840528,828.98285644298,741.5919869409286,795.9446038547712,800.608252050777
1731304523.5852594,822.6766805053088,736.6152553738709,811.186194705047,800.8075446489148
1731304523.5873945,799.8968429763501,734.7139099865313,826.7110083807588,782.2193253963434
1731304523.5912957,775.5671781739915,736.5588384686546,840.7802031791234,762.5618684365526
1731304523.595197,766.2552670199836,741.8173760845492,852.3620021492169,761.486770867353
1731304523.5958338,777.5892402617526,748.8716834004807,860.4016262173989,783.9903569674906
1731304523.599098,800.0623651539476,755.5160361473165,863.31227263983,815.7086099641011
1731304523.6008174,816.968759231369,760.2614002096417,859.9210671085494,833.8798579208656
1731304523.6029992,818.2479726108945,763.3685772815879,851.3432194658493,825.3656007867727
1731304523.6069005,808.7639497594636,766.734810476184,841.6773566104116,797.6461664609795
1731304523.6108017,803.9578434488968,772.4228784003436,836.0583418537406,774.1318298680598
1731304523.6146922,816.4155119032538,780.7263701205821,837.224482645258,777.0821693759509
1731304523.6147027,844.5737385587616,789.3692788314435,843.6212213896895,810.7751972865047
1731304523.6163754,873.0074697649976,794.8388648161595,850.9215383404199,857.3962954178442
1731304523.6186037,884.1708983215558,795.098537395816,855.6662892363961,888.8120225957638
1731304523.618993,872.1416684488972,791.4973593475751,857.7423822356488,885.9414519730068
1731304523.6225047,847.2991396738983,788.1002532632808,859.5678770554251,851.9622679161587
1731304523.6264062,828.1089408650564,788.7983767249806,862.8941310181033,809.8382477519243
1731304523.6303072,826.5469052292829,794.5305437456727,866.1922972884813,785.8316394148363
1731304523.6319337,838.9307148554612,802.8665486698621,865.008407264849,791.0470169552507
1731304523.633551,849.6547832112369,810.1401702261675,855.1820538303757,814.7867169115622
1731304523.6342084,844.7866702677738,814.2268430820627,836.5065235273997,834.5678987870136
1731304523.6381097,824.2649090808254,815.7510557910201,813.9593499481426,834.5188478466204
1731304523.6420107,802.4655904707461,817.0070905612882,795.3398496279357,817.1539671424173
1731304523.645912,796.5121976568558,819.7543978411696,786.7935687955849,799.1749051021595
1731304523.6474912,811.9409956280206,823.8483983143008,789.2935960136797,795.5415136424419
1731304523.6498127,837.5843811328436,827.8661251577054,798.4161517467672,806.0142038892512
1731304523.6524096,853.942610323609,831.0932265904349,807.3429450313901,815.9692259970285
1731304523.6537142,848.3424359791854,834.8891318925505,810.9568956173284,810.5966402759627
1731304523.6539333,824.8353658790684,841.8443766624212,808.5847399832951,789.7058320961248
1731304523.6576154,801.0925769484319,853.1793752177139,804.0845930809769,769.6105249472112
1731304523.6615164,794.8236792150194,866.7248339912611,803.4333625824578,769.6659303372162
1731304523.6630492,810.4324806418051,877.6416184502269,811.0799320403089,794.6309884891956
1731304523.6654177,836.3769819143118,881.7091016184766,826.9903074932555,828.4555652759585
1731304523.669319,855.0936114624524,878.5946118242076,846.2120812759073,846.0416512778689
1731304523.671268,857.1410541084147,872.2873846651626,861.4843786559759,834.0791201495251
1731304523.67322,847.8413946642715,868.1493447081322,867.3644112897298,803.3488527491841
1731304523.6771212,841.174282440833,868.8642428474077,863.1279944781804,781.0875744612815
1731304523.6786072,846.6314976776455,872.5271806592008,852.5955695591483,788.677437556152
1731304523.6810222,860.6931890501374,874.3845829996874,841.3847242121547,822.9876847896517
1731304523.6849234,870.2985452924839,870.7615393579927,833.8128674497755,857.4320569978772
1731304523.688825,864.9862618955757,861.9861246959564,831.4239033291324,862.5718278770113
1731304523.6888735,846.816991447922,852.0394989006461,833.5055159540365,829.6564411191148
1731304523.690127,829.3173149893943,845.3569758184545,838.5799620432406,777.9287217066519
1731304523.6927257,826.3055727534593,843.389567335203,845.5770537089365,739.8366902785124
1731304523.6941652,840.0791813621771,843.5473733507876,854.007370992183,736.1779376765891
1731304523.696627,858.9322647181962,841.2148058760235,863.3142707688091,761.1006188614281
1731304523.700528,866.1942496674458,833.2715246360079,872.2059221707783,788.6675145363364
1731304523.7044291,853.4028402349434,820.563813359821,878.8043453590426,795.0303202565061
1731304523.7083304,826.7355631028785,807.5891613994127,881.7442329576013,777.5554034566844
1731304523.708985,801.527445242831,799.6233710940971,881.3212877919668,755.3045772330803
1731304523.709723,790.0361003839788,799.3044810773016,879.4124316752826,751.6440324965596
1731304523.7122314,793.3601610139849,805.0997174420277,877.8409976860227,774.9209933631084
1731304523.7161326,803.6642322566576,812.7237262529587,876.4887142074516,813.5477586238287
1731304523.720034,812.4547150938515,818.2472416204702,873.0884717770084,847.6796932505648
1731304523.7238138,816.2758583992459,820.2999376686739,865.2856797398123,864.9082474072283
1731304523.723935,816.4184130705977,819.904278578739,853.2740443879336,866.2185635106872
1731304523.725281,815.6290363364035,818.8190488218955,840.387120345302,860.3475065180029
1731304523.727836,815.6362140360784,818.1681740957746,830.6743265943408,855.1207862684662
1731304523.7278438,816.6742680003807,818.1485012044986,825.3738678773661,853.3994866229496
1731304523.7317371,818.1965142339276,818.4511048851585,821.5224899480232,854.1913257889528
1731304523.7356384,819.6646405611548,818.7478760929437,814.2149990244086,855.4899491494386
1731304523.7395396,820.8810943533775,818.9092320975575,800.7026101405186,856.1139784854225
1731304523.740839,821.9184889308616,818.9725314150252,782.7399387399864,855.9771411059913
1731304523.7434406,822.9202753588969,819.0238211010598,765.1070999372125,855.5185390828043
1731304523.7467022,823.9707468610627,819.1164640834245,751.6533708044492,855.1289803616431
1731304523.747342,825.0761082525894,819.256541869521,742.3639039437553,854.9344109281697
1731304523.7512429,826.2051254034698,819.4261054529128,733.9324972255157,854.8682689524935
1731304523.755144,827.3299898238088,819.6081746832026,723.1665624687714,854.8228521557186
1731304523.756397,828.4417444176644,819.7968714898617,710.1209114853896,854.7400797726957
1731304523.758754,829.5451358211253,819.9948327087089,698.2086554413704,854.6194974317452
1731304523.7590454,830.647836212371,820.2067723457134,691.2167742735954,854.4857096936929
1731304523.7629464,831.7539744329331,820.4354113301952,689.8017030173372,854.358722140407
1731304523.7655609,832.8635613096461,820.6809676934021,690.4821239710786,854.244065398045
1731304523.7668476,833.9748194729433,820.9424949281911,688.0855354700751,854.1375952093571
1731304523.7707489,835.0863282632125,821.2191780790423,679.7398657368893,854.0336058735127
1731304523.7719548,836.1977631129774,821.5108027347585,667.1680422803165,853.929300960499
1731304523.77465,837.309543178457,821.8175781158209,655.3692783985674,853.8248993067161
1731304523.778551,838.4221489092444,822.1397958888658,648.7015214682987,853.7217821138826
1731304523.782452,839.5356321216138,822.4776306569304,647.4883287704349,853.6209375453162
1731304523.7844193,840.6495309391864,822.8311177641448,647.8000699555452,853.5225094082681
1731304523.786353,841.7632559687108,823.2002078300325,644.4338659808075,853.4261529973708
1731304523.7875128,842.8768575726857,823.584814348465,634.6009713447312,853.3316001303298
1731304523.7902546,843.9916959820819,823.9848486880878,619.5314311443672,853.2390017127434
1731304523.7936945,845.1100832636247,824.400279086858,603.1988531362607,853.1488399335175
1731304523.7941556,846.2331356520864,824.8312123215256,589.7039087334488,853.0613896404257
1731304523.7980568,847.357576255591,825.2779069892678,581.4904423941973,852.9760026552798
1731304523.801958,848.4747019586891,825.7405838276677,579.2688514948745,852.8909102566754
1731304523.8030708,849.5758570666243,826.2190208717153,582.834903803734,852.8043913654108
1731304523.803278,850.6650816988308,826.7122320629048,591.5033011459458,852.7173650845608
1731304523.805859,851.770073241542,827.2188116743346,603.7953645536018,852.6355387271774
1731304523.8097603,852.9332969442553,827.7383326362029,617.1598354205295,852.5674310580532
1731304523.813661,854.1698374574294,828.2731666388829,628.6325850401478,852.5156939326731
1731304523.8175626,855.409136935732,828.828639360068,636.3207856062875,852.4654615076397
1731304523.8186288,856.4839210897821,829.4090853007866,640.4978538087055,852.3827143712549
1731304523.8214638,857.2449562664623,830.0100968917714,643.1667743710941,852.2383155277752
1731304523.8221364,857.8015812192514,830.6131860769093,646.3155893884796,852.0568303863548
1731304523.8253648,858.7047263293255,831.1938172476596,650.4416658975694,851.9520423101553
1731304523.8286345,860.7286203622898,831.748865471023,654.747736655396,852.0798978158329
1731304523.829266,864.0316879662254,832.3293324645302,658.6842651410905,852.4677835862565
1731304523.8331673,867.0791482167878,833.0376736828875,662.9857317829553,852.8043571083617
1731304523.8341868,866.5350755156114,833.9464858719393,668.8233458797113,852.4434111120635
1731304523.8370683,859.4366129632481,834.9518506712802,675.8690035111778,850.9009557551681
1731304523.8409696,847.1163780082061,835.686032290219,681.5364666698536,848.7798871007933
1731304523.8409953,837.0406959138851,835.6895933090582,682.5803651769498,848.3535820831909
1731304523.8448706,838.3806020693589,834.9196798719599,677.653241226915,852.5331906687161
1731304523.8487718,853.2835905691592,834.2486984445753,668.3006268542123,861.6544897716099
1731304523.8497446,872.4872006348345,835.1922056389369,657.5550286806658,870.104922334243
1731304523.8526733,881.2483885286605,838.5398857118195,647.817248796623,867.5099006521544
1731304523.856574,871.2708350612604,842.9797022628483,640.1914268803523,846.9807195072922
1731304523.8598535,848.0513020791471,845.4360382542803,635.4924835087044,814.4225326452038
1731304523.8604753,826.99100019843,843.2870256368584,635.1985668153123,787.907294968889
1731304523.8635747,821.2461603554124,836.5642788432154,640.869905169394,784.3144886934358
1731304523.8643763,831.2329443207663,828.1952698748592,652.5026131777024,804.375530912424
1731304523.8653026,844.6193339429436,822.1804587568223,667.633375836076,830.6344974484344
1731304523.8682775,847.2608649144046,821.2320284375872,682.3720788275845,841.502350666032
1731304523.8721788,836.1243248158482,825.5242020690475,693.7019602402279,829.6737056396879
1731304523.8760798,822.6838485994843,833.1163119939483,701.1663657552901,808.6117756805803
1731304523.8787122,822.8591974779564,841.4034477230027,706.5095525094903,800.9794620839225
1731304523.879981,841.7440895298846,848.4828023619585,711.5515033983929,818.8606127169301
1731304523.8808606,867.0970717221169,853.7087865500832,716.1665955431616,852.8689400923001
1731304523.883882,878.4881127080452,857.4285325724582,718.3023319605445,879.2542363424344
1731304523.8877833,864.7933550904143,860.3275372790879,716.2054153896197,878.5055061701889
1731304523.8916843,834.6684944649952,862.7870285663602,710.8301818378968,849.8435170000633
1731304523.8955855,810.5766104615225,864.4533520577945,705.9941146236259,810.6265622229314
1731304523.8964186,811.3319533443901,864.172289357921,705.916188941844,782.6609949886899
1731304523.8975708,837.645662283432,860.4827833026967,712.3541393472128,777.0772185356403
1731304523.898515,871.9460472127544,852.6442430782391,723.9193015265414,788.8097426616001
1731304523.8994868,891.8278128487276,841.621311420811,737.9014362360408,803.169355042658
1731304523.903388,886.291458830308,830.1222277860909,752.500939880785,808.1034404590533
1731304523.907289,862.7299080107183,821.3235580961256,767.2351639747073,802.5505513624668
1731304523.9111905,840.1266590989152,817.0642326097843,781.4003182723791,795.0861837331156
1731304523.9119763,834.1545921826266,816.8711431607232,792.5448143842957,794.7763464260848
1731304523.9150913,845.5435344860584,818.4431026121476,796.9311415997773,802.2858035113634
1731304523.9164293,860.2944743034514,818.965001225268,792.0379886792286,809.0186207869839
1731304523.9189923,861.2249990222024,816.256013216681,779.1171435598504,805.2063454407503
1731304523.9228938,841.7903841274646,809.4296338727312,763.4574153327096,789.8891167125271
1731304523.9267948,811.5652028232041,799.2653566782644,751.6608279399468,773.6235191438856
1731304523.9275343,789.2867440627672,788.1803157264704,747.6316375502128,770.6965166306632
1731304523.930696,788.9092842366663,779.3698166066188,750.1656799776605,786.7901815089348
1731304523.9334552,809.3848390100055,775.2834026637952,753.9127703338453,812.59276911302
1731304523.9345973,835.8926498236926,776.5247512057157,752.9147622346095,829.6308513660568
1731304523.935288,851.3521892789001,782.1164872178737,744.0885583925486,824.6518232345657
1731304523.9384985,849.1124904302632,790.7221025594491,728.4353393185343,801.1830558823948
1731304523.9423995,836.8693223041071,801.4022729919519,709.8060923296146,778.1627585864094
1731304523.9430923,828.9592527162018,813.1078898155708,692.7405277235272,775.6438323169235
1731304523.9463005,833.7777503329935,823.723446167446,680.8937203051936,798.7009963762695
1731304523.9502015,847.1982716833885,830.1611650422863,676.3766766391785,833.0430451105439
1731304523.954103,857.5693129714956,829.9176863047022,679.4610509209766,856.4572821236696
1731304523.9541464,857.4082829585761,822.8852580196993,688.3203157330436,856.727618747412
1731304523.958004,850.7837879853113,811.8426468788999,699.2148379792302,841.0758627194684
1731304523.9586504,849.4616909880177,801.175090515294,707.6955316080874,829.5217218995264
1731304523.9619052,861.3966621923233,794.6924215614519,710.6374525105404,838.0872874767441
1731304523.9658062,882.1824526390814,793.832865466599,707.9137199592152,865.6827006043256
1731304523.9683957,897.3184875493935,797.1163009983566,702.3635041812317,894.8199675559171
1731304523.9697075,893.5561234998481,801.0142374264963,697.8222864609011,905.0329696819443
1731304523.9730053,869.8398840167537,801.7433439676669,696.5680699111051,888.2671797385154
1731304523.9736087,838.7621207495846,797.0281254518845,698.13599882501,854.4250528890227
1731304523.974208,817.1655951945568,786.9108829396326,700.3606979855773,823.0287784062573
1731304523.9775095,813.2238674599561,773.3401218995683,701.6166640120146,807.8083400415851
1731304523.981411,820.3433225695496,759.1067679827598,702.2724022995669,806.8207228832242
1731304523.9853122,823.1128132454592,746.9834242424769,704.2181676219759,806.4479329653392
1731304523.9892132,810.8058145338535,739.379608848295,709.1083884326434,795.895216160289
1731304523.989766,787.2315904577108,738.0579661002791,716.9759136888022,779.1502320611866
1731304523.9918635,768.1951088876334,743.4076234745804,726.2833482070832,772.8283196755095
1731304523.9931145,768.2485951297801,753.6201209314443,735.0396196912591,790.7129944805843
1731304523.9970157,787.9905974179643,764.8503604387563,741.782729867417,828.4685337029149
1731304524.0009167,813.03524909686,772.9288232048989,745.6738564979029,863.0424747150226
1731304524.0033357,825.7386889991845,775.6720908082564,746.0302520513555,868.9494232289405
1731304524.004818,819.8198271907984,773.9484759299852,742.2096863890725,838.6628411140833
1731304524.005324,805.697493163794,770.5618925427863,734.3089884026283,790.1559463964422
1731304524.008719,802.1382143019332,767.9386189188872,724.1186228314849,754.892515984607
1731304524.0107222,820.7811173197521,766.6136057163127,715.192197409776,755.3080184145423
1731304524.0126202,855.7284219796394,765.6573168014244,711.4168639188935,789.0390152209386
1731304524.0165217,886.6969808356428,764.3729689162516,714.7887056815106,831.6907539106431
1731304524.0204225,893.856770535795,763.5261692079357,724.0326075600628,855.5087001526945
1731304524.020882,873.0343071633525,764.9139097467173,735.256152427715,849.2904543547528
1731304524.0243237,839.1414746135996,769.6647552172612,744.249188600826,824.549096289253
1731304524.0282247,814.8845433237263,776.8791124106843,748.7571092059524,804.3219859550128
1731304524.0295806,813.7286141987599,783.9875467018201,749.2398548480203,804.6243410102549
1731304524.032126,830.6454875536051,788.6715122775396,747.9843091913874,823.3603993906806
1731304524.0360272,847.6291500946224,790.6877718466977,747.5905272060091,844.3727448329861
1731304524.03644,849.0682168607084,791.8873718399179,749.8537176140961,851.9654547746788
1731304524.038276,834.4890234018912,794.293278761483,755.2732329216913,843.6864053877907
1731304524.0399282,818.5316518880126,797.9211356890756,762.8947901194059,831.4888011928491
1731304524.0438294,818.1845598430401,800.3727269980737,770.421037069718,830.9272706138689
1731304524.0477304,837.5480324397391,798.691830883545,774.9447763961598,847.3661301124012
1731304524.0484393,862.82002560629,791.9311800147082,774.4417887496886,870.4913774951787
1731304524.0516317,872.421705275363,782.2322770078641,769.3105210041574,881.959953314169
1731304524.051998,854.7842950189286,773.5263075732288,762.6967984846034,870.4758047393148
1731304524.0555327,819.3052018827692,768.9411852116888,758.929193875392,842.1463527376101
1731304524.059434,790.7733617279686,768.8846715703012,760.8519047576452,817.1682943593602
1731304524.0633352,790.916881614596,771.0235658383114,767.9227193759112,814.7009543631528
1731304524.0672364,821.6131258728622,771.91470800806,776.5559601216853,837.656595876013
1731304524.0672977,863.2211092681937,769.0818592167202,782.5246267350326,869.782923948756
1731304524.067556,889.1712005638976,762.3212936600002,783.6807197637561,887.9115058278749
1731304524.0711374,884.8843818366003,753.6387246769531,781.1035314445203,880.0731434589422
1731304524.0732162,856.2159496445527,745.9910116685235,778.0597161298004,855.1257255101901
1731304524.075039,822.0480199660336,741.6141365133888,777.7233322102185,835.8668679294492
1731304524.0789397,799.0884397991847,740.9271236805882,781.297143239179,840.6927357491529
1731304524.0828407,792.158694948179,742.6405047950489,787.6709224646012,868.4386326295224
1731304524.083114,795.7929956179318,744.9116958937931,794.5666932644391,898.9342561997186
1731304524.0861564,801.9813165510234,746.7003236401811,800.1228586084706,909.0977472507336
1731304524.0867422,805.9901556975295,748.3943305314202,803.7226612843856,891.4392211701752
1731304524.0906432,807.2456469180051,751.3515421778336,805.6303307971743,859.7606497580105
1731304524.0945444,807.2533555111843,756.7867848825501,806.0367304263566,837.5335431604925
1731304524.0984457,807.4501384125941,764.8500803864227,804.5635216576055,838.7681244459177
1731304524.098672,808.3384718186826,774.5066917348452,800.7395526843715,857.0849433579222
1731304524.102347,809.7029802931078,784.1901344518726,794.9478477923525,871.6172566996785
1731304524.1050148,811.1535986457108,792.697375503121,788.8218799958817,864.6468853242587
1731304524.106248,812.4686937643335,799.7462312521772,784.5444485417122,836.6582973680229
1731304524.1081564,813.6374694924742,805.892697430909,783.5035153252185,806.6453906495773
1731304524.110149,814.7465089075384,811.8661802362183,785.3448329669908,797.1106013158151
1731304524.11405,815.8701788267498,817.7347099830458,788.1249824809555,815.5490016588567
1731304524.1142297,817.0311619170104,822.5418905412753,789.3676921717737,847.6754867551363
1731304524.1179514,818.2157898174219,824.8585950622273,787.2044377101618,868.5943294018455
1731304524.1218524,819.4033508988717,823.9626751380692,780.9512177998452,863.0076951186962
1731304524.1238737,820.5830915470851,820.6467450457637,771.1165530188819,837.2967876357058
1731304524.1257536,821.7553002172355,816.7929612414375,759.18182315024,813.0261995083447
1731304524.1296546,822.9248646253315,813.9486081624179,747.2574452796537,807.777401117674
1731304524.1297877,824.0956151645817,812.1661278459022,737.4265168841847,820.3336258471093
1731304524.133556,825.2685510500728,810.1943321220101,730.8210115976706,832.8784986543682
1731304524.1374571,826.4428729092156,806.8266793659802,727.0060525142342,827.4683335688873
1731304524.141358,827.6176069456127,802.1549708513998,724.2969851835263,802.0020889400798
1731304524.142732,828.7924576840704,797.6901031492973,720.9236171000955,772.4195668029217
1731304524.1430967,829.9677049905139,795.4199450286511,716.1467276218591,760.0756750004823
1731304524.1452594,831.1436088207688,796.668780874832,710.4056559995912,774.8825581873936
1731304524.1453457,832.3199136353219,801.4935974333443,704.4581565031234,807.2064076584975
1731304524.1491606,833.4959308815404,808.7597913320745,698.4618069432249,834.4275353659111
1731304524.1530616,834.6713819733552,816.6875559141597,692.0507809943703,837.3869993429656
1731304524.1569629,835.8475720461221,823.6481522240185,685.4605324937888,814.7119798646229
1731304524.160864,837.0276550266536,828.9326934476685,680.5166997372576,784.0926384917246
1731304524.1609037,838.2145133944512,832.9927633804531,680.1068165242642,768.9423278641945
1731304524.1615906,839.4062503593302,836.7051984771904,686.0381273143138,780.2524576502376
1731304524.1647651,840.5926953117046,839.9382893165691,696.9302041711974,807.8197001186726
1731304524.1686664,841.7593244694534,840.6327505961373,708.2567675286025,828.0895254642761
1731304524.1725674,842.9027093283141,835.6372906599801,715.0443126624923,822.6949876649134
1731304524.1764617,844.0503172372897,823.1716710974714,715.275293854609,793.0973667854856
1731304524.1764686,845.2616549451187,805.0833274509373,711.1062180277089,759.7893324771193
1731304524.1780367,846.5843476091967,786.7683700692173,706.7750331143754,746.771730258556
1731304524.18037,847.9692187900455,774.330736565601,705.037764652099,763.4554481515227
1731304524.1804492,849.2134133121302,770.8821936613105,705.2803868644515,797.8501238160783
1731304524.1842709,850.0513830159919,774.7446358617556,704.8175339424162,826.0101194608098
1731304524.188172,850.4574282538438,780.8893416071841,701.9333077114899,830.3067895890368
1731304524.1920197,851.0000570389611,784.4647614344866,697.7471771625858,812.4942080806685
1731304524.192073,852.8000139839173,783.8237899645865,695.2361137656237,791.647126856734
1731304524.1959743,856.6218437077972,781.1094332279488,696.3978920500647,788.8235679375802
1731304524.1993077,861.2535592707169,780.3844320749612,700.1814500546948,810.6034125570842
1731304524.1998756,862.534394419415,784.8279477637367,703.1040783519292,844.2507678306739
1731304524.2037766,855.1463932327429,794.7430022998982,702.1324464266303,867.7886685326669
1731304524.2075777,837.7478318100378,807.3345119298807,697.4079489741417,866.6462927035024
1731304524.2076778,817.7310170405301,818.189012193212,692.3987176685896,843.9829421955628
1731304524.2115788,809.153134432349,823.5595466281324,691.1365263487764,817.3234105318706
1731304524.2129767,822.2630223495919,822.1714916110303,694.71908043149,804.8412645617403
1731304524.21548,852.8131377470442,815.5944293267535,700.0729750840399,812.2048356346155
1731304524.2181664,882.354756210813,807.1948228655962,702.2130982053527,829.9459218153321
1731304524.219381,891.6039105486919,800.5369424804306,698.26828370892,842.8291301616875
1731304524.2231357,876.3118198422492,798.1004600139433,689.941165997505,843.1786089859669
1731304524.2232823,851.4467488995958,800.5832849129703,682.3159524413276,836.9699086325062
1731304524.2271836,838.9732024983158,806.7529318155712,680.0005278151314,837.5265395570857
1731304524.2310848,849.1547513211776,814.0106524417873,683.8138542318163,852.327747852956
1731304524.2349858,871.7329851653739,819.7741962928395,690.6567197590452,874.7627807017873
1731304524.2370248,884.992424948853,823.0366821989276,696.3768877376182,888.7203486113262
1731304524.2386932,874.860154944484,824.8601215656142,698.918462808028,882.6093507865413
1731304524.2388873,847.3588913771408,827.1948706774261,699.0652916345865,860.6200743987514
1731304524.242788,823.7567637164241,830.9472621666977,698.5158710675804,840.8196967817433
1731304524.246689,822.7734874240465,835.023335570858,697.5324657631006,840.8635768822453
1731304524.2479172,844.9786653498021,837.1705930063603,694.65336273159,863.069123731813
1731304524.2505906,872.3463095442878,835.7391011255245,688.7620049928411,891.6316624945003
1731304524.2542512,883.1672795275183,830.7722953714226,681.3185317412092,904.7188984362848
1731304524.2544916,869.8210471139267,823.7219259471564,676.2447067137673,891.6455145189926
1731304524.2558837,844.5798699760974,816.4252374425296,677.1830623546949,861.0376513501275
1731304524.2583928,828.6443794206015,810.3737662517434,684.4505724013387,833.39747674887
1731304524.262294,833.8739308231821,806.6157836983894,694.3962245922463,824.3848985322555
1731304524.2661953,853.0600545865943,805.8777951022914,701.702438148885,832.7176164689639
1731304524.2698092,867.1466489083323,808.4438749482453,702.6470818107408,842.5729390962175
1731304524.2700963,862.7526208555937,813.8051591326846,696.8527222257284,838.0917238064802
1731304524.2739973,844.2557701014714,820.4729085484031,686.7357942045361,817.4318089455131
1731304524.274742,829.8400789637104,826.3472535080057,675.7820653765456,794.4741324844995
1731304524.2778986,835.3140116538017,829.6994302349976,667.1667494233383,787.0158193366369
1731304524.2817998,859.9950532661377,830.2922777251229,663.2234836279944,801.6432913100871
1731304524.2828574,886.7284994428775,829.7612887151203,665.2518218826032,827.9192253709688
1731304524.2853673,895.9610485948299,830.6528035125228,673.1366202351697,846.5752201382435
1731304524.2857008,882.2466019178186,834.5868028571558,684.9717608293582,845.0662805114636
1731304524.289602,859.5801357853792,840.9984318986131,697.3563865427336,828.0390886624899
1731304524.293503,850.6752368438616,847.6253304187513,706.6518393983222,814.1086544976333
1731304524.2936006,868.0927373049198,852.3555339320382,710.5906984369688,820.8945510315597
1731304524.2974043,902.3220073428612,854.7596659065733,709.1529702860513,849.8376356423653
1731304524.3009253,927.3938782254661,855.9980752047691,704.1371719114331,883.3900697319852
1731304524.3013055,920.8675682120313,857.4114311449041,697.9088080640512,897.9552820798488
1731304524.3052063,882.6436872428179,859.2527762862735,692.3645738013918,882.9382131701858
1731304524.3091078,836.8703084852986,860.661849939054,688.6878668705041,850.2598253712804
1731304524.312459,814.4809352939255,860.7176946854846,687.5624874287205,825.733381426085
1731304524.313009,829.8041925629681,859.5104009577306,689.1701800652662,828.6485517317637
1731304524.316483,869.5541903854814,858.2777659077733,692.8406963152762,856.0525615904136
1731304524.31691,902.5095435877254,858.474228420863,696.9460434028651,884.6426355912926
1731304524.3177977,902.236610054565,860.498094832337,699.6279892704215,888.8825904234172
1731304524.3208113,865.9840846184616,863.1056847195684,700.1178020396926,860.9069957940035
1731304524.3247125,816.3609773567104,864.0699988289525,699.5753767377905,816.5121061207683
1731304524.3286135,785.0567318198035,861.7186758140017,700.4781045134697,782.7913146878091
1731304524.3313177,790.5341973810386,856.2922400388927,704.7398741844747,777.5669348491363
1731304524.332041,825.6753272439825,850.1152554735817,712.0114229659976,797.0018027655432
1731304524.3325148,863.9770489834312,846.3420523041575,719.7690062768668,820.7255875312438
1731304524.3364158,879.2871456134328,847.0198205469502,725.4261938128415,829.3840765867286
1731304524.340317,864.1939433069749,851.7386278802821,728.7983513513942,819.6890785783091
1731304524.3442185,833.5060577841755,857.7820798133715,732.5699727987393,804.8907565905411
1731304524.347599,810.9044752498834,861.67135636177,739.9047783918717,801.3913566805952
1731304524.3481193,809.9015477343464,861.124421090251,750.9639568770447,813.776921022576
1731304524.350176,824.4266806793048,856.3593010959901,761.4739446004796,831.1147103634295
1731304524.3520205,836.2491091060126,850.1525156578696,765.0638406705563,837.1471072025996
1731304524.352738,832.4843544800284,846.5640588757014,757.8701748777751,825.2493991164267
1731304524.3559215,817.9627907680228,848.6992656710909,741.7485587369544,805.323691839694
1731304524.3598228,811.4400210949234,856.52052569747,723.4185822225422,796.5569781830299
1731304524.363157,828.4422034651604,866.1817064343696,710.2037921064139,811.5417712690135
1731304524.363724,865.5638716376012,871.8046472676588,705.713013790448,844.6753699220443
1731304524.367625,900.588278423427,868.9643008242086,708.5454336692172,874.9879137635187
1731304524.3690348,909.4459198493895,857.6097817804825,714.4382855828466,882.1157405668778
1731304524.3715262,886.0101712946941,842.212397131277,719.7589772435387,862.8780566592371
1731304524.3754272,847.6146544435538,828.8547084547395,723.7639504021325,834.5534092706971
1731304524.3787148,821.2815371102323,821.3387174985062,728.4199189347582,821.5022120680941
1731304524.3793285,822.332055305196,819.1883269665667,736.3995391575269,835.7611128180423
1731304524.3832295,843.3203688803103,818.8442316302511,748.916941504967,867.5210252707298
1731304524.3871307,861.817184019967,816.7226988601162,764.8907843941333,893.1748485720171
1731304524.387678,859.5077056870877,811.4998561304751,781.7661505758224,894.0006795326823
1731304524.3878932,836.5034615287564,804.0840292809572,797.0885684701784,870.1217921588388
1731304524.391032,809.9362531104431,795.9825270499631,809.5897331980823,838.8792600005264
1731304524.3942728,799.098273318261,787.9412901248899,819.2545276845933,819.7200202499662
1731304524.3949332,809.6577667824635,779.9577905241689,826.7399143339933,818.3439600568605
1731304524.3988342,829.5305634122692,772.1508278190273,832.773171929042,823.0689242114761
1731304524.4027357,839.3731579549583,765.2208792674335,837.8190168311587,816.2837759997365
1731304524.4066365,828.7704284120788,759.9216224005031,841.9780585331958,791.2818034805873
1731304524.406752,804.4879399113325,756.1622805953951,845.061995554088,759.8474680393664
1731304524.4098308,783.9773352072754,752.78495640818,846.8518626423288,743.4376214066175
1731304524.4105375,780.1553312728408,748.3743352194315,847.4195429806524,755.0004978150752
1731304524.414439,790.896171603431,742.4471598569587,847.2141405830193,787.04328047104
1731304524.41834,801.9808955578872,736.0135433417062,846.7393005391408,816.4440957536484
1731304524.4222412,800.1284245075598,731.0452499041651,846.0949795600889,822.1163412303587
1731304524.4226184,784.4746400284145,729.2614596223235,844.9233634511136,800.9632879112626
1731304524.4253888,767.1697328792159,731.1018068700389,842.9386765963562,769.6222778685334
1731304524.4256103,763.267244745412,735.5202473161947,840.5366399498465,751.349923294706
1731304524.4261425,778.2547625296816,740.6206794252138,838.7793602961802,758.5447310173073
1731304524.4300437,802.8372584047291,744.6662051374889,838.6430980019887,783.895248113357
1731304524.4339447,819.134359289907,746.857477880902,840.1669107862624,806.4588715250787
1731304524.4378457,814.1936446414503,747.4443542239255,842.2332617401208,808.1419175429864
1731304524.4409466,790.8631670376,747.1337248629463,843.1123918473315,788.1945923949941
1731304524.441747,767.0711381668134,746.2709964350755,841.3097583662166,764.3009091992433
1731304524.444469,762.8824894182756,744.5589114382458,836.2061708465928,758.8845514259141
1731304524.4456482,784.716657873586,741.7329946538679,828.3039417826369,781.1147126391915
1731304524.4495492,819.4073261544229,738.7138609325201,819.1149597700569,818.9507239340445
1731304524.4534504,843.5901620413447,738.0510464312712,810.7168106528478,847.7612162679877
1731304524.4565046,841.5230803336929,742.7872269456035,805.0052934436287,848.874776653175
1731304524.4573514,817.3003975192245,754.2045230170671,802.8490551179751,823.6437965411174
1731304524.4575586,791.7381035236112,770.1856146633468,803.5544531086936,792.2449979415047
1731304524.4612527,786.3804678880088,785.8300947835801,805.0249950976281,778.2712699243295
1731304524.4633276,807.1482496316218,796.2984808168472,804.6769626490532,791.0361631644377
1731304524.465154,840.3279904722765,799.9312233236751,800.7182612441794,819.3574891872419
1731304524.4690547,863.9533598235661,799.2685980772657,793.1090544276266,841.8062433675237
1731304524.4720626,865.4700638759962,799.177523930754,783.6386013771362,845.1497942379299
1731304524.4729562,851.305973847802,803.5363975561162,775.0529361414882,835.4282170908285
1731304524.4768574,840.329770929951,812.9099291253701,769.7406729387518,831.7704927513469
1731304524.4807584,846.7357425378038,824.6475905753874,768.7424121977131,848.0323278644852
1731304524.482186,867.2865305146888,834.9013256304736,771.6127785166987,878.6682867621557
1731304524.4846597,884.2693876486096,840.8439777575875,777.0844963368016,902.0443215491641
1731304524.4876206,881.5767475125047,841.6634943564322,783.9649847352879,898.8849359973717
1731304524.488561,859.566665313536,838.1552727175117,791.6262371799788,869.7479023515019
1731304524.492462,835.5833439303061,831.7669149051086,799.8623818817388,835.958629779381
1731304524.4924989,829.8540296245347,824.0102529035321,808.3969126745329,822.7765066889419
1731304524.4963632,849.0207408418563,816.4218233649075,816.4891547334704,838.8960888210362
1731304524.5002642,880.9415956087204,810.571359663585,822.8718129154569,869.4812711415467
1731304524.5010448,904.368373247063,807.6770411544675,825.9670789030038,888.5057428129558
1731304524.5031784,905.0323129989017,808.0288048059126,824.252463725034,880.1226572107759
1731304524.5041654,885.3901169448699,810.8366906509033,816.732209852576,851.4134391352749
1731304524.508067,861.2117280412891,814.7817650862365,803.4754843826587,826.1172369385525
1731304524.5119677,848.6830153778029,818.8191307237242,786.0106156769423,824.8329572137853
1731304524.515869,852.4282070885488,822.5024286265287,767.2138596572634,848.4148027530415
1731304524.5187364,863.2315325956083,825.6195576826569,750.4833116822059,878.1428961731827
1731304524.51977,866.3498661928587,827.705734119414,738.4474643122923,891.5806535048067
1731304524.5199032,853.6088188581407,828.1658891742298,731.8639431657379,880.1350486320291
1731304524.5236712,830.2986327420533,827.0590793916803,729.33162802138,854.3209233932304
1731304524.527439,811.8964301776981,825.7659685089304,727.9677851182041,834.1176235927093
1731304524.5275724,812.6920473427217,826.6802977735833,724.6821516392034,833.467580994902
1731304524.5314734,834.2290189802076,831.8844307768661,717.4755162733886,850.7979272016028
1731304524.5342944,862.4318741338699,841.709352361918,706.2844740016064,871.4365168135263
1731304524.5353746,876.8192394095493,854.2430232142573,693.0367803561347,879.1269361739055
1731304524.538762,865.9559895565726,866.1251794793453,680.735171798051,868.2644643583325
1731304524.5392756,837.1361745992608,874.059157289672,671.7977227680802,848.2803967813672
1731304524.543177,811.4992030692354,876.1191016698909,666.5384776390367,836.5752814810317
1731304524.547078,807.4369510599743,872.245646696421,662.9288731238928,844.4017996559152
1731304524.5498524,825.7783807915956,863.9038628602287,658.0116772497458,866.3329627540152
1731304524.5509791,849.5036527529139,853.3092862543497,649.9850421430974,882.7045960419225
1731304524.5548804,858.1265093066314,842.7293539629287,639.364904744048,874.6670592903977
1731304524.5576203,843.8136032477997,834.1430448033932,628.4631733566831,840.3525189826528
1731304524.5587816,815.4863072226103,829.1475700938317,619.8351460027823,798.3532958440356
1731304524.5623794,789.2224857367189,828.7459304066028,614.9566360809627,774.4523898052628
1731304524.5626826,775.562071998246,832.8145625240707,613.8370521505509,781.6005773707116
1731304524.5654104,774.6092817274441,839.569003034074,615.4116188682808,809.4234990400496
1731304524.566584,780.0889175356302,845.7166158968537,618.2273308310102,832.3243328701117
1731304524.5704849,785.8694557206738,847.692423467237,621.1097300747066,830.0694262228449
1731304524.574386,789.3170471537697,843.4942196293758,623.6526217402217,804.0914306858765
1731304524.576479,790.8185012723945,833.9323982615939,626.3289439269995,775.9046712546836
1731304524.5782874,791.7755803647824,822.3394247931838,630.0570469625272,768.8722710536165
1731304524.580968,793.1369175350565,812.8483035644704,635.3708535463543,788.6121785088993
1731304524.5821884,795.0592943303479,808.3332890712605,641.7116618291124,818.3765419576091
1731304524.5860896,797.2598032958111,809.2011202999436,647.402154681403,832.8881710550583
1731304524.5899909,799.4429162057573,813.4932614259524,650.4697341885601,818.6742776996645
1731304524.593892,801.4922488026026,817.937285992695,649.9070684307128,784.1589659277406
1731304524.5953374,803.441152931876,819.2688946021337,646.5731950708617,752.1031350946765
1731304524.596526,805.366549209542,815.3462078385834,643.0218205772047,741.6284809118264
1731304524.5973196,807.3160814572216,805.8823197467418,642.1410207598642,754.652789516062
1731304524.597793,809.2951037871782,792.6742090775474,645.3356135679903,776.8577263199552
1731304524.601694,811.287514754407,779.0883916737,651.4964212676363,791.2276508955564
1731304524.6055954,813.2781203041536,768.7055908836235,657.6053160803172,792.4458581534822
1731304524.6094966,815.2616764075716,763.6000896830938,660.6031608629729,790.1794360188857
1731304524.6120842,817.2405504244518,763.243126141502,659.0894174724605,798.6654799861147
1731304524.6133976,819.2189505927178,764.8154415963626,653.6073646337771,821.8174100728527
1731304524.614196,821.1992969910048,764.818002320619,645.6154830458864,847.4290394993175
1731304524.6172988,823.1818037067881,761.0180673089784,636.4032685872808,856.5319057364062
1731304524.6211998,825.1657201960688,753.5942079961762,626.9932931203559,840.4209252447505
1731304524.625101,827.1504895513133,744.8550377725056,618.8008624051047,810.2360473155226
1731304524.6276422,829.1360671019445,737.7265903715626,613.9404048852723,789.6672088558581
1731304524.6290023,831.1225766565437,733.9370287171199,614.5108191653972,795.9452549257821
1731304524.6322598,833.109891684803,733.0827442870014,621.4091428066653,825.0187619790944
1731304524.632903,835.0976743828636,733.2355610070879,633.8410345607999,853.9560548321457
1731304524.6330545,837.0860269094233,732.6385283083996,650.020153067788,859.3094104810285
1731304524.6368046,839.0762908647717,731.1578134782412,668.2935478105032,836.5717161961122
1731304524.6407058,841.0709346496299,730.3265017097963,687.4745036922831,804.4920455469374
1731304524.6432,843.0715476199698,731.9848004303858,706.0715372697255,790.2099270792489
1731304524.6446068,845.0754386175628,736.6944558613297,721.4585823313354,807.0347349767236
1731304524.648508,847.073979084399,743.2422140702581,730.3514723397058,843.1400639637637
1731304524.6519132,849.0574112229608,749.5659946210045,730.763203150227,870.8013852500143
1731304524.6524093,851.0276855291152,754.2675272021249,724.001735592148,868.8681968392409
1731304524.6563103,853.0113000702381,757.5097067459847,714.8408148810589,840.0258658960023
1731304524.658758,855.0534748476182,760.6984436627827,709.2616877509813,808.6566960198318
1731304524.6602116,857.1773727384667,765.2976459967256,711.119352693039,801.2703283744111
1731304524.6641126,859.3212809036802,771.7086987105563,720.0948419184992,825.7406743056555
1731304524.6672,861.3158245117255,779.0359751140264,732.4411780970112,865.976819917306
1731304524.6680138,862.9874006969984,785.8736101818558,743.8790111569359,895.4396035213858
1731304524.6707718,864.4047821029989,791.4593487195301,752.2665936755217,897.7544364624242
1731304524.6719153,866.0999424723894,796.2534073178311,757.9158015724249,877.8946743484254
1731304524.674316,868.9067269279113,801.4787958384325,761.6010506108198,855.9048876249518
1731304524.675816,873.1413523955756,808.0121051939822,762.5246963395819,849.239933955709
1731304524.6797173,877.431890377474,815.5134914403604,758.6046904268853,858.3746680928095
1731304524.6836183,878.3986313119848,822.4549512355703,749.1491283842805,867.2033234969434
1731304524.6875196,872.6739981499369,827.0030780242694,737.3849908946081,857.6934174303565
1731304524.6896305,861.1070523486559,828.0957398073565,729.9995341635833,826.7462294584789
1731304524.689874,851.5447266460004,825.9393610196129,733.3165067036576,791.2827309719141
1731304524.6914208,855.2265348103954,821.6249933342353,748.8071816352364,776.827292121946
1731304524.6953218,877.0120827606684,816.3112787173907,771.5539615233567,798.07966760007
1731304524.699223,907.7731043857472,810.8320284581398,793.1407206862168,846.6780633885821
1731304524.7021403,927.9965460037334,806.1530965321275,806.9478377219161,896.0743671117215
1731304524.703124,921.9277364256469,804.0757811854535,811.8802334162085,920.1558657301282
1731304524.7054317,890.9740099731149,807.0102731620175,811.8379211218132,911.4627126866211
1731304524.7070253,854.4074999650695,816.3803289671049,811.7172791270126,885.1544256411285
1731304524.7084887,835.5697209408293,830.7850700443407,813.4599224102121,865.9695152637141
1731304524.7109263,844.0493102172006,845.797158937181,815.33644761899,868.5571290204642
1731304524.7148275,868.3048042667284,856.1338446948619,814.6231370146909,886.6041098832894
1731304524.7187288,885.2307781402591,858.7912712205142,810.8314959342844,899.2283346433205
1731304524.7209897,879.2635457310629,854.7263032272679,806.3921409579959,889.357649501267
1731304524.72263,855.2763667305884,847.8821670150381,804.3396007876245,858.9940235847947
1731304524.726531,834.2961712555883,842.5677077936832,805.4362336181244,828.5547318082193
1731304524.7273474,835.49348309073,841.2652645860375,807.4572111929539,820.4849369525167
1731304524.7304325,859.6788694053661,844.0717289586303,806.9918028118665,840.4796783560209
1731304524.7343333,888.3629318288984,849.3470956781331,801.8051160748252,871.877293114256
1731304524.7365477,899.2694012841794,854.4360360774222,791.836850893734,888.1450597095261
1731304524.7370806,885.3197268898314,856.0362271587982,778.7158410172176,873.6870523877961
1731304524.7382343,861.1380316892539,850.8821700571317,764.9104450409299,836.4044292846961
1731304524.7421358,851.3409432084101,837.4495652024412,753.1658202544559,801.8659300502816
1731304524.7460368,869.8500936185678,818.0533132327381,745.8115348060802,793.4892406001127
1731304524.746206,907.0774763346944,799.3835394276316,743.4999419161692,814.3794755943745
1731304524.749938,935.8107603324391,789.9806822697117,744.0463203026103,845.3560333355962
1731304524.7521057,931.6005906875139,795.5345296239358,742.805464384957,860.7491702723039
1731304524.7538393,891.5767456776994,815.1519599506634,735.1808728944075,849.072241481799
1731304524.7577405,836.7599302397391,841.5155184705973,719.8989217439429,821.6877706321862
1731304524.7616415,796.2545555779496,864.9991511516141,700.489073378425,802.5804725594759
1731304524.7650645,786.1637380538654,878.7731469802633,683.4590412729686,808.0342490700442
1731304524.7655425,799.7878644301571,881.43559853243,674.3205826686793,833.2351612881403
1731304524.7676637,816.0055207157044,876.027002578285,674.515217998113,856.7803903117921
1731304524.7694438,818.0868483122304,867.0836957331313,681.5215006638672,859.0033238789637
1731304524.7720208,807.4039861397252,858.2222481887253,691.623212141699,838.6036967636934
1731304524.773345,801.2254901085362,851.4009222870732,702.6282625698365,813.7033120389027
1731304524.777246,816.7526970734308,847.2546578669467,714.2854615112456,806.5880833844559
1731304524.7811472,854.5814645242278,845.4241302652607,726.6335333991996,825.0115721193714
1731304524.7832215,895.4047503259399,844.623897025956,738.4661069806749,855.696060629599
1731304524.7839231,913.4053202190573,843.02305647908,747.656866609775,875.3745382759226
1731304524.7850482,896.2623444981982,839.2687610456146,752.9250701584997,870.0616670754081
1731304524.7889495,855.7160849340478,833.4854799881754,755.0534601143794,846.4326305790512
1731304524.7928507,819.5595821859993,827.1793061514177,756.1502232290367,825.857137828455
1731304524.7967515,810.8642246300852,821.9235422149676,757.6028320572854,826.2580847572966
1731304524.7987795,831.0096916709042,818.0535096747477,758.7899217485299,847.2181935681876
1731304524.800653,860.1466879084054,814.6739722461759,757.9353255834851,870.7327711441607
1731304524.8027816,874.196965774542,810.8218207940399,754.3314968969908,876.3018121220215
1731304524.8045542,863.9204490283182,806.3384153165548,749.6779842112181,856.9442502916093
1731304524.8069613,840.5492693604559,801.4917907604323,747.0417112777169,822.941820733039
1731304524.8084552,824.3278601153866,796.0418479465881,748.2941307294498,791.8609130143675
1731304524.8123565,826.5069735339695,789.1724783380682,752.4819639637142,775.218704626208
1731304524.8143375,840.173386773111,780.6041603525448,756.7518661972018,773.0509459634583
1731304524.8162577,847.2853755465167,771.6411406656345,758.9281218951874,778.2124115276581
1731304524.8201587,835.4487935825781,764.8420167867379,759.1792453307414,783.6897427145047
1731304524.8216405,809.8401196694854,762.5235772717044,759.1463408960259,786.4674112266985
1731304524.82406,789.908859918133,765.5519348405177,759.5234691550382,787.0001810507988
1731304524.827961,793.4081783887143,773.3399843778834,758.7024468989306,786.907263731698
1731304524.8298955,821.0225811884217,784.426696402766,754.0520464167577,787.2826398508113
1731304524.8318622,854.439221801342,796.5396365085246,744.7293143284631,788.3064067473821
1731304524.8357637,869.6486366321346,806.2650952864533,733.2672637547284,789.651815464769
1731304524.8396645,854.9362830490206,809.6221578259211,724.1631283319953,790.9779150959035
1731304524.8404987,819.5309507402859,804.1430580156451,720.3887180212398,792.1505006870533
1731304524.8419013,786.5493247130933,791.1191883719704,720.7019601294512,793.2080055898101
1731304524.8435657,776.0021021991117,775.8150670834917,720.1406852610987,794.2390053754556
1731304524.8454533,790.7464668485459,764.848141991674,713.5397248129557,795.2982467218939
1731304524.8474667,815.5844082175191,762.3079411741572,699.4046754453693,796.3916956410575
1731304524.851368,829.6967442869159,767.3764083132884,681.085089611602,797.5005918193976
1731304524.8552692,822.6207002297333,775.2270628498445,664.3629776499447,798.6072380390318
1731304524.8591702,801.3955906440198,780.5913305370273,653.5495227847598,799.7054210944186
1731304524.8593574,783.5618439350486,781.3549508373168,649.2978687140072,800.7977155784143
1731304524.8610113,782.1110691045968,779.4775642439151,649.5414744534914,801.888834287952
1731304524.8630714,794.9528899757387,778.6586233299946,652.0585057420424,802.9814342609847
1731304524.8669724,807.4899820336539,780.8922425097568,656.02622085466,804.0755988353295
1731304524.8708737,805.8130129732825,784.9610883536457,661.4829680098218,805.1702233835113
1731304524.8747747,789.2181786696532,788.0563861231823,667.9496434108869,806.2643534454086
1731304524.8765693,771.4936169450443,788.7657552762213,674.0796218106335,807.3576662921307
1731304524.8768413,769.8209136340663,788.4818536050839,678.7132247839774,808.4502834157228
1731304524.8782158,790.3114216414227,789.9581622559344,682.0055607966783,809.5424125896423
1731304524.878676,822.0877012278546,794.5143354709744,685.2712337791763,810.6341403155951
1731304524.8825772,845.2625411655661,800.5331752426289,689.7076857141159,811.7254185812947
1731304524.8864784,846.9989320219255,804.478921666534,695.4212830826558,812.8161433939905
1731304524.8903794,832.595915338735,803.3609082498682,701.8073559812507,813.9062236701268
1731304524.8921273,821.6721584031305,796.6551009441346,708.7743508852564,814.9956029113866
1731304524.894281,831.608765985718,786.6694178099962,717.2398756186385,816.0842470166056
1731304524.8970745,861.7532389072232,777.6767871323182,727.9398867246149,817.172125124418
1731304524.8981817,892.1701211597145,774.4281761032672,739.4009017897229,818.2591993990754
1731304524.9020827,898.8806727602366,780.2691532470207,747.208263048989,819.3454250087808
1731304524.9059842,873.4810265651362,795.2467468698247,746.0395988547513,820.4307544624986
1731304524.907685,830.9726492746746,815.3172923005044,733.5768208137979,821.5151410716834
1731304524.9098852,799.1678492700889,833.7278941183038,713.3173037349154,822.598539831926
1731304524.9117815,798.0462869844181,844.2290119716686,693.5582349720792,823.6809066028976
1731304524.9137864,825.401127030963,844.220132486108,682.646828350544,824.7621970285337
1731304524.9159331,859.7872453377466,835.8578489935502,683.7885370429143,825.842365981447
1731304524.9176877,877.9327670497265,824.607594532496,693.4091624032325,826.9213675399242
1731304524.921589,872.5605708331329,816.3118379233885,704.3582031753257,827.9991551601513
1731304524.923243,856.5660138415491,814.4636111997021,711.2876171492828,829.0756817623094
1731304524.92549,850.5362380368502,819.002533036335,713.8404041092509,830.1508996542564
1731304524.929391,864.0872902225166,827.0689835827799,715.396556501807,831.2247603766984
1731304524.9332922,886.69614075958,835.1169498635934,719.0669770211457,832.2972146039982
1731304524.9347916,896.032090176887,841.0049456611515,724.748094139177,833.3682121793923
1731304524.9371934,877.1400677340235,844.7384331714169,729.5905366926668,834.4377022247663
1731304524.9388013,836.4209085918732,847.5866171831414,730.8919883846684,835.5056331043934
1731304524.9410944,798.434036491124,850.5607675263625,728.4380523816158,836.5719519841722
1731304524.9449956,787.8191756244803,853.5831611713522,724.2820358072853,837.6366039960203
1731304524.9467218,810.9069402642162,855.8241580353339,720.5870207434463,838.6995316047829
1731304524.9488966,851.5672596106548,856.5747016950439,717.8456397513676,839.7606752647896
1731304524.952798,883.9997217832708,855.7402455626935,715.1268198374414,840.8199760146696
1731304524.9536502,891.7309104896134,853.6557838162557,711.8446447677095,841.877378701998
1731304524.9543593,877.8581968379514,850.5913567792458,709.0347965329836,842.9328318823931
1731304524.9566991,859.296297119913,846.4176240676201,708.6587660578518,843.9862800303025
1731304524.9606,850.7612083246258,840.6245636313647,711.4919382718268,845.0376490922914
1731304524.9645014,852.148907931624,832.6918999091325,715.7115164066093,846.0868374626838
1731304524.9684026,849.7357335051037,822.7117279010846,717.7880108806124,847.1337326069324
1731304524.9699168,829.9207899058538,811.9210001389704,715.0965811734935,848.178263107955
1731304524.9723036,793.5767567394147,802.572690327528,707.9551526476674,849.2204573885643
1731304524.972509,758.3371705337669,796.8613657600872,699.31088066225,850.2604325298163
1731304524.9762049,746.0965232998059,795.4561552544175,692.4842382194344,851.2982366437644
1731304524.980106,765.4911110970846,796.8046336724859,689.0098243820273,852.3335796172355
1731304524.981662,803.822368844967,797.9594326621024,688.2139080238419,853.3656955093705
1731304524.9840071,835.7269796593157,796.4465912370994,688.4258247809597,854.3937112310969
1731304524.9854748,842.4131406104146,791.7694088878693,688.4378921995141,855.4176571202729
1731304524.9879084,826.2589818959676,785.4286447825779,687.9998332748705,856.4395018106122
1731304524.991367,808.6116185674573,779.5828147329827,687.2594561088293,857.4627392145569
1731304524.9918094,811.937919471378,775.536875579994,685.9956770884969,858.48920733331
1731304524.9957106,840.6365795397503,773.2350608695189,683.535450309349,859.5140912825373
1731304524.999612,876.6058515922952,771.9501249940107,679.5158754507997,860.5239658945657
1731304525.0010328,893.7075427988063,771.3206838607359,674.7969160996486,861.5047554394066
1731304525.0035129,879.2643280747925,771.684345371954,671.564683647744,862.4611948081279
1731304525.007414,844.6434359239047,773.4201746599371,672.2685986642556,863.4347584317268
1731304525.0102258,816.2723102623257,776.0203554470063,678.0380506302398,864.491960459303
1731304525.011315,814.8034781210085,777.9128858844124,687.7236379223435,865.6607282969217
1731304525.0152164,839.4336833793355,777.3776453270137,698.2427176636246,866.8384531816891
1731304525.0165908,869.4247921079084,773.8897592430038,705.965249547953,867.7677903306551
1731304525.0166025,880.8152475809222,768.8087354621262,708.3293065204189,868.2051910886445
1731304525.0191176,864.7982346740415,764.8245023618068,704.9956254337783,868.2926266229822
1731304525.0230186,833.640323908587,764.4950259157818,698.1569224611894,868.8610191596476
1731304525.0269198,810.0266744216867,768.8408947883185,691.7406234720545,871.1316856157929
1731304525.0290844,808.6333261138412,776.9091679459598,689.4956147635564,875.4450716467753
1731304525.0308208,824.8400719691049,786.5699765988509,692.708220593749,879.5554800978689
1731304525.0321488,839.7854505918513,795.97863158966,699.0614059414095,878.3365797873878
1731304525.034722,837.4749009233816,804.6511768579121,703.8560163065217,867.0174859361728
1731304525.038623,819.3715584632971,813.3412692473296,703.1676514514289,847.3755799433881
1731304525.0425243,803.8825813558183,822.800848354308,696.7710027262711,831.1942258417315
1731304525.0464256,811.0266409268612,832.4506062654388,688.5501065686681,834.1730952151086
1731304525.0477066,845.1599040459953,840.1979966375148,683.9671707679562,862.2084728998432
1731304525.0479429,890.1136016447005,843.8036367757193,686.4408219973873,902.7318611793033
1731304525.0503268,920.7030185696781,842.8504273903651,695.2607862221406,931.5902147418109
1731304525.0515423,921.4541703314189,839.6304321960273,706.4177825355174,931.1007376424957
1731304525.0542278,897.9267120327198,837.9422858112258,715.5660920139574,903.7665572614799
1731304525.0581293,871.8228301591847,840.5194513319012,720.8742430805595,869.8130709744424
1731304525.06203,863.5479900076627,847.098358845421,723.737429327623,850.7406388416213
1731304525.0632646,875.8539817598624,854.6826066917539,727.0448852004988,852.751822663821
1731304525.065931,891.8686011147176,859.6860150278934,732.6193739400621,863.6087278317796
1731304525.0668015,889.612163463076,860.1211370717142,739.9856004284313,864.885839923932
1731304525.0698326,861.3318014030876,856.2344971716705,747.2903682438343,848.691913151484
1731304525.0737336,821.2672235223777,849.5507194213169,753.2234409455117,824.5652885791659
1731304525.0776348,794.7316143664908,841.5510054872946,758.022143438381,810.9685935426508
1731304525.0788226,797.3513307451447,833.1344519630829,762.7185153515504,818.986532666159
1731304525.081536,821.9660589384678,824.9911995787933,767.5554294491042,842.2729991655989
1731304525.0854373,844.1979804284155,818.1677149060548,771.2628960691567,861.6971466081374
1731304525.08566,841.9488159476793,814.0825336299141,772.032595472497,860.4885234965332
1731304525.0864828,812.9070758463996,813.862646426497,769.4225420536283,836.9318831549857
1731304525.0893383,776.3718987103991,817.5140516468455,765.477049119849,804.2981492672759
1731304525.0932393,758.4001644799099,823.6372087250526,763.847274315151,779.2486988916608
1731304525.0943806,771.9884770143046,830.0109750848285,767.2906338967772,769.8038712765367
1731304525.0971406,807.427890028546,834.653960670355,775.3878203971992,772.7189359682008
1731304525.1010418,839.9966562015558,836.5237440043701,784.397845714072,779.7579421504863
1731304525.104519,848.7938396433854,835.3335916413779,789.6321002793361,784.883163165852
1731304525.1049428,831.9519605682174,830.8577777550107,788.7202820155499,786.6724665474494
1731304525.108844,806.5941771560783,822.6762738656422,783.3551654389013,786.5877964734557
1731304525.1099384,794.3197900263198,810.8814875090002,778.2510588141569,786.4209944555047
1731304525.112745,804.4513473343994,797.1609583571739,778.1636649033783,786.9872642098834
1731304525.1166463,828.3277692745526,785.0061624029765,785.1252703843446,788.1729953844243
1731304525.1205475,848.1710627668762,778.3699582356885,797.5869141736094,789.5364026898733
1731304525.121423,852.1261950730798,779.4794968235856,811.5669826951015,790.7706623073581
1731304525.123377,842.8093357075192,787.3987216041818,822.6709558270541,791.8186231888909
1731304525.1244483,832.9358248389028,798.4335812534572,827.8172383710701,792.7661007376663
1731304525.1254964,832.596802795127,808.0461081247674,826.2140523594093,793.706679493815
1731304525.1283498,839.4993472680402,812.9167534415653,819.5977701175768,794.6787475072099
1731304525.132251,840.7438589035204,811.9809300719012,811.6724882382596,795.6729221327088
1731304525.136152,824.778762904579,806.2546915029436,806.6466108932809,796.66509362211
1731304525.1400533,793.2045562817884,798.0382914442729,807.2312593884745,797.6398341551612
1731304525.1410544,761.8158295848629,790.0931154328443,813.1342540677769,798.5950373091588
1731304525.1422358,749.2404527425756,784.9287609776783,821.1615647054284,799.5355858326059
1731304525.1439545,762.2042634503127,784.0838144431528,827.1397628710102,800.466254445722
1731304525.1478555,789.6457118483108,787.5355971069839,828.5249581884451,801.3887200375648
1731304525.1517568,810.8949676864547,793.7373620575321,825.8910727926215,802.3022217920652
1731304525.1556578,811.7480850827845,800.5895852605922,822.2440543706815,803.2054045728925
1731304525.1563632,795.7621723360141,806.8245632019148,820.795709779908,804.0975315408136
1731304525.1566124,781.630163026332,812.6561019391696,822.9709948675663,804.9786287845409
1731304525.159559,788.2878716464865,819.0106409259255,827.9863180452338,805.848978275211
1731304525.1610944,819.1691238015093,825.9658287494456,833.8552851796067,806.7085472576572
1731304525.1634605,858.2272720568566,831.8676735542341,838.6458517613805,807.5567970363497
1731304525.1673613,881.6336956483362,834.052082743245,841.0643675644253,808.3931016487351
1731304525.1712625,876.5628113354527,830.6734506872154,840.420208300409,809.2176634423001
1731304525.1721702,851.9878294136694,822.1849287054184,836.5949659726596,810.0322382418078
1731304525.1751635,832.0349863280142,811.2892043798679,830.3187310623082,810.8394856192618
1731304525.1790648,836.5641521632824,801.327166877107,823.3613591545416,811.6401700542069
1731304525.1799529,864.6804163176884,794.2071332613104,818.0394027426478,812.4294628758099
1731304525.182966,894.9866450452394,789.3908192601234,816.0299021524107,813.19650866514
1731304525.186867,902.6486046627847,784.8337265835663,817.3149116692355,813.9321875100588
1731304525.1877282,879.350380328242,779.3363210237858,820.2485315514862,814.6446459092475
1731304525.1907682,839.9388011749111,774.4203625015912,822.8928189182241,815.370324669588
1731304525.1913035,810.7900238271156,773.8589561310022,824.5864506193428,816.1584855151783
1731304525.1946692,809.8929420726051,780.7655027344078,826.3535506817999,817.0165788140423
1731304525.1985705,834.7371943195108,794.4022606818567,829.7207466506717,817.8439216641345
1731304525.1988115,866.7516538888691,809.4956230358683,834.9848892430621,818.4345744152794
1731304525.2024715,887.1199962990349,819.0009952296514,840.5475547345009,818.6369781622636
1731304525.2032862,890.1627906112499,818.43997078135,843.9815097735192,818.6460883916858
1731304525.2063727,883.8439797410488,808.622331466597,843.8718271713705,819.1786347603689
1731304525.210274,878.691205561137,794.852099217709,840.7340100036783,821.1202871534246
1731304525.2141752,876.1484678714918,783.3938309998292,836.2004174554168,824.4527714521606
1731304525.21767,867.0529466530589,777.8402468486734,831.3528199284981,827.0520731259168
1731304525.2180762,841.4495739830936,777.7812233646765,825.9076514478186,824.892742342737
1731304525.2188442,800.8740778390934,780.2525950228028,819.0752780527727,815.1003455407482
1731304525.2219777,761.9940423250375,782.4187571385659,811.1645433259531,800.8046696898735
1731304525.2258785,747.4859581196773,783.3208972050475,804.1513696101213,792.7955683123786
1731304525.2262435,770.2489151818378,783.6694607730597,800.3882900712197,803.0612653555315
1731304525.2297795,822.6003980228584,784.5072134841938,800.5118951772156,833.3340799526258
1731304525.233681,879.0141146388702,786.4148070134099,802.5590715529712,869.9448580331524
1731304525.2344022,911.474068355321,789.9633472342673,803.3249593236941,892.3891816776576
1731304525.2365286,907.231973289249,796.3800393599638,800.9185458514531,889.4197795721433
1731304525.237582,876.3943914739659,806.9107071867408,796.2282625752564,868.2919719089772
1731304525.2414832,843.6330166942132,820.9313421911024,791.8656983549099,848.5431719185323
1731304525.2453845,829.9922889864656,834.8393747387695,789.4722801052394,845.4909449414951
1731304525.2492857,838.464857070296,843.6517957997903,787.9200541921482,857.8027865178437
1731304525.24996,854.1579374867472,844.6712220108199,784.2079943328939,869.8736551932792
1731304525.2531867,858.2470326689311,840.1001023347103,776.2892973059973,866.5984297556831
1731304525.2553873,843.9255425263178,835.8920703371125,765.1540334085461,847.285243450768
1731304525.2570877,821.3547860772005,837.3135395988102,754.1857851603226,826.4888731045897
1731304525.260989,808.0912288164322,844.6767570518122,746.4238193055482,821.1495281040087
1731304525.261184,813.6166116849611,852.7484677561791,742.285806964863,835.2738501154832
1731304525.2648902,831.3446394435208,854.4509055846414,739.733077774993,855.5612220858793
1731304525.265518,844.9179120982652,846.1125290209158,736.5096807043864,862.2433401157996
1731304525.2687912,843.236669559878,830.3387580386649,732.2783119680383,846.4375588115724
1731304525.2726924,830.9652998525643,814.3895644529479,728.7860933720196,819.1848537972355
1731304525.2742455,824.9290171845483,805.3374240570007,728.1012470980737,803.6102446685263
1731304525.2765934,838.9194617774534,805.6597461074693,730.6053960567995,815.7944396566814
1731304525.2804947,869.7946445277008,812.4710813267116,734.4441133195864,850.2379628785412
1731304525.281076,897.4344574449058,820.6534377438722,736.7596767414964,882.846002054929
1731304525.284396,899.868358168648,827.0305493343502,735.5901720185102,889.8570032352641
1731304525.2882967,871.7484611620276,832.0326949301788,730.9577132832327,867.3111883685666
1731304525.2921982,830.5349624492701,837.6722792402804,724.4854660757907,834.7584767241007
1731304525.2931042,804.2359941955725,844.0565099509362,718.0807231590836,819.9377804079238
1731304525.2960994,809.8723226985438,847.9938397630237,712.841337190356,836.8038167305947
1731304525.2961242,840.0396472317079,845.2320006340449,708.9662156144516,874.3403153784849
1731304525.296634,868.7605594169355,834.3918524031504,706.4643322668666,904.5893353765751
1731304525.3000004,872.1537375867339,818.9980147165717,705.745503429964,903.3115793621907
1731304525.3039017,847.221202008213,805.6503064083349,707.386179805437,867.4557643393841
1731304525.307803,813.4997477437,799.73866535686,711.285000245265,816.6055740933714
1731304525.311704,796.4812510518144,802.1158272898767,716.1291828254481,778.0517254214676
1731304525.3119628,806.8103329294429,809.1346034516682,719.8481514364439,767.4792630209673
1731304525.3121915,832.4554504715137,815.5941761013152,720.7818565790255,779.9366871940067
1731304525.3156052,849.7496682415396,818.0944154289116,718.6158166023695,796.9208501269292
1731304525.3195062,843.4488501481544,816.5504506859024,714.3777793890873,802.6032405570688
1731304525.3234074,819.130682895367,813.3496929783213,709.6228030248351,795.8111342709361
1731304525.327309,798.3614973950615,811.1526089107326,705.5177908847415,788.845728684924
1731304525.3277495,801.3122685392455,810.8772189149015,702.4312041276247,795.191984429528
1731304525.3308213,831.0456159185769,811.1507364352717,700.1099106975246,816.7774234952312
1731304525.3310645,871.5062397669254,809.6621919000461,698.1328677809696,841.3461657586611
1731304525.3312097,900.0246326162927,805.5371422680793,696.3159416143086,852.213035004163
1731304525.335111,904.0752085904303,800.796370170538,694.9043025612825,842.5744077884732
1731304525.339012,889.3309487074549,799.3058634427146,694.4544213552125,822.39811735778
1731304525.3429132,873.3083616863714,803.627767541103,695.3252402429426,811.3294777254271
1731304525.3433075,870.3308479397418,812.3074799258412,696.9280765074234,822.4642878115177
1731304525.3468144,880.2210544960775,820.1957435465538,697.2925346186146,850.2204366628555
1731304525.34968,889.7420492325432,821.9363442366032,693.5987728191203,873.2555497105311
1731304525.3507154,885.1569858410089,815.8825089013249,683.7193594533808,871.3116144334657
1731304525.3546166,865.1656050023548,805.2019060151828,667.8647707702696,842.7298122796044
1731304525.3585176,843.2800967519685,795.3357893717895,649.0350681894596,807.7806824240379
1731304525.3588655,837.3853137246091,790.0425571109541,631.6649235543613,793.9768793582548
1731304525.362419,854.7401125558442,789.2180356186053,619.1653699770095,814.4130870996286
1731304525.3660047,884.7221865051548,789.8952503871297,611.9898214642172,856.4867366449173
1731304525.36632,905.8991815069189,789.1070018690642,607.6322938851839,890.5554344901711
1731304525.3685384,902.6223028192414,786.0152473347787,602.6570822136295,892.2364106435109
1731304525.3702211,878.0370105361235,781.7231208723592,595.3218916539164,860.8672589321448
1731304525.3741224,852.3436809135623,777.3799760177335,586.7915875288044,819.3531363763979
1731304525.3744235,846.822528130228,772.6356843017259,579.9977774330381,795.4929491351065
1731304525.3780236,866.4107607453108,766.0082857343558,577.1780460335674,800.0311260705254
1731304525.3819246,895.5066643149268,756.7830052812512,578.2810459494764,819.3461156914677
1731304525.385826,910.677038294032,746.4728627230775,581.5602114843063,828.2934262893259
1731304525.3873973,899.52739279958,738.2056875962255,585.5452085210737,811.8667330253896
1731304525.3897269,870.0680595977066,734.4009270541078,590.2892817573406,777.5678981972123
1731304525.3899815,843.4484384930586,734.8052921245321,596.6586047509272,748.9724112616287
1731304525.393628,836.7854017313279,736.666157444728,604.5417300625952,746.7284411101731
1731304525.3975294,850.1653200220967,736.8482338777992,612.0090387711028,772.7086986466853
1731304525.4009447,867.6417721855458,734.0063012889651,616.4682765023056,809.3922082453113
1731304525.4014304,870.6793690901017,729.0823882161861,616.7857297255329,833.9937946776062
1731304525.4053316,853.153241036008,724.0616486237922,614.2915742771803,835.6907788657321
1731304525.4055395,826.2955024122768,720.3670654468916,611.589781919921,822.5478089136649
1731304525.4062555,809.8102965136799,718.2127106916314,610.1509889862452,813.0753032188701
1731304525.4092329,815.886272687225,717.0189100659827,608.8494824021734,819.4707575181837
1731304525.413134,838.5585214687898,716.028243169947,604.8721847975912,836.4732375242854
1731304525.417035,857.3999128868187,714.4551086591098,596.4336978566852,845.6105541159052
1731304525.420936,853.6190192269803,711.4117965341169,585.1276949395027,831.847792422173
1731304525.4210975,826.1650257944256,706.311972282409,575.8231420306322,798.5460882279054
1731304525.4248374,794.3147082621151,699.86572138101,573.7859218266676,767.3328320392758
1731304525.4251142,783.5853998250611,694.773010324732,580.9170458324929,762.1024238003994
1731304525.4287386,805.7001116758446,694.9942466496381,593.9573258254054,790.0128968700246
1731304525.4326396,848.7947729456522,703.5083860041824,606.2819320440328,835.0526022474335
1731304525.4358852,886.0018096462868,719.914367313923,612.1928541911055,869.4346277294181
1731304525.4365408,895.5841661527116,739.71062271663,610.5125371648039,873.7736294330577
1731304525.4366553,876.4978733431692,756.0672719125223,604.709784110537,850.3931636855976
1731304525.4404418,847.2860913374514,763.1812010997477,599.6269850974013,819.9492770251676
1731304525.4439728,830.0234632627765,759.1995992239301,597.7227680863906,804.7181804999924
1731304525.444343,833.0975344292381,746.9867778788913,597.9844754294743,812.0503574136443
1731304525.4482443,846.8798118448796,732.4588672315639,598.0447279857646,830.8489650502747
1731304525.452145,854.5903869261589,721.7669426645512,597.0579039321406,842.8908740170085
1731304525.4522133,847.2856970456047,719.072844460467,596.4736016548326,838.2644267554816
1731304525.4560466,829.3910622738791,725.7239113660572,598.3400981187253,821.3697226760488
1731304525.4599478,811.8646993122417,740.3723344822662,603.3325198329544,803.999966451328
1731304525.4628313,802.1009464129752,759.4033440436556,610.4640905140287,794.5160565264835
1731304525.4638488,800.1394246505051,777.8834494751561,618.2123488453343,793.4047562335471
1731304525.46775,801.7924474355855,791.5473374566528,625.596087545549,796.3673997666633
1731304525.4677713,803.2207103136448,799.1836474533468,632.4214483837342,799.250602651957
1731304525.4708252,802.9869516012883,803.4666851129242,638.9352057097105,800.4014968598942
1731304525.4716513,801.5368078459759,808.9116741274404,645.4132533353944,800.2238547241127
1731304525.4755523,799.8313663078866,818.1867726405859,651.9697096759835,799.7367643890799
1731304525.4794536,798.4477982696629,829.8860717636696,658.5773127932596,799.5818659513417
1731304525.48169,797.4360764017417,839.7841399141515,665.1649743733966,799.8361270546884
1731304525.4833293,796.5879073359991,844.4495083057208,671.6872459468833,800.2853805353296
1731304525.4833546,795.7140603697844,844.0757336799709,678.1382106189212,800.7241931852321
1731304525.4872558,794.7517786337172,842.3961691451017,684.5327758073586,801.0794244110491
1731304525.4911573,793.7319628708067,844.255982471608,690.8856324993519,801.3807145239211
1731304525.495058,792.706561147446,853.0417660157889,697.2023547852876,801.6835920016255
1731304525.4988873,791.7042150594704,869.524418555497,703.4812774346198,802.0202512659012
1731304525.4989593,790.7257622705812,891.9996651477384,709.7188322459181,802.3929765277384
1731304525.5005484,789.7596795866029,916.814756361673,715.9130362509782,802.7900038819156
1731304525.5028603,788.7964473394437,938.9577931919408,722.0640055835254,803.2011163449191
1731304525.5057654,787.8334745996358,953.2279053402473,728.1728694305378,803.6233796127822
1731304525.5067616,786.872889540271,956.3058870364763,734.2406745099814,804.0590560065472
1731304525.5106628,785.9176435578796,948.8380187282426,740.267969606807,804.5114596717664
1731304525.5144453,784.9693250372665,935.7918694648383,746.254941619938,804.9825165203105
1731304525.5145638,784.0280746294437,924.091893961188,752.2017032582288,805.4725814472553
1731304525.518465,783.0934575157855,918.6159235830474,758.1084657500472,805.9813400092937
1731304525.519407,782.1652018883235,919.2832949452062,763.9755538055293,806.5086128946672
1731304525.522366,781.2434164557518,921.5306751929609,769.8033430372153,807.0546158224271
1731304525.5262673,780.3284444435691,919.9954521152483,775.5922028068096,807.619822394645
1731304525.5300033,779.420650361164,912.626287720189,781.342476806291,808.2047409871415
1731304525.5301683,778.5203154012547,901.9909834202249,787.054491656413,808.8097933851242
1731304525.5340695,777.6276579729522,892.8552453126749,792.728571709967,809.4353137533499
1731304525.5379708,776.7429095699439,888.300255309395,798.3650466317754,810.0816028561399
1731304525.5382657,775.8663633691365,887.7952449998493,803.9642504787165,810.7489755365065
1731304525.5407057,774.9983402997359,888.5180055037753,809.526517425565,811.4377750469258
1731304525.541872,774.1390734200673,888.0404073984939,815.0521792159379,812.1483549688967
1731304525.5455613,773.2885970687533,885.7519310872658,820.5415660088757,812.8810423801299
1731304525.545773,772.4468033905144,882.3966084515331,825.9950084940141,813.6361069784369
1731304525.5496745,771.6137904630098,878.9264030769195,831.4128369133796,814.4137724696081
1731304525.5535753,770.7903720637097,875.8173393251876,836.7953737742474,815.214297924315
1731304525.557124,769.978220313576,873.0530741331215,842.142922876553,816.038100987999
1731304525.5574763,769.1789494662991,870.4190214089747,847.4557658389054,816.8858020359909
1731304525.5611193,768.3920708977479,867.7505384201326,852.7341806381926,817.7580232716592
1731304525.5613778,767.6132955431771,865.0077085224669,857.9784835850219,818.6549107947776
1731304525.5652788,766.836111594718,862.2293246123356,863.1890639786759,819.57570619781
1731304525.56918,766.0586873927584,859.4638524345411,868.3663507027702,820.5190548702744
1731304525.5730813,765.2931278519169,856.7336842705295,873.5106685523497,821.4845791141238
1731304525.575646,764.5667499004351,854.0360528786763,878.6220464707917,822.4751065597565
1731304525.5759826,763.9029355241587,851.3591369508324,883.7001922884161,823.497183493446
1731304525.5766768,763.2823052012232,848.6946346908711,888.744891187332,824.556851527049
1731304525.5769825,762.6145487013259,846.0409634903672,893.7568103950265,825.6505433916167
1731304525.5808835,761.776003300534,843.4004314883491,898.7380789150754,826.7578576274616
1731304525.5847845,760.7455799646565,840.7755856354564,903.69150089154,827.8492079454187
1731304525.5886858,759.771941517066,838.1674878142867,908.6177334279413,828.9169600994799
1731304525.5922348,759.3704793322188,835.5758967496488,913.5118311016703,830.015953548268
1731304525.592587,759.9290622087351,833.0001549844319,918.3633402010463,831.2669635263549
1731304525.5948412,760.9777995443851,830.4398241474194,923.164514427856,832.7689490574897
1731304525.596488,760.7420450124421,827.8948151348312,927.9254821312264,834.4267740473764
1731304525.6003892,757.0145713415591,825.3652212964595,932.6835372641896,835.8330880910848
1731304525.6042902,749.8609837316106,822.8511309039529,937.4852502956967,836.4490715774426
1731304525.6077929,744.7558792986703,820.3525497002797,942.3313411049679,836.2212919687697
1731304525.6081915,752.4651409323264,817.8694163567394,947.1150293050725,836.3273623084572
1731304525.6105862,782.4612427368728,815.4016388587258,951.6347519466194,839.1708194798598
1731304525.6120927,832.5514748920178,812.9491062808625,955.7611731363868,846.7398374950733
1731304525.6136997,884.6571696262414,810.5116841330972,959.7196431451405,857.8624596264684
1731304525.6159935,914.8331590621437,808.0892337915312,964.2283831787747,867.2535240179564
1731304525.619895,912.1205327793316,805.681679648373,970.0931709902085,869.1950379256812
1731304525.6233509,889.4196880341208,803.2890819677775,977.1053421165168,863.7460585892511
1731304525.6237962,874.5901874755076,800.9116024735671,982.8550098877996,858.5754080935873
1731304525.6276972,887.8937426932025,798.5492620615421,982.8695551714616,862.6442323977636
1731304525.6315985,925.112493950655,796.2015668064533,973.0105164823362,877.0031000785575
1731304525.6325583,961.2323386090133,793.867374709095,952.6137213678886,892.2955182000333
1731304525.6354997,971.6160119868343,791.5455193070179,925.0986651358594,896.6952247908627
1731304525.6389086,952.6647602326941,789.2362887203645,895.254044919677,887.6696406497326
1731304525.6394007,924.9414766574597,786.9427445314341,866.4236866930809,876.4252878253317
1731304525.643302,916.6361683015931,784.6697502412402,840.3420629986522,879.8281897707697
1731304525.6455264,940.9037931816475,782.4190832135935,818.439742029231,905.828143925384
1731304525.647203,984.8577310566762,780.1825410356628,802.0233915608305,944.8612811298354
1731304525.6511042,1018.6577823850887,777.9404046032206,790.9682508243112,975.4503272607371
1731304525.6514168,1017.875370089149,775.6746019452908,782.7786596513616,980.5390402934081
1731304525.6544666,982.3268500963452,773.3969489587894,773.5984922878297,961.6141584927138
1731304525.6550057,936.9526259459161,771.1714479608256,760.7001506913026,938.5238355308765
1731304525.6589065,913.556059347045,769.0904513110377,744.3526380343171,934.0576290662594
1731304525.6628077,926.8759169708796,767.1784641436986,727.330973949794,955.1245485140547
1731304525.6667087,963.3890660726074,765.26843115898,712.4201527138836,985.997233949124
1731304525.6700246,991.908477505462,762.9969016251164,700.1922772283789,999.8634477819027
1731304525.6702754,988.0335235500121,760.0921917508923,689.1407602097911,980.0495783635878
1731304525.67061,953.2294012377768,756.9542160544331,677.9086926917299,934.1245684679271
1731304525.6745112,913.2752183556678,755.1589057604131,667.1400194168004,889.4663048532651
1731304525.6784122,897.3477152454171,757.2515110341532,658.8487801319976,873.3707137741718
1731304525.680467,914.7905651570665,765.420407542879,653.9345987744409,892.8653100756085
1731304525.6823134,948.4478009701345,779.5029934587951,650.6413475312827,929.7076997405504
1731304525.6855826,969.578810721686,795.7988489811083,645.8729669779185,954.4236825630932
1731304525.6862144,961.5088931468013,808.2469221377477,638.1863385558072,948.609726513939
1731304525.689134,932.3935719008091,811.9277508417546,629.3109273059952,918.3676464246963
1731304525.6901157,907.1534242606108,806.618729810049,622.399776474077,888.6582943739462
1731304525.6940167,906.1570088565741,797.4867568706072,618.5937965802891,883.2983867524797
1731304525.697918,928.7887846966709,791.9234943739182,615.4087024293813,906.5336584002498
1731304525.7011406,955.1433519953156,794.55756292509,608.8402990917085,940.4992820166749
1731304525.7018192,963.441584743192,804.0697506039372,597.4088439048605,959.742754772313
1731304525.7057204,947.9538370573397,814.1898210481172,584.2835842298405,950.4526714536695
1731304525.7079926,922.748045658119,818.091195824865,575.2916441414156,919.3337482774602
1731304525.7096214,909.0471256639855,812.8629863169741,574.4306633965754,886.5000681033173
1731304525.713523,917.3005711917478,800.8867244883539,580.7635819510401,869.3990928486546
1731304525.715407,938.6628976439384,787.5629565080292,589.2183342776118,870.5098399156053
1731304525.7166984,952.4503897050878,777.6146054495907,594.3505904358979,877.3772109444154
1731304525.7174237,943.2272520257976,772.8449326119611,593.8460927383502,873.9319670197053
1731304525.7213247,913.5018458634027,772.4990763407609,589.230711443274,853.9858854594842
1731304525.7252262,881.6097079286388,775.0897577949924,583.8431076650955,826.3980068608086
1731304525.7268512,866.5927350806178,779.7248537703418,580.1525625518087,807.7358533883632
1731304525.7291272,872.8331961608355,786.0245517537521,578.5022485614918,808.2573619253814
1731304525.7322564,887.4453367470979,793.3119466184044,577.7912584944426,823.0213744941351
1731304525.7330284,892.48421955852,800.3166557948281,577.0307557746216,836.1572716282177
1731304525.7369297,881.2710215393812,805.8170192243499,576.3150751931661,835.041663791046
1731304525.740831,864.6116204378757,809.5186994717183,576.5707580402232,822.0102251565163
1731304525.744732,861.3751738720522,812.2222803674645,578.5832491249282,812.841839095291
1731304525.7457097,881.2581814723485,815.0872823755993,582.2849710655491,822.6069590371324
1731304525.7478144,914.310391073534,818.6577592933847,586.8682306842084,850.6783575650111
1731304525.748633,936.5149104418198,822.4474408250314,591.4982019294914,878.0935542134256
1731304525.7503471,927.8138699227293,825.3144005834399,595.9558572613705,880.8320879646756
1731304525.7525342,888.6180578788168,826.2253224569562,600.703809022313,849.4667203093028
1731304525.7564354,841.1960333816711,824.8367927971526,606.382048213944,799.2877364052504
1731304525.7603364,813.7420101022318,821.6081682098405,613.1597934255021,761.1432777958971
1731304525.7633724,819.0447597872438,817.5505239284367,620.4091371381958,758.4629388350439
1731304525.7642376,844.9330192135815,813.8839043319052,626.8751331681292,788.4792907177613
1731304525.7645683,864.7033005715796,811.77907854287,631.1974863121397,823.9183385380015
1731304525.7681386,859.2830183163228,812.1837125428078,632.5241465272909,834.989012951995
1731304525.77204,832.894066605225,815.639897647051,630.9833227117387,813.7312123494289
1731304525.7759411,809.2381981149483,822.0124959404623,627.7827643228159,779.8932181319798
1731304525.7789302,811.3171155527974,830.1521927673036,624.7487800186971,763.1636831332597
1731304525.779842,841.392110443632,837.7264731289114,623.4009130244356,777.2923929975298
1731304525.7834268,877.4634821035411,841.6382175860181,624.0918829756494,808.6918038202616
1731304525.7837434,889.5222464991455,839.2750657313757,625.8888466981944,829.1383771191191
1731304525.7852874,863.2181366744978,830.137213245911,627.4339206655227,821.0163397932646
1731304525.7876446,812.4126054501774,816.6865314223774,628.2561507171561,792.9238222932045
1731304525.7915456,770.1182744621974,803.4346037437986,629.5426076408601,772.2112670637938
1731304525.7944882,763.9672422812029,794.5557984962749,633.6522615482874,781.0554265216974
1731304525.7954469,795.0681475828862,791.6466480594966,642.5392608467894,816.7008978236701
1731304525.799348,837.255447241556,793.2863996368069,656.1219721826974,852.7766363080809
1731304525.8022854,857.6733540081411,796.601419958364,671.8261794383197,860.5500845391111
1731304525.8032491,842.1324033544739,799.4128215306037,685.8110130128773,832.1537385975874
1731304525.8071504,804.8142003412622,801.2288921116923,695.1680750117149,786.5121979518497
1731304525.8100462,775.2876784440971,802.5322480649595,699.5524442732686,753.6518730120815
1731304525.8110514,774.6626015284847,803.373906951617,701.0295623333002,751.062031432833
1731304525.8149526,800.6624304340977,802.8487124461642,702.3212043649172,771.515378693041
1731304525.818854,832.4678132309687,800.0838260140199,704.9688628020996,791.2090628066371
1731304525.8202276,849.2901496727314,795.723628288141,708.9106728472224,790.1485750928326
1731304525.821144,846.3399763740515,792.1242071168632,713.5177579257511,767.6486956089587
1731304525.8227549,835.5839004818758,791.5514624642647,718.6960975251428,741.1126969539514
1731304525.8256042,832.028028707407,793.7762338266078,724.7550004831303,730.3502662477943
1731304525.826656,838.122831290228,795.4599124090992,731.2869790579097,740.9859853076714
1731304525.830557,840.1554154355575,792.3608099728477,736.5956249419457,760.5533454255946
1731304525.8344584,820.2635707917605,782.7920339864694,738.7488901541672,770.0732726644628
1731304525.8383596,774.0688865122819,769.4553383485846,737.5177350316857,760.9624657157808
1731304525.8400023,718.3757786100296,758.0692504471126,735.2355809563439,742.6572633588487
1731304525.841162,681.2519888823881,753.8437309173273,735.4092179355094,734.3743633724919
1731304525.8422606,681.7653192888024,758.4228111095284,740.0453077594505,748.2229972043497
1731304525.8461618,715.733065876105,769.2841049305372,748.0021577267662,778.3444647369503
1731304525.8500628,759.0837338906583,781.6239724263481,755.8517832246515,805.3220230707418
1731304525.853964,786.0171930265363,791.1405901802467,760.5023089656027,811.8195232974458
1731304525.855168,787.4187491784472,795.885757985691,761.3114571195649,796.1530078204767
1731304525.85672,775.400052813079,796.3740507229196,760.0105581187418,772.9408154822329
1731304525.857865,771.2561378010695,794.4539585995443,758.805690093423,761.0303986484705
1731304525.858861,786.9070266348648,792.028843152778,758.5683827745538,768.7309083061342
1731304525.8617663,814.4953290803886,790.3142922732906,758.7197952982624,787.7125148696581
1731304525.8656676,832.403423762649,789.6232511387861,758.672536673368,799.9749044977865
1731304525.8695688,823.2614416195936,789.4750069956507,759.1903086950997,792.6160317034003
1731304525.872278,789.6760894651621,789.0901622077423,762.1301283949019,769.2338604618632
1731304525.8734698,754.36803530306,788.3343141245027,768.641654608258,748.7620372873466
1731304525.8773713,743.5034666978358,788.585646357715,777.5206041550123,751.6711609373249
1731304525.8777196,766.0100933496127,792.5240803891721,785.4704704180558,783.5544595977767
1731304525.881272,805.5932284225671,802.395071222574,789.3412250348656,829.0537588577323
1731304525.885173,832.1732078441102,817.7207547871695,788.5083168092721,861.6639015154668
1731304525.887836,823.8956810345793,834.3499773140944,785.291684295853,862.5764900181053
1731304525.8890746,782.76532020791,846.029281438937,783.0334795950935,834.3522820992064
1731304525.890108,732.479753713082,847.7783464038336,783.5336256325985,798.8944688406227
