timestamps,eeg_1,eeg_2,eeg_3,eeg_4
1731305064.5873644,796.7073133650347,245.53008737097673,556.5464566457298,791.8207668134746
1731305064.5912707,775.8475330734545,95.17646085508363,473.8094841182157,782.6773277783133
1731305064.5951767,770.1303758614633,-13.876157648534502,409.9198720543594,792.9654896743663
1731305064.5990832,783.3652161385214,-89.6875935765633,368.00179560668596,825.9928848775129
1731305064.6029894,805.9366577353076,-180.7976960581587,337.2691632114646,866.0385513970574
1731305064.6068957,823.0768424551699,-317.94151992847065,308.9482683196262,890.6017249690983
1731305064.608708,825.8245111020005,-471.7353035286356,286.663925463835,887.0274358980328
1731305064.610802,815.5760669320642,-572.3680196032058,279.9375015820453,859.9114651707187
1731305064.6147082,799.9645256806153,-567.9187629514108,290.892559457165,824.9891502150629
1731305064.6186142,785.5804258464868,-460.87388586969104,311.50866251757384,797.1015751985765
1731305064.6225204,774.2754358965574,-294.97210862214666,333.7965245393946,782.8787919274623
1731305064.6264267,764.713149753485,-118.63065529188265,358.72327097737764,781.6743763273465
1731305064.6275833,755.9143346348226,36.690245246520305,392.4311754262779,790.1138310019816
1731305064.6303327,749.2223193047137,154.98055701761075,434.8486636076384,804.6476972182539
1731305064.6342392,747.7834445581167,227.3102457436477,474.5552384477878,821.4397219777784
1731305064.6381454,754.58762678854,248.08499393069857,495.8314147870143,836.3897298915382
1731305064.6420517,770.3008654888622,215.01018079943327,490.9342702901049,846.4552575090036
1731305064.645958,791.7872944725609,132.19123587186738,466.74037798224424,850.3845094653813
1731305064.6464584,812.1348647885173,18.05868400285368,440.7602668603663,847.455780985746
1731305064.6498642,822.8396001929067,-89.59512967823918,429.44156929356774,836.192414072443
1731305064.6537704,818.0138492009787,-146.2878420924025,436.5979681997706,816.1690657941153
1731305064.6542115,798.8284422285228,-130.53822475329292,450.6022185519852,792.3822659464997
1731305064.6576767,774.7674858699401,-63.903925505217785,454.1726964220859,777.0037336019367
1731305064.6615827,758.995802504108,5.224334218885758,440.43443762157733,783.7401547701805
1731305064.6653335,759.469742032732,44.33351517451598,421.00947015833583,816.7199787638577
1731305064.6654892,772.3369644169787,62.80249752159261,416.63282682904946,862.8987294045253
1731305064.6693954,784.0924526099644,91.96472691204241,437.5549071801901,896.6334617425955
1731305064.669803,782.2169664872494,141.72008887936113,473.4086316015216,895.7772598773993
1731305064.6733017,766.1338968738334,186.044914876284,504.48107063358,857.9215263155106
1731305064.6772077,749.0140788236208,198.1912045279872,523.7679129451195,803.5617671498565
1731305064.681114,748.1562326484647,196.11670835991612,545.892626296763,762.8237241215671
1731305064.6842089,771.305132054382,240.25088053311148,591.2364805104224,755.7211839609312
1731305064.6850202,809.9842552032067,374.4582421612141,659.9278706957055,780.8766428753211
1731305064.6853943,845.4918449824647,565.7944916015108,722.8878760108155,820.076723920704
1731305064.6889265,862.9748033472284,708.6087970972314,742.0150048186973,853.1517921059318
1731305064.6924253,862.1587164655643,700.3566402058742,703.2005440147433,870.700942978774
1731305064.6928327,855.6726706374136,526.2693618212722,631.649470485586,876.058692793769
1731305064.696739,856.2008329638489,275.7798216458368,572.9774134295759,877.7910091725863
1731305064.7006452,863.7290034765068,71.32244686436906,554.1485482298075,880.9183748503143
1731305064.7009857,864.8449761511757,-30.044588681945527,558.7028672001045,884.0734557939415
1731305064.703084,845.7192001313269,-72.67882112725891,541.5260744608962,883.3574317085166
1731305064.7045517,807.6181114455687,-140.0521159010015,474.57646800292173,878.0254081487594
1731305064.7084577,770.4436936484747,-251.20942357391021,384.0212236253144,872.4971955497297
1731305064.712364,759.694968737211,-318.9515235142605,340.6525125632928,872.9675092442736
1731305064.7162702,786.8425923989512,-219.99400806078728,404.0328286971094,881.4736644903238
1731305064.7165773,839.1430453628209,81.66094677929044,565.831219615712,892.3776876819757
1731305064.7201765,887.1531982714328,476.58394677292443,745.4626079914406,894.7260850400364
1731305064.721959,904.0659819512783,780.5749388070137,847.9512591341261,879.8605230262043
1731305064.7240827,882.5987816438949,876.5705294677624,836.8786012668195,849.3232627604084
1731305064.7273333,838.1227079273513,801.1373325694301,759.2085385769401,816.5465714604354
1731305064.727989,797.095850844182,699.7794535748349,700.8680065261362,799.2311250454495
1731305064.7318952,779.6408565156216,695.6582120236084,713.2567281243483,806.5714784891155
1731305064.7321684,788.2200462923232,790.6867609951397,774.7533782427658,831.1477117146007
1731305064.7358012,809.3219100303282,880.4729324403868,817.4873614979383,853.316565932962
1731305064.7397077,825.4646310294904,857.562565894099,790.9687602615666,856.0980610969168
1731305064.7408342,827.6868660880185,703.0605883808648,703.9520593365278,838.7632112010004
1731305064.7436135,819.5789806994862,488.22249494258557,609.368752051443,817.2158799409661
1731305064.74752,811.6660240982663,296.5719659015916,550.6100060469279,810.2779924978222
1731305064.7477598,812.4161259359373,148.0421302001552,521.5964229204653,823.5736140066821
1731305064.7514262,823.1079761000118,-2.5159969127133763,477.85452152050016,844.9378268056485
1731305064.7553325,838.8325647196449,-195.5734530757182,386.7765714337797,854.8748320525406
1731305064.7592387,852.6978118678467,-397.97392667670425,268.54090357996574,842.4843956103916
1731305064.7597094,859.1909498476364,-505.6218152045819,188.4341444568566,813.5192657738105
1731305064.7622414,855.1385693829263,-420.758884258568,206.37449082191443,785.1365760038582
1731305064.763145,839.4826901869613,-137.06873256092155,327.52553943552635,773.0093746643071
1731305064.7633512,813.7213291856732,242.40683840767122,495.5043866671162,781.1699062470668
1731305064.7670512,783.2780188693034,571.3797845020816,632.159678110595,801.1257161973824
1731305064.7709577,757.9447125369713,755.9992725888715,690.1537359497614,819.2908154194683
1731305064.7748635,749.0211597744528,803.2611382368514,677.6600837191161,826.4718806475763
1731305064.7785845,762.9905771793307,789.1990881980971,640.5371255936133,822.7790068545911
1731305064.77877,795.3413372258466,782.8484217418752,621.6083406851477,815.2385863227072
1731305064.7789426,830.0558563155101,794.013648999656,630.9344120178602,810.7329330715972
1731305064.7826762,847.3803543334857,782.7898899446205,646.9158215519644,810.083217643368
1731305064.7865825,835.93376675957,709.7323747498596,641.1538306385795,807.8641416918438
1731305064.7904887,800.6331380962157,574.1200771898637,603.2291757493207,797.8216620591297
1731305064.7943947,760.2145441298075,409.1622615442178,546.3258343793115,779.2556153169958
1731305064.794534,735.8064147053532,250.01378845127033,493.6616905606662,758.9512826787452
1731305064.7971494,738.3020396720522,113.56263233389973,461.02114302730774,746.729820689595
1731305064.7974596,762.3743662809427,7.198325542416569,449.81814636330023,747.7854675981545
1731305064.798301,790.207426810226,-54.163217807162425,452.16070252405154,757.9280715841101
1731305064.8022072,802.5406592884055,-51.805723035286235,459.4673100609572,766.1711782694102
1731305064.8061135,790.8322009041403,14.18721478909788,467.87250609658287,763.3637802577946
1731305064.8100195,763.1454912666331,115.44473571962965,480.229203663779,749.9327320723485
1731305064.8101254,739.1299661053029,218.77157765779003,505.44401912157264,735.6638093565682
1731305064.813926,736.3862526346538,319.51929123671334,552.5259354767908,731.1520582656807
1731305064.8163347,757.5571793306381,442.7813969141369,619.2166048837743,738.5350483319398
1731305064.8178322,788.2600134571983,604.353608519976,684.4528073525473,750.3746822980274
1731305064.8217385,808.1322901625629,773.319048201198,716.950543847845,758.015176605082
1731305064.8256447,806.447412157863,882.6569962932476,699.1481332920137,761.3099850100153
1731305064.8257167,789.5718380098361,883.5138513638955,647.0948247695305,769.7029118797016
1731305064.829551,774.4337690061598,789.2315427430597,604.2777535472902,792.6990981703723
1731305064.8320577,774.2769350949804,664.6740662575125,608.3388667201755,828.3488905795748
1731305064.8334572,789.1357470199993,574.3719189332822,656.5830763470063,861.1593673812081
1731305064.83521,808.2341904773134,541.6864924980177,702.6401581811394,872.6904857885386
1731305064.8373635,820.4396825799793,549.8485923789804,693.0135693470573,856.3120944045268
1731305064.8412695,822.5845404123625,569.6178824885869,616.4310766508428,823.197506769669
1731305064.841308,819.0330863254649,582.3093691579464,522.6360609791943,793.9261996987806
1731305064.845176,814.8436556184691,584.6851617311645,488.72557303550246,782.600436664862
1731305064.8490822,810.4155703586018,581.9219846242688,556.0287165411413,786.8633371322444
1731305064.8529882,802.9128855992512,579.4986973787766,690.1967202146046,791.9382290061839
1731305064.8540852,792.249799416741,579.5751669868843,801.9584093890134,784.7448205070245
1731305064.8568945,784.5794594511516,581.5273721103657,815.2568300861533,765.9598704358588
1731305064.8568995,788.715949772161,583.9226243869491,727.2034537866584,750.1653128612354
1731305064.8608007,808.1897939250832,585.875709617385,609.5795300711836,754.2675649380686
1731305064.864707,836.4258218527923,587.2903048955998,551.041567508133,783.572060147735
1731305064.8669655,859.9657072999773,588.4700010483598,588.9359578424903,826.298525713036
1731305064.8686132,867.239012077756,589.7012769095381,686.1818799845918,860.5808825658638
1731305064.872491,855.5598939805676,591.0849489652297,768.2361554178781,868.7292759441734
1731305064.8725195,831.3485688887579,592.5797322880703,784.8400961824653,848.5784910188922
1731305064.8729603,804.9361374355618,594.1097571713522,743.964312862657,814.2172203351689
1731305064.8764255,784.8715402943192,595.6323874180869,693.0208697467983,786.0026091972596
1731305064.880332,774.8506936234962,597.1465679211827,668.894215035506,777.0479083684975
1731305064.8842382,773.0824812233963,598.6703496405594,663.7687858394064,785.4966737256404
1731305064.8880825,773.3267619964716,600.2191993485972,637.3945526392915,797.5803998758653
1731305064.8881445,768.0461321303028,601.7982841801203,563.2008486401361,798.740464244244
1731305064.8918357,753.4433705726717,603.4057653067259,463.8240871166388,784.4905757143636
1731305064.8920507,733.4234560020053,605.0389081115987,400.4046780711091,763.2715822806981
1731305064.895957,718.6086715891416,606.6974292853142,422.6166708451549,749.7083149195362
1731305064.8998632,719.8222747939369,608.3829411980382,523.8246796069334,753.6401366523634
1731305064.9018736,740.2704366931728,610.0962601834995,642.3287375472485,773.0240254001961
1731305064.9036736,772.3148510871472,611.8354203523135,708.216382821948,795.7157100043535
1731305064.9037695,801.58834366775,613.596997215789,695.2482159725857,808.671107700313
1731305064.9076755,815.8149134329196,615.3814687488199,635.0541213135501,807.690967541625
1731305064.9107106,812.1579626010649,617.1993004990949,585.6740365148055,800.1894353791636
1731305064.9115818,797.8618827148895,619.0699116484711,584.3873242228502,798.4778928354709
1731305064.915488,783.9033629468764,621.0059919550283,623.7816793839951,808.5735229869704
1731305064.9192648,776.7843910034776,622.9868477471043,666.4504168390494,823.7509683194023
1731305064.9193945,775.0284481044083,624.9450454343008,680.5911355696917,828.8645407265492
1731305064.9233005,772.7753372831946,626.8033344998785,663.9655866100026,812.7298915286524
1731305064.9272068,766.4883089691275,628.574780539021,637.6936293506161,778.6791852849818
1731305064.9295857,758.1140906050341,630.4643516558162,620.1169187710449,744.1951090987167
1731305064.931113,751.8835664200334,632.8262085970027,608.1971100520748,729.0967122275382
1731305064.9348562,748.6773432197532,635.8473696780593,584.3110294951256,741.1880079360571
1731305064.9350193,744.5931271752715,639.0545702581485,539.9342066926667,770.7435891386071
1731305064.9367816,735.9589790280273,641.1264181090457,490.8015496367577,798.4109870933929
1731305064.9389255,725.8520442561612,640.688159813837,467.3425250131625,810.267657715893
1731305064.9428318,724.6962677519576,638.2349130586383,489.4794785569208,807.6909989617153
1731305064.946738,742.6609478073879,637.8775646189812,549.8560892249008,803.8531897214297
1731305064.9484608,779.6664419696169,646.1166904910694,619.6360102171802,810.1289975149327
1731305064.9504476,822.0815241730131,665.418565716285,668.738097369865,824.7265490792732
1731305064.9506445,850.2483030308638,684.8339997202118,681.9509329655779,834.0240427060393
1731305064.9545505,851.8076075797841,676.751367238382,661.7091561309053,825.5940411409521
1731305064.9584568,830.3461465975545,610.7240765054755,622.651600025034,801.0981801048268
1731305064.962363,802.1764846833624,483.25702494965947,585.8721093288859,777.1584368560746
1731305064.9660387,783.7054971949825,340.7652222513274,573.188670043476,773.0021333207118
1731305064.9662693,779.7013638740939,265.3889166693483,597.5409619472053,795.2452729991486
1731305064.9673362,781.9069067905407,318.7948628293756,651.7685400166359,832.3963438457247
1731305064.9701753,778.5025305016799,481.7417157567396,706.3620658009651,863.2633034217015
1731305064.9716897,765.709631636813,645.4239856101691,724.394413982569,872.2359261938462
1731305064.9740815,751.3741001715377,677.4382833250174,686.8820426561756,859.5281576848377
1731305064.9779878,747.7798561224328,520.0516137352523,608.1844247128785,839.0717928103508
1731305064.9816303,760.479484021243,239.34247786515806,525.9608643372686,826.6567962421217
1731305064.981894,783.1225443598786,-23.692179989949636,473.4642874107815,828.2751795546627
1731305064.9858005,802.5556733075898,-164.0025433914878,459.3271946997829,837.7155096346693
1731305064.9862113,809.3671441600466,-188.72388649061867,470.16305612981216,844.1783752719641
1731305064.9897065,804.7633955911109,-188.95741570913873,487.2296831806304,842.2675543536526
1731305064.9936128,798.5315461956498,-233.23696030752916,499.4342032564906,835.5558789551465
1731305064.9972217,800.726122025556,-285.2516145086184,505.33089051732145,831.6153463420775
1731305064.997519,814.4095798238695,-229.26212709764746,508.3380493243904,834.1806864613164
1731305065.0014253,834.7453038895559,14.950644722748564,511.7683881813616,839.789862892579
1731305065.0050864,853.8336483750279,395.11044678182117,516.7997168472431,841.1951214191599
1731305065.0053315,866.5534403328526,744.4266121875023,522.9499079380018,833.7347279136603
1731305065.0065978,873.1218914722037,906.9856625342586,529.3225310197564,819.1479075385353
1731305065.0092378,877.3492090302201,861.4981794028158,535.4025188469409,804.26734321276
1731305065.012813,882.5042061127829,732.1443963196737,541.1603227870646,796.0750536199187
1731305065.013144,887.949207797591,675.8292079333,546.7934528812781,796.7916864810893
1731305065.0170505,889.192721377158,746.2269724400768,552.47355161749,802.4048982823459
1731305065.0209565,881.6639033599945,855.0987979107948,558.2538519142104,805.8548287440984
1731305065.0239615,865.2549871397645,862.5509573490717,564.1033873718907,802.8561094810584
1731305065.0248628,845.3964971643485,711.0532534031008,569.9743055741861,795.9346178646838
1731305065.0284045,829.217558699756,479.44011996055565,575.8413450766601,793.01351207347
1731305065.0287688,820.0039208685712,308.32277150318873,581.7046708225032,801.0070189671251
1731305065.032675,814.9170667504594,268.61472065293464,587.5751794043704,819.2506968440111
1731305065.0365813,807.9682221622527,298.26874535736977,593.4614577556184,838.2650271119879
1731305065.0404875,795.6883319635499,267.7112523665712,599.3656344193533,845.4320525806353
1731305065.0415058,780.9324256303775,112.28285639758508,605.2856923599011,833.8070147746512
1731305065.042837,771.8008374336088,-93.75332997470895,611.2191247408372,807.7134081514013
1731305065.043996,775.9997972642117,-192.60250610821043,617.1647944796316,780.766647723415
1731305065.0443938,794.1565912161693,-78.61226902893713,623.1226677929227,767.0866158647057
1731305065.0483,817.1373210943408,208.28779323308663,629.0926484060183,771.4668407875669
1731305065.0522065,830.6681965496737,514.026159963216,635.0739158045883,785.7735982057894
1731305065.0561123,825.2701271431646,694.8784201104047,641.0655511080059,794.9884288443793
1731305065.0595872,804.1199051076153,721.2642565924812,647.0681794978798,788.9477756146723
1731305065.0600188,781.5188908304243,672.936654387505,653.0850935033293,770.6577546690969
1731305065.0617118,771.894655512867,642.55666935817,659.1205955388244,754.1439626600314
1731305065.063925,777.9616623670356,645.8466410584597,665.174542233434,753.1782659535659
1731305065.0678313,788.3236283729376,619.8791807315549,671.2361681140354,769.9612584283364
1731305065.0717375,787.0310671462041,500.5362800497041,677.2852477605873,793.1568790822288
1731305065.0751786,767.255418003316,296.84561749867026,683.3085917071444,807.0640733073626
1731305065.0756438,737.7600229134755,90.36884657051235,689.3281806936607,804.3819739113022
1731305065.076414,717.0604633151744,-35.36029580994648,695.4154538965754,791.8074597457121
1731305065.07955,720.1333840385929,-64.66693147217472,701.6526148535193,783.6095876406292
1731305065.080587,747.8783873107042,-53.88209432148858,708.0269243434616,788.7262815182229
1731305065.0834565,786.7750273553233,-70.56220532436197,714.3227240518678,802.8896505525438
1731305065.0873623,818.3453104068234,-128.01833626511637,720.1650348157566,813.065666802837
1731305065.09077,831.1620403920411,-174.1375307321104,725.3520720328705,810.2282213276931
1731305065.0912683,826.8720796668081,-138.63692571476196,730.3754964427668,798.3620767416211
1731305065.0951748,816.5911219315448,8.932581080701027,736.6178835387415,790.7347423393651
1731305065.099081,811.2518280107445,239.47353263538443,745.5021169867982,796.5440183190832
1731305065.0994625,813.5028474865451,489.4999997030046,756.4079870185521,810.611042586083
1731305065.1029873,816.7702205682203,699.1759437541368,764.6541177200916,816.4063864491994
1731305065.1063614,811.3433830906125,831.989474838188,762.2728038590224,800.4439378719202
1731305065.1068935,792.5554200708056,874.0392947539023,743.2557143813674,765.4366283114045
1731305065.1107998,765.1857209235059,830.7972815812137,710.0371614413189,730.2893023431585
1731305065.1113217,740.9393732456326,730.1525870547317,674.0034842217287,716.2491837038522
1731305065.114706,730.5394659643002,619.9499573331595,647.6308332858772,730.4540666649277
1731305065.1183374,736.1309443348638,545.9740574909922,635.7558323258636,760.5585884637137
1731305065.1186123,750.1444773715428,518.5673702578879,634.437275300924,785.0311679449444
1731305065.1219528,761.9143099014584,498.07474874364715,636.552621803085,790.6301850300973
1731305065.1225183,766.4413963520149,422.70405244898456,637.2748900110691,782.4475675074523
1731305065.1264248,767.371520880478,266.3170063464605,635.5236693623134,778.1571104573654
1731305065.130331,771.6135635492018,78.99564424869254,632.4205110222177,791.6881756471494
1731305065.1342373,781.1388420132012,-33.62424838314905,629.3052937941852,820.66695053845
1731305065.1372125,790.0953724943485,11.582243929371714,626.7654369318543,848.360421384475
1731305065.1375442,789.917489377111,199.60235973053065,624.6947218782709,857.8234370576799
1731305065.1381435,777.4518145798153,414.08343172353807,622.7539075660217,845.5489986108663
1731305065.1420498,758.6643274768394,520.7743597508443,620.7149378450675,823.3092681810049
1731305065.1459558,744.7320292379496,473.1354458257597,618.5396194163845,807.7964376266997
1731305065.1462295,743.7362238476885,348.278969577336,616.2948711146618,807.6540615174366
1731305065.149862,754.533170442291,278.61925995551564,614.0506382116965,818.3045756832583
1731305065.1531355,767.680408044697,338.15445600146757,611.8341279222,827.4277144817364
1731305065.1537683,772.9803191961414,483.8282364079673,609.6368438172732,825.4771771138589
1731305065.1560876,767.8214169870114,600.8426482448443,607.4399179184027,812.822670308067
1731305065.1576746,759.1886184044818,604.9101569859461,605.2314790806955,798.7780670038806
1731305065.1615808,757.028902281869,505.46082948657795,603.0097462131016,794.0528836677502
1731305065.1654873,764.5534486689635,376.62666921763054,600.7780532146473,802.5434417778397
1731305065.1687267,774.7427547131093,273.65294521518007,598.5395148524273,818.4376972797866
1731305065.1693933,777.0297046572924,182.4939459053221,596.2948715555534,830.6132487812137
1731305065.1732996,768.0750730948625,52.551436229143576,594.0430475475141,830.9430721771869
1731305065.1749628,755.9724938087484,-123.70242652363748,591.7825268219544,820.181137791674
1731305065.1772058,753.3903735995857,-269.42371675849193,589.5122212190894,806.8827689926943
1731305065.181112,766.0053261323525,-269.7872502036226,587.2315781191529,800.1083588930915
1731305065.1811378,787.1416396370357,-69.86569896934594,584.9402943412412,801.525432915863
1731305065.1843183,803.5091970397176,265.37706390495697,582.6380398713025,803.3078360370748
1731305065.1850183,806.3994505779477,587.7593013757681,580.3243587641347,794.1254216725222
1731305065.1889246,797.8056670209116,770.9996699531634,577.998708442784,769.1459478542045
1731305065.1928308,786.6224664790285,793.9832518747598,575.6605342509818,736.0355155680725
1731305065.193838,780.2837507147038,733.8667742374764,573.3093128951689,711.1850630361993
1731305065.1967373,780.2973984875143,685.4404023403429,570.9445556886658,708.049227422389
1731305065.1999097,783.8869830095583,687.159332740988,568.5657928084343,726.607303080382
1731305065.2006433,787.8005390526412,715.1545024564267,566.1725595447388,752.8965923137008
1731305065.2045493,790.4937551552538,730.4546868246291,563.764392312759,769.5128073105597
1731305065.2084556,792.082292587813,719.0820333628774,561.3408316557076,768.648881486835
1731305065.2123618,793.3103923891572,692.6793901604842,558.9014266643219,757.0352602197588
1731305065.212713,794.723351206766,667.6146121669494,556.4457375199227,749.0530127608323
1731305065.2155013,796.4389166827673,651.0408617193885,553.9733359273056,754.0718057075788
1731305065.216046,798.317076064736,641.033600487122,551.4838046926147,768.3926942318732
1731305065.216268,800.1943844988776,632.7583294046424,548.9767375609041,778.0805881133019
1731305065.2201743,801.9994199224111,623.0818676692443,546.451739612758,770.3574044359622
1731305065.2240806,803.7449388375576,611.5375168644183,543.9084278628085,744.7013967031965
1731305065.2279868,805.471915246204,599.088818592336,541.3464315564639,714.8776778213569
1731305065.2310925,807.2078568825536,586.7094110485341,538.765392025371,699.7651241838711
1731305065.231588,808.9573011808349,574.7678994792767,536.1649626194387,709.4425806223647
1731305065.2318933,810.712081136684,563.1420250505976,533.5448097045876,737.1083565600092
1731305065.2357993,812.4636753397732,551.5746229997047,530.9046152966248,763.4746884779881
1731305065.2397056,814.2087380206,539.9109832702663,528.2440801664318,770.9005200697865
1731305065.2436118,815.9482410732304,528.1368844702926,525.5629239955124,756.869826472041
1731305065.2466838,817.6844017574642,516.3071626735182,522.8608789255446,736.5578663095333
1731305065.247518,819.4185723691796,504.4718413243133,520.1376776075263,732.1330874413936
1731305065.2504635,821.1508616781391,492.6473666625422,517.3930463051736,756.1624399880732
1731305065.250954,822.8807503942768,480.82523962289724,514.6267202312033,801.0440148911891
1731305065.2514243,824.6077745726793,468.9913992262926,511.83848872944645,842.654870567158
1731305065.2553306,826.3318278508747,457.13816437556073,509.02824459707864,856.5431949169995
1731305065.2592366,828.0530833734213,445.265440669253,506.1959716960881,835.3064160307489
1731305065.2622752,829.7717104994265,433.3763059473787,503.34160733194676,793.7694751974614
1731305065.2631428,831.4875749824353,421.472637994046,500.46481363568756,757.4457735711169
1731305065.2670493,833.2001326935472,409.5535192418953,497.5648698523246,743.5753698768275
1731305065.2693386,834.9087428766446,397.61658024894973,494.6410027425895,750.5653313160319
1731305065.270955,836.6134405417874,385.6611058040575,491.6932561756232,763.9462566645367
1731305065.2748616,838.3156842886791,373.69072438607543,488.7233512213114,771.8041124499273
1731305065.2778666,840.0180104811548,361.7125586432642,485.73427396936484,774.7262123319273
1731305065.2787678,841.7216735484695,349.73045689968353,482.72750265052275,781.9906036773468
1731305065.282674,843.423031840941,337.7345864392447,479.69877349698066,799.5563544280327
1731305065.285862,845.1122573641944,325.6974624648655,476.63660210102,822.4879277140595
1731305065.2865803,846.7793182147227,313.59041298085003,473.5293650200818,838.865463927945
1731305065.2882135,848.4281817164366,301.4235024964987,470.3820025690398,840.8023876949364
1731305065.2904866,850.0894976974512,289.2820080817368,467.2308248437604,832.0811979647276
1731305065.293458,851.8113092659347,277.3019236876911,464.1323814118311,825.7239878524217
1731305065.2943928,853.612143823233,265.53927632589875,461.1081694633531,833.8317807134077
1731305065.2982993,855.4147560048856,253.78238059274608,458.06697685252294,858.1255794448709
1731305065.302205,857.0311252279329,241.50425508422825,454.78808431830595,888.4477260224207
1731305065.3061116,858.2883586640401,228.2103081794376,451.0704871397455,909.9742066514453
1731305065.3070889,859.2989335390195,214.20026482485218,447.05147448981575,913.5757476055614
1731305065.3090494,860.6724926760891,201.1864453579643,443.4562026117069,902.0503464888782
1731305065.3100178,863.2794447501893,191.67971409075852,441.32420991279486,888.2248290289904
1731305065.313924,867.3021507918547,186.40303126356272,440.91747566470684,886.3281006934911
1731305065.31783,870.9669475470928,180.8822637556057,440.31440751967165,902.2227661371992
1731305065.32077,870.2507713441295,165.09786223015976,435.325496948083,928.9636412704963
1731305065.3217363,860.9082043618826,130.82282249850613,422.6325010911845,951.1108947737
1731305065.3246408,842.3052389010188,86.35654800494308,405.94387714324836,955.4192288697949
1731305065.3256426,819.9487925930254,67.6027304920421,400.4656727127128,940.426246773349
1731305065.325964,803.6561194942171,126.24718597871401,427.7112139240477,917.4082528029269
1731305065.3295488,801.9932548542412,287.10289726764984,497.7083346914129,901.4632626350692
1731305065.333455,817.1121441876484,503.9080757638728,591.3062457930702,899.7318122202
1731305065.337361,843.6831849497402,669.0710410040324,665.2601719639869,906.6270058271147
1731305065.340232,872.0686329183183,693.1452953358673,684.6889612268227,910.0721462691839
1731305065.3412676,892.8367686503269,587.7212652940356,654.2076203585466,903.0063053661679
1731305065.344839,899.7192277999047,463.8425939317047,614.1255552814288,889.8102475109292
1731305065.3451738,890.5986657093296,436.74030784651706,602.8300385505545,882.0792461704788
1731305065.34908,868.0314207440935,521.8877772770381,621.3407189928347,887.7069672692157
1731305065.3529863,839.8701901913636,617.7707420735179,633.7337449660585,902.911856954465
1731305065.355678,818.1813045512588,591.4443627542047,602.5881800293589,914.111612485368
1731305065.3558235,814.577649100115,392.49902828056105,526.4148029318633,908.2995197764537
1731305065.3568926,833.5061531406287,99.6966204180651,445.04612064173017,883.685764191897
1731305065.3607988,868.4175290845556,-135.40482656545493,408.20642924408924,852.0631006044292
1731305065.3637142,904.6965818049998,-198.76688115212045,434.8462804600541,830.7343358324005
1731305065.364705,927.9446871186517,-89.9358916086274,498.15714325801264,830.0353310024142
1731305065.368611,931.7549411478165,90.6698059511898,548.1196045687565,846.0471439206133
1731305065.371415,919.8320590854429,223.78272159664755,551.0861935342336,863.9834605985723
1731305065.3725176,902.0274687372837,251.6571319213028,512.9552088766708,869.321585589306
1731305065.3764236,887.7811151284592,197.77816690305886,469.3631194149901,858.0657982273558
1731305065.3803298,880.8222817824283,125.99138036273013,455.6118071704883,838.8556006241729
1731305065.3825896,877.2847234311193,87.62675687948388,483.1393827313861,825.997734627804
1731305065.384236,868.0690742667666,100.81384560602555,538.1025353648736,828.6361639381588
1731305065.3870063,845.1670925058128,162.95002615773078,596.3421909941652,843.4859068852045
1731305065.3881423,809.2009353996757,265.7780006668638,638.9608399598112,856.2603785765998
1731305065.390586,772.6132602128162,392.8640984325761,658.9432517031324,851.411371910663
1731305065.3920486,753.762775633935,511.41038245765276,659.9196078324622,823.7750312331325
1731305065.3959548,763.7283511528717,582.0439271050201,651.8849562164793,783.3334011124524
1731305065.399861,795.4530798876708,587.1166187901879,646.0403791212353,748.6805166528367
1731305065.4014647,825.6511272392373,549.0293900116027,649.2858163569945,733.7766171981046
1731305065.4025977,830.4242301598568,512.933217661123,660.8215338192113,738.626001633565
1731305065.403767,803.033948206194,504.7770921038626,673.9746517438122,751.3786532745278
1731305065.4076736,758.7855396920856,507.07853985525344,682.167878860055,759.2782014804732
1731305065.4115798,722.2248412812302,482.42314535312846,683.5518413567463,758.285345147526
1731305065.415486,707.3254471864066,425.07381749013797,680.6541269908772,753.3062008029165
1731305065.418189,707.6696385142549,384.8250776694817,676.9755962864673,750.3724514444441
1731305065.4193923,704.618992352279,428.24745909269404,674.4430058537991,749.4750268615445
1731305065.4203398,685.513964582596,566.9263236056074,673.1467667977635,745.1882956723283
1731305065.4232986,655.6866908262155,725.3785902862403,672.3460857872338,733.8924725260742
1731305065.4254942,634.2914375304249,792.19478999548,671.4107564755224,719.7496404833054
1731305065.4272048,638.1289318222616,717.4474171158167,670.1537428346915,712.8630221897942
1731305065.431111,667.2235881744036,565.9545249908773,668.6962085505918,720.6927584862198
1731305065.4337802,703.6359249253762,468.5205274200654,667.2165991826831,740.4673687990991
1731305065.435017,723.9643376791965,507.6786769445317,665.806891269484,759.8358439192685
1731305065.4389234,715.7067112849265,641.0241587677424,664.464796560168,765.8195634945008
1731305065.4392147,685.6148958103306,735.4517839117852,663.1492972501345,754.8009263772238
1731305065.4428296,654.6453188681962,683.4812484367867,661.828709521958,735.4022995785488
1731305065.446736,643.5682915833718,495.4506329856418,660.4955061021192,722.196085994038
1731305065.4493716,659.3922637029601,284.1376814706021,659.1575899438973,725.5123368540432
1731305065.450642,691.8865307759196,159.8760448797803,657.8248984955924,744.940998806535
1731305065.4545484,722.2090502497801,136.95493132866756,656.5023708314076,770.3941609559519
1731305065.45809,736.8093588673554,137.92297889481637,655.1900438143246,788.8848401594537
1731305065.4584546,736.0308830665375,87.02878007125207,653.8861521530193,792.0367432972547
1731305065.4604025,731.3569002091551,-0.8419984038628741,652.5895823450479,780.0071660146332
1731305065.4623609,734.3569927023955,-24.15090113965539,651.3005153667959,760.3260378181952
1731305065.464963,746.6035975922518,109.45428644085308,650.0198890442191,743.0653452176805
1731305065.466267,758.4917352560569,385.8950914203335,648.748688806189,735.5098646487897
1731305065.4701734,757.6278693778663,680.757732478862,647.4876076265737,739.3953558920106
1731305065.4740796,739.9764543003688,856.5694392153973,646.2370769352531,751.75734442245
1731305065.4769652,714.6697027895286,872.548726660057,644.9974374795394,767.8053902207215
1731305065.477986,698.0811768073338,805.5778038914652,643.769063402621,783.1797708981195
1731305065.4805543,701.3499183837009,765.8222121958547,642.5523885173004,794.3630777416641
1731305065.481892,721.4685276250839,789.6711078437777,641.3478739652444,798.2958767802289
1731305065.4857984,743.8096723489315,810.409441302513,640.1559707397333,792.9152205903489
1731305065.4897046,754.384335379673,729.650292560482,638.9771032761854,778.8481089052455
1731305065.4936106,751.2118007313713,518.4382199993862,637.8116722183858,760.6803644259642
1731305065.4953103,744.6015574130824,254.3224263075701,636.6600635739272,746.0373075879377
1731305065.4958403,746.2595383285208,63.6239894425492,635.5226547789207,742.2369114987844
1731305065.4961455,757.5429522633544,22.683080748201917,634.3998155364746,752.1444032023818
1731305065.4975169,767.8623794007875,103.7057017282325,633.2919057844174,771.8249973149242
1731305065.5014231,764.6597139795806,208.53830441124666,632.199273606127,792.0610735117956
1731305065.5053294,745.7624683292013,257.25028299221026,631.1222543369977,803.6095338590651
1731305065.5092356,722.8264866425293,252.4146525967543,630.0611706651964,803.071300840369
1731305065.511737,712.434610414841,263.96167081265844,629.0163330260958,794.8447702201672
1731305065.513142,722.0979545280749,353.3499488276907,627.9880398127815,787.0821908705675
1731305065.5147157,742.9775950099679,511.28146041331627,626.9765773191542,784.7320872241969
1731305065.517048,756.0118276240901,666.356319576279,625.9822195535558,785.881863917411
1731305065.5209544,747.3295872492461,750.7047506581032,625.0052280696797,784.9394619635167
1731305065.5248606,720.8021462253755,756.0062295220739,624.0458518734771,779.6552671915047
1731305065.5273285,697.026447942654,730.0362843793678,623.1043273900846,774.9652082440718
1731305065.5287669,698.4756002837095,725.9664549413048,622.1808784525414,779.3563144517826
1731305065.5302184,731.9037040528232,757.206055292793,621.2757162882397,796.4861614897447
1731305065.5326731,781.838768093958,794.2179264465865,620.3890395000342,819.5937194960602
1731305065.5335908,820.539229087074,793.9596329893404,619.5210340497459,834.4960521676178
1731305065.5365794,827.0172599546946,728.2632660875504,618.6718732514638,830.038274932886
1731305065.5404856,801.0321687084427,592.0060995498836,617.841717777153,808.223695897216
1731305065.54292,762.2900861614025,398.8941824218819,617.0307156732707,785.3091674804257
1731305065.544392,736.288470154424,179.82457660806656,616.2390023861394,781.3850145089863
1731305065.548298,737.3395295842113,-16.018869669770197,615.4667007946978,805.2288225086184
1731305065.552204,760.1940120578978,-130.36007123800636,614.7139212503766,846.0720048337862
1731305065.552466,785.0840981857652,-121.69928093555183,613.9807616243685,879.5535113959106
1731305065.5561104,792.1821554346294,5.989998557828528,613.267307362503,884.321042161932
1731305065.5585113,775.69697580991,197.4496911298177,612.573631547641,857.1506217441174
1731305065.5600166,748.0107402037779,376.4297736377842,611.8997949692842,815.2385220292043
1731305065.563923,730.6008712246826,494.4209722892767,611.2458462000708,783.9386906887283
1731305065.5651264,737.8501652132818,558.294944095747,610.6118216789652,779.125028079349
1731305065.5678291,765.8693728559413,610.7836718771308,609.9977458011634,797.217982669531
1731305065.571341,795.4499253198044,680.8468600577067,609.4036310148273,819.9264961656118
1731305065.5717354,807.1916312833117,752.4155776410781,608.8294779245526,829.5333144303895
1731305065.5741026,796.519571500513,783.0304367824782,608.2752754009243,822.5972480305651
1731305065.5756416,776.2224467889599,751.5333478557548,607.7410006949575,811.3690518427146
1731305065.579548,765.025010259609,681.730926838578,607.226619556493,812.1101149774355
1731305065.583454,772.7571804229316,614.6877664047172,606.7320863573593,830.2309312887907
1731305065.5873604,794.6556699864699,560.2016695105224,606.2573442227879,854.8635505409179
1731305065.589694,817.8662473659277,483.90569171576385,605.802325175503,867.4446206595113
1731305065.5902162,832.2930192376145,349.5760313398152,605.3669502924661,856.741928552118
1731305065.5912666,836.1287357604939,174.95385570233864,604.9511298637503,827.2941023659482
1731305065.595173,833.6365433675514,39.48740712566223,604.5547635337138,794.5876730603127
1731305065.5990791,829.8701690217371,26.56162022396694,604.1777404116249,772.5629163545652
1731305065.6000345,827.440019239668,148.27906867209066,603.8199391736595,765.0832959022622
1731305065.6029854,826.4694825181856,323.6330560355407,603.4812282270317,767.1225882594459
1731305065.6052854,826.0427727516119,437.1137222979965,603.161466017643,771.4840041729963
1731305065.6068916,825.4139282447283,432.23210144711226,602.8605014688749,773.9221751557257
1731305065.6090913,824.390721172326,358.68958376940355,602.5781743388675,773.9140221877595
1731305065.6107976,823.1440470219184,328.26821385460596,602.3143151266536,772.7986892789157
1731305065.614704,821.8959729824359,414.65010754450043,602.0687443295217,771.8581557627837
1731305065.61861,820.7526617339931,585.22271375888,601.8412715412991,771.542158775919
1731305065.6208768,819.704647498369,727.1390052745836,601.6316957683483,771.6596756877932
1731305065.6225164,818.69909466262,745.0954719633766,601.4398084023827,771.8630969002835
1731305065.6264226,817.6979190455719,642.1995210733439,601.2653983420521,771.9546643841697
1731305065.6279664,816.6935398796968,511.10321903062817,601.1082549635805,771.9247138635377
1731305065.630329,815.6965855159269,446.0370412171335,600.968162069648,771.8506377788433
1731305065.6342351,814.7192282641369,458.5317990764379,600.8448799519531,771.7990790540565
1731305065.6349423,813.7670540061913,473.64953998797637,600.7381261876513,771.7906146529756
1731305065.6364682,812.8396803894063,407.8026204375322,600.6475817240432,771.8133618565422
1731305065.6381414,811.9347489288733,255.46211049976603,600.572947275294,771.8491097995327
1731305065.6420476,811.0508726701718,105.73249931794373,600.5140351170422,771.8885063814065
1731305065.645954,810.1882928821209,72.81099410737687,600.4708101283128,771.9320514409028
1731305065.6468415,809.3481404670246,199.23966805370836,600.4432534326213,771.9843684329746
1731305065.64986,808.5315589139933,414.00892648996137,600.4310118787041,772.0491661959652
1731305065.6520596,807.7393155426116,581.6282417163679,600.4330591671645,772.127645317127
1731305065.6537664,806.971865321529,602.972109886575,600.4478770446287,772.2193807593156
1731305065.6576726,806.2295690679637,486.6217299175826,600.474583412081,772.3237172575198
1731305065.661579,805.5128413036704,335.17222379236057,600.5146239030515,772.4405130667623
1731305065.6654851,804.8221750989601,262.216206772108,600.5723157279555,772.5701386739113
1731305065.665717,804.1580982897248,310.6737194289839,600.6519310681612,772.7131558886401
1731305065.6676507,803.5211276977051,434.8893418027645,600.7509698423232,772.8700600797574
1731305065.6693912,802.9117515694221,549.1390850931705,600.854346627991,773.0412109212817
1731305065.6698506,802.3304353377197,591.8630152786088,600.9391551932964,773.226887824054
1731305065.6732974,801.7776327967205,554.1679390717793,600.997116347014,773.4273641598919
1731305065.6772037,801.2537898904993,464.18481236225716,601.06553449905,773.6429417983392
1731305065.68111,800.7593398781362,357.56578216866774,601.2330483327466,773.873944607173
1731305065.6832423,800.2946980775046,263.72220476479185,601.5783774858207,774.1206969225684
1731305065.684592,799.8602670619574,207.96595785828998,602.0422189384545,774.3835116732935
1731305065.6850162,799.4564559406347,209.917782375847,602.3298156233634,774.6626982390036
1731305065.6889224,799.0837002794199,269.82770774807364,602.0264529131683,774.9585827700483
1731305065.692829,798.7424520999443,359.02444930106446,601.0402342749281,775.2715186075994
1731305065.696735,798.4331142838564,434.59027307298413,600.1619813078223,775.6018602431874
1731305065.6988337,798.155941324449,472.79783000379615,601.0817294960046,775.9498954848383
1731305065.7006412,797.9110062524542,489.5286089515444,605.1109180922789,776.3157821977924
1731305065.7034671,797.6983693100005,522.5259686833251,610.7321798692165,776.6995877600662
1731305065.7045474,797.5184701877145,588.0460121601024,611.925836390265,777.1015086045699
1731305065.7047586,797.3724695344204,654.5771416558715,600.5592386622818,777.5221880668036
1731305065.7084537,797.2619754342696,664.3311197263718,574.1648767420351,777.9628000662638
1731305065.71236,797.1877361485664,587.2157119111006,543.9150501208794,778.4244660782576
1731305065.714425,797.1478277730463,456.7669696013703,532.1898509052326,778.9069684033313
1731305065.7162662,797.1373009647174,350.1345087603841,555.1264920848415,779.4076965065306
1731305065.7201724,797.1517353484151,325.6564765171621,602.3146427261606,779.9226668751958
1731305065.7223425,797.1947178018228,373.33915343869313,635.3391730128412,780.4508839129641
1731305065.724079,797.283578205462,424.26165924827075,613.9892961246666,781.0001339424523
1731305065.727985,797.4427327159035,411.5098568955303,532.4410456312207,781.5876901648581
1731305065.7300165,797.6778721081255,327.7228359395831,433.20625669514266,782.2281524202925
1731305065.731891,797.9431079080978,227.93630208879242,381.0819679790248,782.9090320723981
1731305065.7357972,798.1394954311927,177.64873733113276,413.55921607149514,783.5733160455936
1731305065.7396667,798.1887085393495,196.167067088501,508.40857335801263,784.1436108443378
1731305065.7397034,798.1744739353182,247.4336845275508,598.7285560299189,784.6079151528035
1731305065.7412174,798.4361014436944,283.8260483067826,625.8578977264465,785.1240545939967
1731305065.7436097,799.4147641460082,297.5377144034556,585.7489337936738,786.0156217879071
1731305065.745608,801.1485110992792,327.2398420415569,528.2717605441569,787.5211051027374
1731305065.747516,802.6857014358762,412.09780671749695,510.6920332706882,789.332580940687
1731305065.7514222,802.1661311197344,539.3839214840038,548.3978604297199,790.3126156956887
1731305065.7553284,798.352407008304,642.2159406908223,607.5442861244429,789.0286957028649
1731305065.759235,793.3546637202313,656.4889848042772,643.3201148894378,785.3862482814702
1731305065.7600925,794.3105225306846,584.9638773145184,644.0612466869105,782.3620829173656
1731305065.7611992,810.7554653069708,503.63418299699754,638.1294697600736,785.5120838228127
1731305065.763141,847.2266531194598,497.466132431902,659.1543881003905,798.9513731385705
1731305065.7670472,896.4634323037221,580.9738692006449,706.2496654257327,820.5226533012616
1731305065.7709534,940.5549066122647,677.4696993968032,739.5876699531427,841.3856673529114
1731305065.7745748,961.1440065590705,680.1072499799675,716.6990467637127,851.8785292806785
1731305065.7748597,951.3867150925018,544.1866953810078,635.5470461555863,849.3083330475192
1731305065.7767906,920.7076374476943,330.7487930356461,543.0597570797893,841.0466118450491
1731305065.778766,889.1156092827301,162.59651254707362,498.5401604647752,839.8872052112746
1731305065.7789676,874.9854576776487,129.0797004951243,522.759543529597,854.662631041116
1731305065.7826722,884.020682293632,219.86039266797877,578.6643354238339,883.0215064716042
1731305065.7865782,906.3936958136632,342.5163422424508,603.3724589151191,912.1726784759993
1731305065.7904844,924.2974517159149,405.66515044395385,564.6978790551735,927.7071225188595
1731305065.792382,925.1438019976559,392.30164752484853,490.87420499220076,924.2383183129455
1731305065.794391,910.7373187212569,359.36369731808185,444.9654083470993,909.6349887128891
1731305065.797843,894.8801820765276,369.87494935679405,466.9218378266174,899.1480737751606
1731305065.7982967,891.059332993213,426.82796273236676,537.2264012537111,903.592345458593
1731305065.8022032,900.7863973605765,472.56869687333517,595.4304359343777,920.7514688688774
1731305065.8061094,912.9900889230039,450.75215178715973,594.8493266506076,937.0854350619591
1731305065.8079734,914.8088498855587,367.44966885967557,542.5032712696656,938.8121846635668
1731305065.8094828,903.5131081852924,291.7081528615033,490.2361233598997,923.5790450265891
1731305065.8100157,888.4774846046993,295.5818660685869,488.7395359725038,902.826445263634
1731305065.813922,881.808934113043,389.2074265848811,546.5174886064432,892.2432954669094
1731305065.816718,886.8577883865958,508.1282664793379,626.5555249525488,897.9590578860606
1731305065.8178282,895.4545496722601,561.8474392353297,678.5078482642671,910.5205701827864
1731305065.8217344,896.356671321015,501.0053414104091,676.199436043251,912.6722948236439
1731305065.8235648,887.0291454295399,349.2143391996794,630.433425065998,894.9233378706322
1731305065.825641,877.6550862347383,179.31481026670406,571.2476558059442,865.299396743247
1731305065.8295467,882.8744384116335,59.612138809173416,519.5806819819982,843.9262992582787
1731305065.8334532,907.7078354036469,14.493217269397007,474.48098179697024,846.2435583069424
1731305065.8355932,940.1629920159008,24.341900667733228,424.848626450025,869.2555528957229
1731305065.8373594,958.325357616682,54.47214459023701,370.9271098838183,893.3471327923223
1731305065.8391562,947.3401636498181,83.97063665530919,332.7018981350802,898.7868792206303
1731305065.8412657,912.1460866035668,114.5319700885816,336.82723305602815,882.7955331809715
1731305065.8443909,874.4007034344969,161.10386768657116,395.0746618569209,862.0733319459598
1731305065.8451717,855.5103970258759,237.90674610383238,493.96730662951836,858.2936185078779
1731305065.849078,860.1717361323283,348.7827326362054,602.5880461437969,879.1865703683438
1731305065.8529842,874.5234134924367,481.94328685759683,689.2362508160288,911.7316239951917
1731305065.8544683,879.8269654450714,608.5451644917557,734.0933729064445,933.0143450293938
1731305065.8547475,868.8274146360264,689.5980072277548,733.461469735734,928.6450686255134
1731305065.8568904,850.381927870809,694.1909118465464,698.2907709728804,902.6898750517864
1731305065.8607967,839.465288601801,620.4408249361895,649.0088691941181,871.6860706520442
1731305065.8647027,842.8871592558935,501.66836837457566,606.5983357760992,849.7242812990081
1731305065.8686092,853.8335170894501,388.18416690374846,583.0387363754998,838.5409932921167
1731305065.870339,859.1166669770314,315.83210351205514,577.6692582201287,830.6578283082304
1731305065.8725154,851.3501565548553,285.92359698194423,581.929100710051,821.0578689987492
1731305065.8733437,834.8858224593597,272.8907090075184,587.2806995260341,815.1691001544648
1731305065.8764217,821.0851666174427,252.6501166491503,589.7449579836051,824.7313637270789
1731305065.8792987,817.9496665364918,226.86855826245406,589.5328502297804,854.8775569814733
1731305065.880328,823.0672298170581,221.3611453142829,588.441443842164,894.7237363011582
1731305065.8842342,825.3185139458496,259.1712788394591,587.7996690906225,921.485492345022
1731305065.8859303,813.8172902948,333.0432770944527,587.896095504307,916.3216864575611
1731305065.8881404,787.3139269961624,405.9504431328262,588.388954925733,879.367334626219
1731305065.8920467,756.8475190610585,444.00544664879874,588.8781639366642,831.4567750116787
1731305065.8922186,738.9980996317726,452.43915323836757,589.1882598346418,800.6312285588041
1731305065.8959527,743.9948484264684,476.43697697224,589.3498703369081,803.3103435570816
1731305065.8998592,767.4108538778556,559.1350675215576,589.4630468053532,833.6202043707037
1731305065.9015217,792.2546347374357,692.8819154377586,589.5951686742983,868.0403466654736
1731305065.9037652,800.5839036381637,811.9965568398951,589.7574854274885,881.7576580252168
1731305065.9076717,786.1616301688535,839.2692191598007,589.9301114227078,865.3248161467675
1731305065.9110937,758.6101913775548,747.2664215592549,590.0922277459721,830.1883458874051
1731305065.9115777,736.0777322509281,579.6656072091062,590.2356505235155,799.3887276685389
1731305065.9142067,732.1776070396909,413.8513612441979,590.3627715985548,790.3155038253552
1731305065.915484,746.9484945541665,299.59936283734476,590.479068692937,802.3858455959125
1731305065.9171133,768.145988630242,229.31366700588316,590.5879612152921,818.9944340870109
1731305065.9193902,781.3114927053807,164.62135088387691,590.6898884720706,822.0503242687856
1731305065.9232965,780.6128296126176,91.32810156449511,590.7837786669231,807.2553394922373
1731305065.9272027,772.1314367722929,47.986151244741905,590.8686275763914,787.5198814248994
1731305065.9299693,767.437847314319,96.76856723485128,590.9441378963309,781.6834939623194
1731305065.931109,773.138250269831,258.8850166978387,591.0105552944651,797.9436793953436
1731305065.9327044,785.0702601718133,473.4620488584692,591.0682615641186,825.6976577888344
1731305065.9350152,791.5542699520325,624.2349446668509,591.1175175212455,842.5076321087704
1731305065.9389217,782.5913199312611,621.1673837548092,591.1584308471332,830.8100096330968
1731305065.9428277,757.6459415344448,472.5028413886911,591.1910406469119,791.5203971620828
1731305065.946734,726.5752203399027,285.096166887463,591.2153992758915,744.222503034915
1731305065.9482958,703.7270226177361,189.1510573612338,591.2316017992122,713.8229438610555
1731305065.9488442,699.5056711116663,246.55255622544178,591.2397744718223,713.5553290967289
1731305065.9491148,714.4712265598961,413.2093439544275,591.2400527399923,736.5957992182987
1731305065.9506402,739.172602854133,578.2987780579326,591.2325684226058,761.9132392064149
1731305065.9545465,759.9036503651247,642.8915117032009,591.2174487841961,769.6694029515427
1731305065.9584527,767.1138732240646,577.6671188578832,591.1948212297242,754.9702345463346
1731305065.9623587,760.7815093024074,425.58491403971664,591.1648174075892,730.2542744925231
1731305065.963887,748.4347952164755,261.1840822284728,591.1275744212439,714.857774483921
1731305065.966265,737.2782248207033,145.01021395820078,591.0832339837096,719.7439077904878
1731305065.9677193,727.5603757255421,103.16804633727469,591.0319411859094,739.2668920330334
1731305065.9701712,713.8065343291896,133.257391625631,590.9738438513493,756.6307933720824
1731305065.9740777,693.1418734374984,217.93825378376727,590.9090924903734,758.5879715767682
1731305065.9779837,672.3277438861866,331.37307306043704,590.8378403827222,746.7667488991954
1731305065.9794784,665.1736813823517,441.08576858371146,590.7602434033495,735.5045268070423
1731305065.98189,680.6187683664535,515.804202639677,590.6764596327937,737.945704728385
1731305065.9840229,711.4443111146855,539.8554974652736,590.5866492292961,752.9956033533598
1731305065.9857962,734.9501991533103,521.1373470617319,590.4909751045849,765.2565901140636
1731305065.9865944,727.7044487913464,482.19271368128693,590.3896043153997,758.444689197049
1731305065.9897025,684.0386640475513,441.8851015132959,590.282708861085,730.5754991235264
1731305065.9936087,623.2449840102679,406.7100634105548,590.1704637290665,697.3785074400337
1731305065.9950695,578.3486842504466,379.4953068727898,590.0530412159732,680.4458698640617
1731305065.997515,574.0137468581948,370.86974945778013,589.9306047042118,689.7803157396614
1731305066.0014212,610.334102502082,393.4770739552294,589.8033100849699,715.4561006715214
1731305066.0053277,664.7863158715265,440.141674958721,589.6713227577823,735.6878794236189
1731305066.0054696,709.9654398066405,471.52687693885673,589.5348460032629,734.8045213133096
1731305066.0092337,732.3945617418525,435.6682929807471,589.3941344133391,716.0914886360162
1731305066.0106611,738.008285806058,310.4749329331258,589.2494528778062,698.6504786585003
1731305066.01314,741.838927317833,132.84023340976478,589.1009683729546,700.9908387414692
1731305066.0170462,752.2179097439966,-15.80997791451722,588.9486425651913,725.4048134824719
1731305066.018931,763.0305350366333,-61.56290782434786,588.7922822788204,756.3396269778068
1731305066.0209522,759.7207822598164,12.041546175187761,588.6318837210766,773.6158886784522
1731305066.0243447,733.2203972175621,156.93591081475694,588.468159590413,768.5259096578743
1731305066.0248585,690.0442309391842,302.7669477317986,588.3027252590733,749.1284716174926
1731305066.0262525,650.3571079656699,412.40009272764433,588.1372209714306,731.5001904857014
1731305066.0287647,635.3441085638897,501.24631177679606,587.9712345439578,725.9573326490715
1731305066.032671,653.2398914266109,603.127739170918,587.8004529907005,730.1707175612445
1731305066.0365772,694.1146816017903,717.8899633129681,587.6180335633652,733.5430726765393
1731305066.0404837,736.7890315485913,797.6166170400504,587.4214716405389,727.6248208593931
1731305066.041844,762.405333638706,791.6833248408708,587.2222732668902,713.837925258361
1731305066.0432198,764.957451094184,707.9321621820502,587.0480917625697,703.172433049141
1731305066.0443895,752.2432375119832,623.2204883800041,586.9242256654682,708.4681427930559
1731305066.048296,738.1322290528054,621.7589932499448,586.8339964686929,734.5036458058698
1731305066.0522022,732.8205155530484,713.0339769531126,586.6875885627202,772.679534958113
1731305066.053839,737.9867959943339,809.1918362304637,586.3558757284223,804.7399495751631
1731305066.0561085,749.0168363830522,792.6026580194759,585.8062735308783,814.0885683075281
1731305066.0574353,760.8011802202726,620.8632552869437,585.2784889920694,797.1928023382504
1731305066.0600147,771.5314034016913,376.5308712654216,585.2976630063738,766.4501952719747
1731305066.0620947,781.8173319579663,211.87669239683075,586.2902704385134,741.7518583440395
1731305066.063921,791.319442089391,229.50042217794314,587.8347216108936,736.7235963587465
1731305066.0678272,797.2669207313706,398.70557689395497,588.1531281806747,749.9969509319609
1731305066.0717337,796.8869605313976,581.0786966592626,584.9080344815006,767.9590654876772
1731305066.073027,791.5035232535239,645.7888259071447,577.8925954302368,776.3455963228059
1731305066.0756395,787.9876266035931,575.5880639450438,572.26322873166,771.2019149309826
1731305066.0795455,795.102151349839,471.47186869318665,578.4827296252408,760.6221492180375
1731305066.0809703,816.4930863194598,454.6017083434804,605.1471129823778,756.4343129327115
1731305066.083452,845.4796946798745,556.3037518734238,647.0812038564968,763.2874074395268
1731305066.0873582,866.7078034903427,694.8505370327441,681.2976470546614,774.6296490898103
1731305066.088618,865.4105629443609,755.2193232569878,682.8101707036475,779.0609470913319
1731305066.088747,838.7628632122909,694.3459902637151,650.6207706617346,771.4074352633011
1731305066.0912645,800.4580238399983,575.857617991686,614.5369033044357,758.4589407826093
1731305066.0951707,773.174945631689,507.12800336584377,608.720298640463,753.7742632630219
1731305066.099077,772.841285900765,540.0976543085549,635.6704231501512,765.6934614907109
1731305066.0998454,796.42040739641,625.4776261029197,658.6463078368326,789.0534121320535
1731305066.1029832,823.7025063971955,657.301321614338,633.5509675111582,808.1565072923727
1731305066.1042094,832.7520037639185,563.7239622312009,551.6906182622923,808.8531833965202
1731305066.1068895,816.9506526827619,363.80779676164303,452.5122587689107,789.8907708992449
1731305066.1107955,789.6420395436168,146.61974585148306,392.7312779200197,764.4842176921561
1731305066.114702,772.5727416611084,-0.4430361993900078,399.34793961787943,751.0151201730849
1731305066.1186082,777.8951126162265,-48.103462310167174,449.28437376456736,759.8969984220741
1731305066.1187203,798.6073725056474,-23.990417876736842,492.9416461755494,786.0334896805887
1731305066.1198008,814.8814297709026,31.365761732296562,498.20656272360407,812.1151199238877
1731305066.1225145,810.5931282987398,102.25366361960278,475.0164311797224,820.6349393265792
1731305066.123655,786.4839161691481,197.31622495857178,461.984109977968,806.5266970330466
1731305066.1264207,759.5818355220475,322.7711454107773,491.63429985381265,781.3296630908128
1731305066.130327,749.7013786581656,464.2105580948196,565.7303979088339,765.0625547978085
1731305066.1342332,764.1000203828781,594.6694047983675,657.4876115843531,771.064865827057
1731305066.1353922,792.6351958478677,694.2146791891942,732.4954003506706,795.4919697825314
1731305066.1375957,816.9598309579975,756.296075169267,768.8620968116584,820.5702435660072
1731305066.1381392,825.5951522193491,776.5813472576103,764.5528190525952,829.5366352433329
1731305066.1420455,822.0271274385073,743.6346721512201,732.9289071490568,820.5557154915236
1731305066.1459515,819.4034459335161,648.9095951609661,693.2733176753427,807.2936942038691
1731305066.149858,827.3314811084897,508.6861986886115,661.5732221317129,806.0162022199498
1731305066.1509836,842.9853424207241,371.7343489795085,644.7491396625901,821.6908235650219
1731305066.1537642,854.1617866350321,295.97187227560363,640.49687371378,845.888342261591
1731305066.1564708,850.6116916987692,307.6216532601401,642.0328897391317,866.9453056295006
1731305066.1576705,832.7962944913983,377.9485199489536,643.6011034187698,880.852355575916
1731305066.1585631,810.5984417132478,442.48184282743136,642.9620774440842,891.9511754528965
1731305066.1615767,794.3302348975176,451.1547770663665,640.6176762010423,904.1548537423838
1731305066.165483,786.8656237120243,407.09335781291674,637.8793891266322,913.1771813012459
1731305066.166575,783.4683247195318,358.4443885929798,635.5693689169635,908.4903411281205
1731305066.1693892,778.2133049771677,350.3198851440304,633.7799507624759,883.4073331451413
1731305066.1732955,770.4311358893856,383.35321243937875,632.2302303864382,843.690596558202
1731305066.175346,765.6449679271343,420.0148767987746,630.6538176357891,806.5187364184262
1731305066.1772015,770.8528625990778,431.3465530926213,628.9568465874297,790.0493583341857
1731305066.181108,788.4318977252963,433.6096200853788,627.1782261570253,801.3550165573699
1731305066.1821663,813.2971685943392,473.14841746752455,625.3896346064939,831.4897383249183
1731305066.1850142,835.1106146954899,571.9375382004519,623.6320719604703,860.984317062998
1731305066.1889205,843.9460734681188,689.8825483767881,621.9077608285345,871.7279834632583
1731305066.1928267,835.8626802300921,746.2118247835796,620.2008947198697,857.2625773706761
1731305066.1934712,815.0817062323167,684.0961342572655,618.4978191755463,825.3857273357901
1731305066.194221,791.5903991072151,519.0813185528265,616.7943566843244,792.5717689973593
1731305066.1967328,775.7137030566778,326.3719497922134,615.0930274691036,774.5647730639861
1731305066.1977575,772.9164614804914,179.33287784421907,613.3976666979501,778.651893185611
1731305066.200639,781.9200702437691,96.46824517581433,611.7102943566189,801.1424011299703
1731305066.2045453,797.1486224531485,45.0953349337106,610.0309181517052,830.6092716046236
1731305066.2084515,813.4708409979735,-4.493139045301405,608.3587175158972,854.7717040933936
1731305066.2123578,829.2267176246203,-30.601552007979933,606.693055437031,867.0359702352541
1731305066.2130964,844.8354136352875,28.6163925115477,605.0337417510647,868.7333730190319
1731305066.213349,858.5611542700935,207.13295043081112,603.3807914730069,865.8707622838516
1731305066.216264,864.3751906003224,450.1713752588441,601.7341805108242,863.3127006246847
1731305066.2201705,855.321762287955,628.5935224061789,600.0939152457576,861.2518724286608
1731305066.2240765,830.1921757503497,631.76558199867,598.4603500897441,856.5213359221414
1731305066.2279828,797.2096716571298,464.23726405802745,596.8343287219811,846.8198871968561
1731305066.2283792,770.3867094911486,257.05922704813327,595.2166389005565,833.5989082436926
1731305066.2289405,760.6997324016861,173.90439379172065,593.6067311491701,821.1908257923541
1731305066.231889,769.0778761041688,284.7305515429375,592.0016729937064,813.4783402101745
1731305066.2319715,786.8285922332458,510.7513000257201,590.3972109739824,811.3103422188825
1731305066.2357953,802.7412440083034,685.7974426555149,588.7921877478046,812.6278271267305
1731305066.2397015,810.5554778355831,682.8452604697884,587.1943229355779,814.5870262994001
1731305066.2436078,811.0120238439796,503.40017911950395,585.620748464409,815.5036410686533
1731305066.244532,808.4749775827128,262.95582350744553,584.0855588403494,815.2544667832819
1731305066.247514,806.5948315455734,94.1794744127576,582.575252628026,814.5025490019048
1731305066.2508466,806.5180636370727,53.31594205449886,581.0317050648003,813.842515302862
1731305066.2514205,807.6047856925296,102.4094270396007,579.3774090502149,813.467539301432
1731305066.2553265,808.8493007061707,167.9603630332908,577.6023384983673,813.2774427810464
1731305066.2592323,809.7179318480139,212.9062415475235,575.8678322773424,813.1085879435087
1731305066.2601233,810.2137738129695,257.5757260971265,574.4988388826802,812.8723842203708
1731305066.2631388,810.5689890736292,340.73685455241764,573.7270187627126,812.5679427829767
1731305066.2632873,810.9693716142434,467.75636735945955,573.2255560814463,812.2327203059015
1731305066.267045,811.4649120497442,597.7513167512691,571.8291468152477,811.8973453140026
1731305066.2697215,812.016202461721,677.1859872906584,568.0719541600764,811.5704672578443
1731305066.2709513,812.5702367322087,682.499115470905,561.7853419670172,811.2459765424511
1731305066.2748575,813.1014845859623,632.1511686664323,555.650245095203,810.9153287244452
1731305066.2757146,813.6123749826453,563.9400197309093,554.3471233565026,810.5743620245142
1731305066.2787638,814.1160292491344,505.122299185674,560.6211631547816,810.2234881342575
1731305066.28267,814.6221516946579,460.9688402242512,572.021184953348,809.8649154924638
1731305066.2865765,815.1330930841323,422.33572422692504,582.6356245701314,809.5003320434732
1731305066.2885969,815.6467501711791,376.4104545464527,588.1207205433786,809.1302333920961
1731305066.2904823,816.1605996253742,311.3678900134853,588.3900160163503,808.7543779939235
1731305066.291306,816.6737045775319,220.09964968425325,586.1000083565791,808.372442369889
1731305066.2943888,817.18658810671,109.39353030374934,583.8102914509149,807.9843529126326
1731305066.2981954,817.7002411302072,8.25616233808023,582.5642842221573,807.5902713773528
1731305066.298295,818.2153443062956,-39.05190233718383,582.142298013924,807.1904406007048
1731305066.3022013,818.7320693281561,0.8712446287754574,581.9321543975614,806.7850665596511
1731305066.3061075,819.2503343233412,122.86418582173286,581.5397354181141,806.3742897613585
1731305066.3068974,819.7702434515236,280.46996279858,580.9122678129768,805.9582129242027
1731305066.307472,820.2924209624978,416.9256642256632,580.17708980769,805.5369355760703
1731305066.3100138,820.8179138509778,506.5028281940031,579.4595039982672,805.1105700260796
1731305066.3139198,821.3474284568347,567.9695617201735,578.8056587028682,804.6792393698067
1731305066.317826,821.8801561662277,634.4747156018814,578.19882668919,804.2430690392189
1731305066.3217323,822.4132891563318,707.5992521172795,577.6056792822777,803.8021808793142
1731305066.3224888,822.9437838533026,744.3323514088977,577.0065471641785,803.3566920315783
1731305066.3256383,823.4727668013182,696.9568708387274,576.3998920344935,802.9067165958937
1731305066.326347,824.0096909947196,570.2769682668579,575.7928980837808,802.4523674578843
1731305066.3295448,824.5698857844975,435.0650481629678,575.191973942856,801.9937570570833
1731305066.3331034,825.160308182291,373.6646026267698,574.5991512054353,801.5309972466164
1731305066.333451,825.7585586833213,402.49306403835396,574.013274111969,801.0641989007005
1731305066.3373573,826.3067287355001,447.8046280820376,573.4325164473361,800.5934717184988
1731305066.3380802,826.7486981073928,407.6775811891651,572.8559025424635,800.1189242550275
1731305066.3412635,827.1143088024573,251.02633581577666,572.2834355401405,799.6406639554158
1731305066.3451698,827.5902636686692,62.599444027803145,571.7155055098914,799.1587970073352
1731305066.3452225,828.4571597712555,-14.464069401993072,571.1523136524893,798.6734281030967
1731305066.349076,829.8068733085216,103.95916581484056,570.5936766767632,798.18466051623
1731305066.3529823,831.1605571175259,364.7664154393336,570.039244896369,797.692596914139
1731305066.3536716,831.4131746952241,608.5497769093492,569.4889703849715,797.1973407397548
1731305066.3568883,829.6259013145426,688.8693299261231,568.9434825967714,796.6989969095362
1731305066.3607948,826.6623991126858,584.0421074966065,568.4038776472967,796.1976699098982
1731305066.3640976,826.4810926834044,410.12834628453425,567.8705879308654,795.6934586283522
1731305066.364701,834.968012414382,325.04710858330503,567.3417913193028,795.1864511325963
1731305066.3680117,855.4195193430802,403.53420982301014,566.8130312728872,794.6767269488284
1731305066.3686073,883.816627805159,584.6674605752808,566.2801664198365,794.1643734996131
1731305066.3692627,909.5695625098965,729.8968837291825,565.7457593289574,793.649511606223
1731305066.3725133,922.7987114881503,736.3538315656251,565.2241811273856,793.1323050198598
1731305066.3764195,921.2860166701681,608.5616324920388,564.736317598484,792.6129189497926
1731305066.3803258,909.7994639619587,435.2026637604367,564.2877856238272,792.091420225754
1731305066.3829727,892.9562635289391,303.553685387373,563.8404545804042,791.5676868080031
1731305066.384232,869.8668525604098,233.6126389258037,563.3097908732232,791.0414705902388
1731305066.3848543,836.7595051881455,185.47612609723683,562.6261455081897,790.5127255437428
1731305066.3881383,795.2182837639307,120.55546981036872,561.8557332990198,789.9820761580013
1731305066.3920443,757.1871637204318,51.192883876441385,561.2846826138409,789.4509313044281
1731305066.3959508,739.9764076402748,32.608264157490055,561.2951776590465,788.9206076248536
1731305066.399857,753.6721556628764,109.48148284970353,561.9385399702225,788.390422847874
1731305066.4004457,791.2029280717295,269.40453754578607,562.4256572536656,787.8561643129484
1731305066.4018478,830.3112852288612,444.87284912594924,561.1714773274908,787.3116566901945
1731305066.4029195,847.2909633909579,560.675592416102,557.0810982532464,786.7552610569902
1731305066.4037633,832.5374106993474,586.1650661928958,551.9078851775495,786.198399216826
1731305066.4076695,796.0200373660953,551.0943009149848,551.8407337239493,785.6663979544982
1731305066.4115758,758.5553129139222,516.125961395146,565.4920176727929,785.1802378149085
1731305066.415482,736.1404001111063,525.6570141128968,597.5241286336902,784.720406591597
1731305066.416037,730.1254227378663,580.8950119888341,642.1160567708872,784.2016627471913
1731305066.4193883,730.7062661310266,648.6973272220703,682.9981426447097,783.509861376817
1731305066.420723,729.5454716658676,689.7961496940795,701.8881883051941,782.6296187391407
1731305066.4232943,729.5232277902069,679.1413191670288,689.0270109245241,781.797674302048
1731305066.4272008,742.4723176429378,608.0652105927797,647.7299180270712,781.4929240839746
1731305066.4311068,776.6130807456384,480.3009821934699,591.2444774370813,782.0604191424205
1731305066.4316285,824.8219241920077,315.8763982100042,536.5710863959437,783.0287212601238
1731305066.4350133,864.8350282782665,158.36264735585237,499.476708708582,782.7011508405169
1731305066.4378276,873.0398058359862,66.6605081669968,490.3856014116379,778.9629247823062
1731305066.4389193,842.3083635182918,83.47923461033804,509.7245244771746,771.6959990107923
1731305066.439598,790.1578813366643,200.59996566212783,545.5038652329674,765.2768832137031
1731305066.4428256,749.6252074684376,354.5887709322756,578.4183714786402,767.6512122126713
1731305066.4467318,747.5478469761795,465.34522264592283,594.0888860967042,784.0607492131408
1731305066.4472198,785.0455425265326,490.0205202769593,592.8678436033827,809.7495410414314
1731305066.450638,835.207379718228,446.68918095445224,586.9434571405477,829.994834409292
1731305066.4545443,861.5504469877404,387.9870498655501,586.3318775851826,830.2340947966222
1731305066.4584506,844.8198872333165,352.02234752705095,588.1161982259823,808.5738008331898
1731305066.4584732,797.752307846171,338.7506423543755,581.5559209043846,779.4360708121354
1731305066.4623568,755.5902645119822,331.8278488607564,564.9125067242727,764.3496555469859
1731305066.4628112,749.1588307766925,336.7534591687265,555.1978503231298,776.6103576057857
1731305066.4662633,781.4903497565763,387.6558461504319,576.5940875585927,811.3859045745953
1731305066.4701693,826.1004296680585,508.65539748929143,634.7070866288077,848.5981071827085
1731305066.4727356,847.6980391701127,667.9130468340365,701.2336629141646,866.5239014782576
1731305066.4740756,828.9259219690091,777.9510689927347,728.1152088188956,856.4680212501792
1731305066.4773483,782.9250303437907,754.9051759552643,684.2986761365454,828.1539125966424
1731305066.4779818,742.8467127462972,589.9658531149397,584.9030874560566,802.0594411802409
1731305066.4784024,736.6769390908419,367.3231845747224,484.9656123933851,794.3571369279034
1731305066.481888,766.4729540312643,206.3099954048881,439.13265692580114,805.6843307232202
1731305066.4857943,807.790877358444,173.68693340805697,460.20323921890633,822.2076995895958
1731305066.4897003,829.6908210621372,241.85799463637915,513.2198151280746,827.9810523415805
1731305066.4936066,819.3696255589331,329.33774073096686,550.8660417261791,818.6229394233086
1731305066.4939938,791.3643967277621,383.9497171203796,557.1882787894168,805.149121287271
1731305066.4962237,773.7346674196008,427.91951481026587,558.0493823401122,804.5837641350678
1731305066.4975128,782.9541890574939,520.2799682324137,588.832198821133,824.66224731709
1731305066.5014193,808.9968708139503,674.7884848818069,652.2758035104636,855.0690752657625
1731305066.5053253,823.5633044853794,819.90415874109,709.5796170788428,873.0164143508674
1731305066.5076437,804.6240336059392,849.4430441862278,715.1078505497641,859.8319279100336
1731305066.5092316,756.39098800186,721.8091942836992,661.4597740569186,816.1087023916757
1731305066.5095851,707.5923275010447,511.89592519116877,590.4474855690837,763.325897037
1731305066.5131378,689.2839614862588,359.23243416637814,557.661488207381,729.9436527614226
1731305066.5150988,710.6685702674949,353.421280361735,582.7213039833208,732.095809303029
1731305066.517044,752.9046214161094,459.9581684313937,631.7324075779113,763.3535397270372
1731305066.5209503,785.5231169276188,555.425930861765,649.2503265900002,800.8539638306861
1731305066.5248566,791.0012165747524,541.1502732279853,611.015364074973,822.1810789823446
1731305066.5251763,776.641879644355,431.7363713284697,548.4588291394908,819.5231158004151
1731305066.5287628,764.6138136829461,337.9691017139777,521.1179293553425,801.1439339868597
1731305066.5326693,770.250709186378,361.3649799644238,561.3723297708055,781.302183135483
1731305066.533974,788.2644546508898,498.7270666953002,642.4306138798771,768.4302510610197
1731305066.5365753,798.3398675443827,643.9692510052951,699.735252361734,760.9698219597806
1731305066.5404816,783.9626799281822,683.3080655197414,686.9866116472906,752.6240166714996
1731305066.540768,747.4587022005992,595.185614670696,616.6405032363691,741.0537106907674
1731305066.5425518,708.7883429169633,465.5639299510162,549.5237843326654,731.9497018335197
1731305066.5443876,690.0269401500883,409.35418869238543,543.9958989997053,734.759245585531
1731305066.5482938,698.7197422597033,472.61917110217354,609.3632323940958,753.5711314033764
1731305066.5522,723.116368718852,601.5918865381625,701.6754144831858,781.2907596242835
1731305066.5528493,742.3961545951728,698.1721169882237,761.5856051525299,803.2238313724968
1731305066.5561063,743.6403773455354,703.7532943703817,759.5907245405238,808.3433575568811
1731305066.5563593,732.4522867732168,635.7383673705899,712.3463451034665,799.0642484864652
1731305066.5600126,728.7850275198364,553.4617534669818,662.0222828563677,790.3675551854551
1731305066.5639188,750.5429646740745,496.22776282807337,641.0212597891845,797.746000011043
1731305066.5678253,797.248218318435,453.6331300445831,651.6167546765055,823.6440972057322
1731305066.5717242,846.9799470957275,388.44324838803186,672.426379689409,854.3328835957042
1731305066.571731,870.2755541383281,280.7601693014199,680.110390417895,870.6051047514608
1731305066.571951,851.4485229982306,148.47275400175477,665.5368282967999,863.5200614545964
1731305066.5756376,801.268280604549,29.280053487638952,633.4983568090236,841.6913572829541
1731305066.5774598,750.7618990841775,-51.78000441319051,591.8217917146878,823.7903203706367
1731305066.5795438,730.0091949968862,-95.86112200492505,543.6154316604868,822.7515522343293
1731305066.58345,747.5421199931477,-115.35718174228833,490.06491513068465,835.3312871414869
1731305066.5873563,785.9610888709409,-110.6130116813527,438.7765935047393,845.9630783504329
1731305066.587542,816.9139352904494,-64.58235879266061,406.8242533155029,841.4214546413654
1731305066.5905993,823.1173365807421,39.27602680678518,413.35233225885816,823.4200088450116
1731305066.5912626,809.5326160800763,195.67932456223582,467.1505062261521,808.02929863517
1731305066.5951688,795.3400641895295,375.9183591250471,559.2925683457323,812.1798653026616
1731305066.5990753,794.995123092366,547.5379944485636,665.9977372467745,838.717455333339
1731305066.602981,805.710628204118,693.6816640740617,758.5667158227228,872.8560906146122
1731305066.6031334,812.1312670321688,811.6359705034125,813.8473134878636,893.2667411400441
1731305066.606887,802.9358738299353,895.0907758009905,821.3272458412039,888.7590180284326
1731305066.6094744,783.3781168629731,924.7978003216285,786.0710383181241,866.9784751236266
1731305066.6107936,771.897740261299,882.8211947864593,726.6792845780532,848.2040293431268
1731305066.612368,783.6565042214753,775.8287178767409,667.2853485432781,849.2603588064952
1731305066.6146998,815.7184009559692,637.9312229506738,626.2510725089302,870.1808898664675
1731305066.618606,847.3573474816742,503.87175232674724,608.6244430847363,894.0391109367216
1731305066.6187248,856.0298009219775,378.76708923174624,607.591020279411,900.2502138899856
1731305066.6225123,835.9699589066081,240.41684566438153,612.4510351872625,881.1257852224348
1731305066.6264186,803.5736334966441,78.76278195670233,615.8554580994875,848.5290693676803
1731305066.6283498,784.4155184794294,-65.85691039313764,615.8542128277445,824.9746984348271
1731305066.6303248,792.4121945182341,-112.26947602045169,613.8303490133283,826.169318965793
1731305066.634231,818.930235167993,-1.4308185666382656,611.6683363875202,849.4156657455674
1731305066.6343162,841.4598073720227,237.28713051842988,610.2687714661545,877.4971325883976
1731305066.638137,844.2590351148232,482.62207082431445,609.5393934551563,894.1505331234328
1731305066.6420436,832.5169854678057,599.9508541901928,609.01636211642,897.0367674978587
1731305066.6459498,827.3378606357138,545.9504448676149,608.3650234389814,896.7886636500867
1731305066.647225,846.033871819074,409.1891969303112,607.5149354105049,903.8406630625551
1731305066.647276,885.0402812739886,342.7707958644574,606.5529815733394,915.9925216237481
1731305066.649856,920.1426705344611,438.38828,605.5791805672274,918.6764670437017
1731305066.6499076,923.9565379610849,647.7704800805485,604.6365204852092,897.9885065117431
1731305066.6537623,886.8014798492354,821.1414826528921,603.7164410021143,854.8452746194214
1731305066.6576686,824.9491733124764,830.7696596998508,602.793401705082,807.4943842200591
1731305066.6615746,770.2269495014405,672.2399466434308,601.8503521744909,779.6109123249747
1731305066.6654809,748.7601242296154,457.3862918788051,600.8843771545631,783.3136255191072
1731305066.665499,764.0801335488096,311.3520159725267,599.9002935698232,810.3736287761712
1731305066.6661,796.1734472398175,269.41086260043903,598.903069343066,838.0217726182821
1731305066.669387,816.5560248421552,262.17530857838204,597.8944712306874,844.5095916310789
1731305066.6732934,808.3473313736067,194.06872742113418,596.8736232049624,822.9928586359076
1731305066.6771996,777.1320494173257,40.06774735051442,595.8388973728529,784.6027453043076
1731305066.6810904,745.307593903631,-123.32426504918743,594.7892015304625,749.8850782632068
1731305066.681106,734.7459302844088,-176.33543674534423,593.7242118802079,735.4653094933549
1731305066.682184,750.977792415959,-52.80529432743435,592.6440115693873,744.7323220664057
1731305066.6849751,780.4365382845382,203.82628157588564,591.5486876786284,767.4425889263139
1731305066.685012,802.1106953689665,470.09017843937784,590.438129198896,787.2904732781705
1731305066.6889184,804.1403308708583,633.2488275421088,589.3120041179238,792.3592765777242
1731305066.6928246,792.3708161581675,669.8593142759375,588.169842035096,782.2060478186814
1731305066.6966815,784.1654304623543,649.5444261847147,587.0112154086886,767.2006477229163
1731305066.6967309,792.4834345200983,664.6417675058033,585.8360135890856,760.4177047604152
1731305066.700637,813.5359616758634,748.480226847113,584.6446482285659,767.7655628820758
1731305066.7038505,829.0097647095403,850.6627017829235,583.4378378835308,783.8728249622229
1731305066.7045434,821.788131492383,883.5332236840054,582.2157082065391,797.0319894561679
1731305066.7084496,792.0813685795414,793.0123733716025,580.976577171832,799.1430747920713
1731305066.7122731,759.715384686513,594.4540206524729,579.7167569666524,792.3939852625115
1731305066.712356,749.7020710240645,353.7077235433468,578.433009463324,787.0546298615556
1731305066.716262,772.5130764620442,140.99093527910736,577.1276135964627,792.0981566655265
1731305066.717092,815.2698424496707,-1.7558547196434233,575.8121499700891,806.4978790436878
1731305066.720168,851.1617428339705,-63.27372037168027,574.5028036388898,818.9680339997949
1731305066.7227254,859.3295331856784,-49.16993434914269,573.2027678872548,817.1735829552863
1731305066.7240744,838.9121298279432,25.73243456612778,571.8802369143718,799.00223926469
1731305066.7278645,806.4575457281824,133.53501051373223,570.4681908056521,775.6836711514098
1731305066.7279806,780.9349056015692,232.70297117555288,568.9153889861603,762.9133890784829
1731305066.7318869,770.7885927165293,284.67120344750737,567.2829736088128,767.0888272528686
1731305066.735793,772.6524387656183,279.1254833911946,565.8085998625098,779.2395321168772
1731305066.7396994,778.5813742484676,242.09758336565227,564.8074665400768,783.013733159044
1731305066.7416005,782.9434403115523,213.43499926760506,564.3552200474719,770.0495902180077
1731305066.743456,784.3978905288196,213.2540587684336,563.9780495532365,748.6361079319482
1731305066.7436056,784.2140130951973,232.3783201382567,562.8156736347821,737.4114313179704
1731305066.747512,783.9664067051654,256.4543328210682,560.3255882507569,749.5707733098075
1731305066.751418,784.3694252661058,292.627983387552,556.786214553026,781.486289620786
1731305066.752,785.3188523862976,360.8449979091328,552.9773671343922,815.1525392241277
1731305066.7553244,786.4229581736087,453.4889839452612,549.4829665531834,831.5191413837908
1731305066.7590473,787.4109536560326,512.4857489756306,546.3943685011337,823.2792833430063
1731305066.7592306,788.2331652692045,464.9429459228785,543.5016039839475,797.7373145995515
1731305066.760476,788.9659914979735,296.16961652285397,540.5858425744418,769.5235209966049
1731305066.7631369,789.692297137413,87.63481290339456,537.5577897333136,750.5264543060428
1731305066.767043,790.4459706376913,-30.699697453313206,534.438566007528,744.7869020960227
1731305066.7709494,791.2186990139076,17.542649547054566,531.2832610792274,750.2672583112968
1731305066.774639,791.9892525474856,190.13142736991043,528.1271043831479,763.2097564579067
1731305066.7748556,792.7441484197747,362.52904589299425,524.9748253517303,779.8218051123251
1731305066.7787616,793.4816974665391,436.07997356560145,521.815171630537,794.6735132620914
1731305066.779351,794.20637529652,418.77195563827934,518.637152014673,799.9613058253209
1731305066.782668,794.92254267137,403.4097589141002,515.4368666758182,788.9565201513088
1731305066.786574,795.6318040474993,465.56546836702483,512.2160230052597,761.4117931128599
1731305066.786908,796.3335904426548,581.3590949394716,508.9778045950291,725.3053446234145
1731305066.79023,797.0267965404025,646.9424079621018,505.724181332234,692.5181272175898
1731305066.7904804,797.710885544969,582.8581311479193,502.4555151572364,672.1854325879627
1731305066.7943866,798.3860695530575,421.23165420222927,499.1713956009572,667.2995156096154
1731305066.798226,799.0528825642702,286.00832762942684,495.87148594506016,675.9070721851699
1731305066.7982929,799.7115895422883,278.3196544780715,492.55586042481605,693.591216604189
1731305066.8021991,800.3618028623825,374.49483370096016,489.22493071802467,714.4137988900108
1731305066.8058214,801.002651251608,438.9040861969867,485.8792414490315,731.5251878741014
1731305066.8061054,801.6337122535213,348.06154511273695,482.519292668734,739.9909730591431
1731305066.8100116,802.2563527614459,114.88742121313817,479.1454022014966,740.8336432487527
1731305066.813918,802.8741787346651,-103.84206276641356,475.757619659523,741.7538747063754
1731305066.8171012,803.4908515574426,-130.1828216704301,472.35581202084717,751.8690448049115
1731305066.817824,804.1049803468759,86.48851916330091,468.9400680735288,773.742498143989
1731305066.8214128,804.7056191881167,423.61428990643094,465.5113236511561,799.5381821153543
1731305066.8217304,805.2756914647559,681.0161179041986,462.07162619683413,815.35813814014
1731305066.821816,805.8088653979798,735.1761119003229,458.6231743396437,811.11572387221
1731305066.8256366,806.3331924432258,622.9134537679796,455.1658874040606,788.474355238073
1731305066.8295429,806.9161216891766,490.8106995584459,451.695075010547,760.4398075282206
1731305066.8334491,807.6188966824159,463.3132360292883,448.20272337169877,742.4917498096053
1731305066.8359764,808.3994718554864,546.6439437621063,444.68532807597666,741.9254171340596
1731305066.8370042,809.0367522904501,644.7261521023255,441.15557383159876,753.7941647636225
1731305066.8373551,809.2144675605615,659.7730168385393,437.64598646190643,766.6137971452131
1731305066.8412614,808.8541854255031,579.5350442071399,434.1885983735035,772.8065481021554
1731305066.8451676,808.54285268663,475.31404139879726,430.76836766532807,774.7736614561245
1731305066.849074,809.5556502496339,422.588324526194,427.28324920156444,781.3687548254128
1731305066.8525956,812.8945918853835,425.2571448876805,423.57779203556436,798.1534502380049
1731305066.85298,817.4055221070695,414.0433957994474,419.5989789587603,820.4202927907861
1731305066.8548515,818.3982184295171,315.76017738491964,415.6099898873453,835.5343968689588
1731305066.856724,809.1658565730411,125.42018263274883,412.2281863519977,832.9700164998657
1731305066.8568864,786.1887390169301,-84.88818088770574,409.99955760863315,813.6798308525798
1731305066.8607926,754.1034033460252,-225.09284484520873,408.51530978796626,790.7211908545052
1731305066.864699,724.1875646604955,-257.305991370787,405.75346392980583,780.0748517570028
1731305066.868187,706.2563485814774,-213.66075597391767,398.9195828247944,788.7020611158772
1731305066.8686051,702.2706326003021,-150.74048402409613,387.6101003862799,809.4149447514909
1731305066.8725114,708.1550468674259,-90.07299263386687,377.9560679128722,826.6954735825525
1731305066.8737266,720.2211688565865,-4.189339948019267,383.56345929152917,828.5906444088426
1731305066.8764176,737.9095502556218,142.02788089909302,419.2927692271319,815.0005781251014
1731305066.880324,760.2872159857147,342.51562931779677,490.4031866572957,796.1848699281387
1731305066.8837783,781.7425723208918,546.436696666837,586.7398676814124,783.7862953922415
1731305066.88423,793.3900219531616,701.4310471030713,687.9531860712368,782.4956725778883
1731305066.8881364,790.137859597094,795.5063525186522,773.5830751533134,788.8500403891786
1731305066.891632,776.5903485149596,854.2657318534061,828.5957102463951,796.7264475110776
1731305066.8920426,765.2764629455138,900.8879927924938,844.6437432229848,803.5056493141382
1731305066.8926015,767.7374128938109,925.4400798072579,823.3831587487048,811.3194458359035
1731305066.8959486,785.5391458330745,897.2070696353956,781.0938352156809,823.01494381799
1731305066.8993697,808.27246433805,805.7504216688817,745.2249404740746,837.2841024241166
1731305066.899855,819.9684401445079,684.8536850345383,738.0099615166123,847.8285291420993
1731305066.9037611,809.5113259981623,590.3364709558364,757.5058744097992,847.6561822745163
1731305066.9076674,778.4238268440888,550.8243047588716,775.0303165084993,835.048511101339
1731305066.911477,741.0193210655267,541.84291619169,757.4030325939943,816.0877137460884
1731305066.9115736,716.1538434980002,514.4583995237722,699.3485953783849,801.2558255334679
1731305066.914961,715.2065436160686,454.55732019515153,637.1637984186452,798.448806659952
1731305066.91548,734.4361646236863,411.37695650446653,625.8544718469251,807.7250458477437
1731305066.919386,757.7454828441852,457.5072344499498,693.2340828573678,821.663748808819
1731305066.9232924,768.204940257987,611.9991442970608,809.5434516590313,830.7367531155594
1731305066.92654,759.4989504687754,804.4619858253241,903.679575902289,829.5208477632766
1731305066.9271986,738.6171854459285,925.7623396483671,917.971399566751,819.5240504808368
1731305066.9303522,718.7255852489211,924.186631507062,856.0539288980686,807.2192045557358
1731305066.9305525,709.065577759479,853.1104313535373,780.072823803615,799.0993061430837
1731305066.931105,710.0088290015718,818.1150959815336,757.0512682659532,797.2541583707755
1731305066.9350111,715.9514368235737,870.940309329815,801.0697335695643,798.4545755286532
1731305066.9389174,722.1940820769146,953.723248711532,863.0554004588055,797.3013811063868
1731305066.9428236,729.5549991473632,950.2940512753742,876.7839485866547,790.9632486551933
1731305066.946144,743.0738240619769,797.1065301791574,818.1817136745328,781.622664465855
1731305066.94673,766.1068806313583,548.0282851187488,723.8027686781288,774.5180761759578
1731305066.949227,794.8861586354781,331.059260852166,653.3096244594745,773.3000165868766
1731305066.950636,818.6773874605342,236.96757682537373,632.4786191706727,776.9367731184019
1731305066.9545422,826.537211886915,242.9070044586448,630.2153678699032,781.0818749648523
1731305066.9584484,815.9287538356318,241.6099505365762,591.3243116777029,782.6776013422586
1731305066.9614482,795.946092392859,150.19841936529986,495.60360012402214,783.4581755852196
1731305066.9617352,781.6303319228971,-0.8556941538652154,388.4101866884057,788.9089550704855
1731305066.962355,783.2266896109825,-82.68822934458132,351.1107543568009,803.3089919616147
1731305066.966261,798.7304855809531,21.50776125926069,433.16309521444333,824.9751300469626
1731305066.9681025,815.6224104731357,307.6100530955182,604.6987347463604,845.7497055876345
1731305066.9701672,820.5446550208303,643.4841880550482,774.1494915590665,855.4920567342773
1731305066.9740734,809.740045237448,873.7048671610171,858.8888321408263,848.6434227796638
1731305066.9773266,792.5328786868547,942.6307236035002,848.0761711756084,828.4001614735547
1731305066.9779797,784.9349641056895,924.2225375125345,802.5663804634727,805.4705789160429
1731305066.981886,797.4824303512457,934.6747320070278,793.7019817955954,791.9195239374133
1731305066.9857922,826.1957433201989,1013.9503815428175,837.9527416695265,794.0616604174506
1731305066.9869776,854.2227624512792,1088.112815986966,885.855688512034,809.2408055582753
1731305066.9896984,864.0284763498053,1043.8827622523304,871.8907393844894,828.6484698057321
1731305066.992918,851.2214690972593,841.560513743,777.1207030614831,843.9044983139287
1731305066.993605,828.7986172374583,561.2508920842554,648.1921774596443,852.3483492026426
1731305066.9963562,817.6588917355524,342.4959768763242,558.2358525334006,857.1030413168767
1731305066.997511,830.4455511918615,273.7901435509449,546.7264683200656,862.2694292939437
1731305067.0014172,861.6903270975209,330.0338487412315,591.363129064122,867.8025831751913
1731305067.0053234,892.3598661077091,409.5845585362322,634.123774846678,869.0652154534952
1731305067.0058527,904.9196332623907,431.8053660556002,635.0964362174294,861.8452878651547
1731305067.0085092,896.2078001296818,403.322333593734,604.8665828047651,848.1857743721898
1731305067.0092297,877.6565533232239,395.2804936436996,588.5499362826798,836.9389556288348
1731305067.0131357,863.7082440046804,461.59589410590553,619.8932072216651,837.4421223646393
1731305067.017042,859.3235456535808,582.7433475882955,689.2981788076361,851.2695664922821
1731305067.0209482,857.3615672337577,687.4936816070276,752.8628389160186,869.4451127177285
1731305067.0241003,847.1491389198461,722.9251301498687,769.9569691752495,878.294584084115
1731305067.0247278,825.8999439729165,698.3179826578039,733.8709600031139,869.8960914619443
1731305067.0248544,803.0418982376768,664.0108934576831,672.3032360448245,849.0356048548446
1731305067.028761,794.0853572598749,656.7898432745303,623.9909520886769,830.9182520855172
1731305067.0312643,808.9594072053056,671.1898786696354,614.0846952880769,830.7052056534902
1731305067.0326667,843.5733732765904,677.8513475295788,643.5594066491967,852.2364321948149
1731305067.0365732,881.0003970366191,656.4848040694337,692.144223358576,884.4608606380675
1731305067.039692,902.1438064521449,603.2298992902663,727.8276163718987,908.8211978968409
1731305067.0404794,898.8736185857862,512.6450504678755,719.7663124347313,912.502059842864
1731305067.0436032,879.9193797244042,369.7731657473754,653.7414023998392,897.4573153358781
1731305067.0443857,864.2136317994417,174.36996935782682,544.3460394429283,878.0322654108569
1731305067.048292,865.901987741528,-26.08683200263397,433.3078436260557,869.0067015353891
1731305067.0521982,882.6233822485926,-140.53754718608144,368.89853325296644,873.6816508279807
1731305067.0552833,896.9059630771505,-90.68103757876133,376.42518385646986,881.5477858230256
1731305067.0561044,890.031236193148,121.60327625330689,441.21554034100427,877.1497092281037
1731305067.060011,857.2471799119279,399.686743664575,519.8145541467037,852.7656973013111
1731305067.0624783,812.0815227176596,614.2729685983293,572.8840728807922,814.8393229952637
1731305067.0639167,776.62373645104,695.3389080870311,592.8182834907112,779.440574831458
1731305067.0661724,765.8670217675524,674.1118480951145,601.7439117692844,760.6704516008597
1731305067.0678232,778.2907812846487,637.5009996059893,622.7816674090595,761.1335948808828
1731305067.0708747,799.2465850359418,639.4090442789746,653.9482924923243,771.6775961763348
1731305067.0717292,813.4178997667143,654.9597317097397,671.2331577925718,780.0392645672309
1731305067.0756354,815.7497328749633,619.9758128911053,655.7977445816668,780.6675239985726
1731305067.0795417,812.2494824515084,510.46588460715896,614.1684507931146,777.2228858653846
1731305067.0813534,811.5375908331259,375.7262880868338,570.7060862424732,776.4918602413534
1731305067.083448,816.4029593332325,288.733431399774,544.8809600324239,780.9432593790235
1731305067.086466,823.1250448533128,266.9886077715738,538.9825342519059,787.4542303605612
1731305067.0873542,826.9050978202246,250.44769854266136,543.5240426416669,791.7179668257922
1731305067.0912604,826.2249808954757,164.4546795863088,548.5522412231157,792.1753385787613
1731305067.0951667,822.7030470626454,6.602322191059159,549.6992699286379,790.0865587939343
1731305067.0990727,818.6495244870039,-130.74295752140364,547.5862552199102,787.445595261496
1731305067.1002283,815.3439334472599,-130.12966822801735,544.5447001132701,785.41654114197
1731305067.1010804,812.8608366646661,47.974452872944255,542.1694471934113,784.1122138248788
1731305067.1020577,810.7225276467726,319.9908858977765,540.7372131255651,783.1338065276009
1731305067.1029792,808.5164184846951,534.8188406438335,539.7835328489498,782.1153524746512
1731305067.1068854,806.1170438148479,587.8007615719715,538.8149204477288,780.9348977450909
1731305067.1107917,803.601209231999,499.10937886828975,537.6334526448809,779.6520429165278
1731305067.114698,801.0848506456085,389.4466781621439,536.2917190794852,778.3674088027211
1731305067.1176488,798.6283694231628,373.1390469412496,534.9169675138979,777.1365198673732
1731305067.1186042,796.2306117618633,462.3307813504259,533.5888805766341,775.9609401347541
1731305067.1191037,793.8647315633007,566.4706326931903,532.3167668299549,774.8181702420343
1731305067.1225104,791.5096541720711,583.398024545405,531.073735217534,773.6895300656619
1731305067.1264167,789.1599918887885,494.1559439593455,529.8340124270329,772.5697554271082
1731305067.1303227,786.8205027502405,373.82194483540815,528.588293705875,771.4627393712823
1731305067.1332402,784.4973682434982,313.21934741464634,527.3400504351943,770.3739792522505
1731305067.1342287,782.1935538225575,329.7714344279474,526.0959418424183,769.3063272813633
1731305067.1359885,779.9088233161664,351.61834521033643,524.859673250226,768.2598162212698
1731305067.1379788,777.6417447832785,287.37636127642793,523.6311954331799,767.2333456255404
1731305067.1381352,775.3912990718472,115.86975391854509,522.4087657398552,766.2261141969199
1731305067.1420414,773.1573124999045,-84.73988842936677,521.1910232769985,765.2380480297443
1731305067.1459477,770.940113658104,-193.67367755806987,519.9777552858134,764.2695296120514
1731305067.1488316,768.740071110204,-141.8629845542876,518.7694209978223,763.3209955013706
1731305067.149854,766.5573689767108,34.460434407562275,517.5661048347935,762.392728896006
1731305067.1537602,764.3920255790104,223.49448056749856,516.3667207237289,761.4848657360983
1731305067.156854,762.2440055683817,323.38374915377557,515.1693036519149,760.5974891338957
1731305067.1576664,760.1133020952076,311.3600883214543,513.972856303092,759.7307030641806
1731305067.1615727,757.9999531198354,243.4575113338994,512.7799670553136,758.8846507763084
1731305067.164423,755.904016384116,195.52385200306358,511.5975230376461,758.059496606995
1731305067.1654787,753.8255407830686,203.90927995658228,510.4321099923071,757.255401616787
1731305067.1693852,751.7645579618372,252.90371141359952,509.2798173978691,756.4725114506913
1731305067.1708963,749.7210985734479,304.2782543516448,508.1178446703623,755.7109605315713
1731305067.1732914,747.6952200253078,329.2192464898825,506.912463255827,754.9708879173978
1731305067.1757293,745.6870175888396,315.7604696552661,505.6534286325931,754.2524536510689
1731305067.1771977,743.6965877738921,260.47845243516656,504.3998970380402,753.5558381976235
1731305067.1800144,741.7239409101807,166.80202321970978,503.286364590937,752.8812093834737
1731305067.181104,739.7689252063212,53.3729425270904,502.4269675308212,752.2286640718687
1731305067.1850102,737.8312869237229,-44.96969594171679,501.7224253780032,751.5981949652956
1731305067.1889162,735.9109578124365,-95.15073375961356,500.7210857317533,750.989762296137
1731305067.1928225,734.0084522423413,-89.74709341496526,498.80771561004264,750.403504085379
1731305067.1946044,732.1249420432962,-51.82023896423442,495.87999445147216,749.8399627610779
1731305067.1956058,730.2614730076648,-12.12314956766528,493.17512337880055,749.3000204699119
1731305067.1967287,728.4173236219676,21.531342070928588,493.24058961174734,748.7842507230063
1731305067.200635,726.5887540161402,71.90163253672654,497.9456364104148,748.2918544392033
1731305067.2045412,724.7704811614707,165.47339428290374,504.7923420800806,747.8201753712864
1731305067.2058046,722.9613519854777,294.3707243172209,504.5325280814411,747.3662674809349
1731305067.2084477,721.1715358378818,407.7344565641748,484.9771846617915,746.930957354436
1731305067.2111971,719.4227959178645,450.8221950195691,442.7221534538078,746.5228055405437
1731305067.2123537,717.732263951832,421.4181853509253,394.71132857428745,746.1560738155272
1731305067.2134795,716.0814213266601,385.3264265746631,373.9348260756383,745.8377017164365
1731305067.21626,714.395755214873,422.7331125409817,403.4689565311118,745.5476447910595
1731305067.2201662,712.5788271769395,545.8718662315578,468.5522074929472,745.2323513740059
1731305067.2240725,710.6234188848549,668.102192424223,518.4420049546351,744.8382920248856
1731305067.2267883,708.7404599643005,666.2352364869557,506.0636377814033,744.3899405102173
1731305067.2279787,707.3420022978319,490.0941723471649,433.39665340578426,744.0578416292254
1731305067.231885,706.7096787398335,221.0187986993771,357.8967008872055,744.1047569810752
1731305067.2323546,706.4143142138475,20.14171769589433,347.92851248878003,744.6267233671801
1731305067.2357912,705.0031362128732,4.743003941750317,423.58664314932867,745.194255420451
1731305067.2396977,700.7730159627604,156.79306998800513,536.1366895129526,744.7854748663376
1731305067.2407126,693.9732652252962,342.0693786491877,607.0368131392272,742.5038206132471
1731305067.24238,689.2149791858345,424.2679082713822,594.6897266811251,739.1029912612833
1731305067.2436037,695.1132729041633,377.46364357727833,531.0209913534687,738.2506937183309
1731305067.2475097,718.7956812651842,300.6237775069015,494.28679278535014,745.5861845291786
1731305067.2512298,757.8269724220517,321.00739507254855,539.4117369929079,764.7489632001872
1731305067.251416,797.6130237020736,471.5185260502089,646.1337919984398,793.2959403330098
1731305067.2553222,820.0888246761692,654.6324012778443,733.0576129748672,823.6367228510003
1731305067.2579713,818.5427727920196,730.8905857783898,729.18248311222,849.551452821285
1731305067.2592285,805.3314949449584,653.4689242827505,640.9497760342282,871.6396020612133
1731305067.2631347,803.9789791741944,520.5642893338049,552.3509048987488,895.4298100781847
1731305067.267041,830.6888215517114,489.362186803854,553.7025634930271,924.0529016399751
1731305067.270105,880.0461091624117,627.0907447351951,660.966125842683,953.068695424909
1731305067.2709472,927.1348098324152,839.1658500057779,799.0925108740585,972.4470218019037
1731305067.273563,945.5288113131942,945.7352777284202,866.0486915927802,973.8315501463112
1731305067.2748537,927.8353203388405,839.9346538614557,820.7689376392744,956.8963379292011
1731305067.2756207,892.7362639803994,584.8768776558024,716.6713487780709,929.8976145243245
1731305067.2787597,872.1966266872712,362.32591411591915,652.0571097488722,904.4784167601038
1731305067.282666,887.7600728002329,320.2960656817082,683.2577469232695,889.0432291546945
1731305067.2865722,934.0007366617156,455.66573999508086,778.1849293053783,885.4005011799377
1731305067.28898,982.3439610210396,632.0732313080618,849.6289642516931,890.1139394192928
1731305067.289154,1002.5175822769576,708.642906483154,835.4029818031872,898.2692695959738
1731305067.2904785,984.6487759450687,657.7000513293856,752.0086019224173,906.2620417602545
1731305067.2943847,944.7401899948087,568.1393314980842,675.3931969144459,912.080772539994
1731305067.298291,910.3032724253106,543.8384494873247,670.0330069393663,914.1541242791291
1731305067.3021972,898.960349576244,603.0899753446618,732.8537581372344,910.8303394824637
1731305067.3047454,907.1823727684338,674.0016947508725,800.9319539647793,901.488100254467
1731305067.3061032,916.4716147843948,679.3477451107901,811.1862675494233,888.3654211184296
1731305067.3078551,910.0124140718242,617.9731832793299,755.1353034075458,877.0654830330819
1731305067.3100097,885.9022771020062,561.9641885893755,681.7909168160543,874.2853828809976
1731305067.3105288,857.3350447147678,578.3991472241779,651.7013323957616,883.3787584695516
1731305067.3139155,840.6889397993482,657.0243118129112,686.0527962859032,900.5969270287684
1731305067.317822,841.5920106398281,713.221633900537,752.9576191801248,915.4726055515031
1731305067.3203368,850.6615554053923,659.6971042854916,796.8245921147486,916.6448373016277
1731305067.3217282,852.976734416232,478.0933250726599,781.4103522473902,900.1922806363075
1731305067.3256345,843.208323091202,229.08446449284705,711.3909083161266,874.2607346250697
1731305067.3267305,831.9804170072503,1.7189992240986953,620.8738489182278,854.977393468937
1731305067.3295407,836.0539348501366,-144.39806243926472,545.6490641712089,854.9125118655862
1731305067.333447,860.5567331471888,-195.5946439197425,504.1518146824776,872.3335444278662
1731305067.3359282,890.5319720403775,-160.97758381929822,496.9807978515156,890.6658147598441
1731305067.3373532,901.2212560433068,-49.65035870901045,515.8011748025766,890.3571344702812
1731305067.3412597,878.733560581595,124.1686601353282,549.3535662812237,864.8305952023258
1731305067.3451655,832.783064680553,323.658516990537,585.6122960635198,827.6091781902526
1731305067.3454368,790.4639279808289,494.45195140349875,616.4097519673779,803.8693987986472
1731305067.3456056,776.5879113886818,598.8355853991054,643.9422134583019,812.044910690343
1731305067.349072,796.4830347654072,644.5253266355762,679.3485840956608,849.4351252973577
1731305067.3515196,833.837295750437,671.489694738452,728.8639382966672,893.1664663783293
1731305067.3529782,863.9352912993016,704.2340532977873,779.6241360498042,916.227401893665
1731305067.3568845,871.5038443926876,718.5593514374577,803.223444140016,906.5825883799607
1731305067.3607907,859.7492630237862,662.1116322664768,778.5367718606888,874.7861477168997
1731305067.3644807,844.3558920530176,513.3137283252722,712.5686376385435,844.4866924946143
1731305067.3646967,838.1285604363723,320.0730784863008,637.1407539549837,833.7678342397135
1731305067.367111,839.5721674960103,174.48791045653635,584.2385499528812,842.2384903131652
1731305067.368603,835.3353280262461,139.94310790334254,564.8354844090203,853.538237619304
1731305067.3725092,814.2305225535839,194.70183983715654,568.8050725269654,850.2338104522173
1731305067.3764155,779.9804686724872,246.10307645970363,579.5099808953609,828.5124218547803
1731305067.3803215,750.7465905170247,209.36518167511613,586.3442221975592,800.9540102115211
1731305067.3803449,745.2951282043113,85.91417222557203,587.4121424450649,785.7217589526498
1731305067.3827024,767.4750971151241,-29.89343796970752,585.5808879949034,791.4448297551648
1731305067.383356,801.9497699616776,-28.950583408190198,583.9193578396928,810.1828169127891
1731305067.384228,824.508424010705,113.73949261947774,583.6479842888987,823.910739339
1731305067.3881342,818.7822131032053,310.76187884736095,584.4242748087029,818.8434029641174
1731305067.3920405,786.952294397563,437.44362800198996,585.4459416258762,795.7702126047948
1731305067.3959467,747.2426704381537,444.81574543533,586.2135910261467,768.3306740051005
1731305067.3982935,720.8189430160105,401.9427272670596,586.6696890812186,751.4701114647587
1731305067.399853,717.8887441598262,423.4045751366875,586.9823323066727,750.2304513069452
1731305067.402231,732.5709011999793,551.0242510684735,587.311365505707,757.8450329663137
1731305067.4037592,749.1917318023808,706.1109789599454,587.7130212787739,763.4864951357979
1731305067.4076655,754.5054592111011,759.4024710553634,588.1636758195532,762.1232466270479
1731305067.4115715,746.832461649785,650.5404127982395,588.6199578458632,758.3133940175563
1731305067.413885,736.2006542919653,442.6170230659492,589.0569219608567,761.6701735332061
1731305067.4152527,736.2384489682509,262.08439765152553,589.4729365867299,778.2974211848086
1731305067.415478,753.858420073824,183.08673526699494,589.8772069990455,804.8818749096822
1731305067.4193842,783.690623791879,165.13621109189026,590.2776347489266,829.7669338756219
1731305067.421106,810.9639403676496,102.04457945491083,590.6764246118836,840.4966904649388
1731305067.4232905,821.1733884309317,-62.62094174230759,591.0717890262678,832.8151992775988
1731305067.4271965,810.1396840930953,-261.0661875160819,591.4612110248977,814.5218311963881
1731305067.4294765,786.9398273967887,-341.9055823395775,591.8432911851119,800.5643403439936
1731305067.4311028,766.5515281024966,-196.8577416025518,592.217737968803,802.1110696070456
1731305067.435009,757.1112676064689,137.37908053634095,592.5844999836273,817.5216454184401
1731305067.4389153,752.3297979939086,495.3142809544687,592.9431667453753,832.4593425477474
1731305067.4399812,736.759905260086,704.8981884690236,593.2931915628163,829.7084055406186
1731305067.4428215,700.8662645083864,709.2132574686688,593.6347298641533,801.7338067724353
1731305067.445068,653.0707331482844,587.2085561488234,593.9691971398812,756.7132648504722
1731305067.4467278,616.9842703729793,469.75981611686564,594.2983848403542,713.5013398319196
1731305067.450161,614.557484167941,436.6906392818554,594.6217361946804,689.189662814726
1731305067.450634,649.0662421308718,480.19125088943787,594.9334771967337,688.5665521981849
1731305067.4545405,702.7513463765492,544.1476478551236,595.2236246384815,703.2628125376629
1731305067.4584465,750.6576923177631,582.9661909192225,595.4865084138198,720.1394651014064
1731305067.4588566,777.6105987946206,587.3343917667341,595.7343363690214,730.7238031084561
1731305067.4606593,784.3065213195265,572.6434100844456,596.0027484612605,734.2397163093224
1731305067.4623528,780.8629888873992,556.7421400312436,596.3296631911063,734.3293233141486
1731305067.466259,776.9243513703778,547.8572109261978,596.7027513736205,734.5530675300703
1731305067.4701653,776.6062709742483,545.0936346418389,597.0102862468058,736.3072887301734
1731305067.4740715,779.3041039953818,544.2456525593092,597.0712982327368,739.2165642201586
1731305067.4762506,782.8359604105837,542.329299244434,596.8063919632434,742.3883432753815
1731305067.4777317,785.729185613366,538.7562148658681,596.4874855727812,745.2684937102389
1731305067.4779778,787.7437410457308,534.337753822568,596.8080724557084,747.7953584610198
1731305067.4818838,789.321705648883,529.981173923672,598.4336365055592,750.1575375521516
1731305067.485069,790.9227331403265,526.0689191002215,600.9957319153268,752.5331757575335
1731305067.48579,792.7268771922197,522.5196099397829,602.2526322422158,754.9843613631
1731305067.4896965,794.6813814868138,519.1040218729156,598.8533680913099,757.4842303246826
1731305067.491842,796.6662007725157,515.6732562266624,589.7081995959438,759.9841918148936
1731305067.4936025,798.6071719935769,512.2066093433937,580.5013241128115,762.4563996034129
1731305067.4966068,800.4959833295144,508.75203584633266,584.4572861965163,764.8990473835104
1731305067.4975088,802.3576088000979,505.3576472584286,614.2431947428094,767.3223764303716
1731305067.501415,804.2155119115531,502.04215915437146,666.8543721772405,769.7351364192549
1731305067.5053213,806.0776353172167,498.80054459808105,713.9222029019089,772.1397026757257
1731305067.5074334,807.9400831960651,495.62128729222184,711.8612962422543,774.5339678245391
1731305067.5092275,809.7961092459905,492.497839892681,631.8081640096461,776.9149642096647
1731305067.5131338,811.641762720006,489.4304317038245,488.5197745604978,779.2809623657182
1731305067.515482,813.4765541752827,486.422598476466,341.6226938135488,781.6315928787226
1731305067.51704,815.301549657825,483.47761162329095,261.6108030268048,783.9670336010826
1731305067.519977,817.1175596774126,480.59709504731575,282.6354424690452,786.2873106086272
1731305067.5209465,818.924552690517,477.78144622809907,378.44023734558243,788.5921199587051
1731305067.5230246,820.7220374958873,475.03076944625343,482.32527496228425,790.8810328515933
1731305067.5248525,822.5096443386516,472.34544577553055,537.0712453216563,793.1537460189594
1731305067.5287588,824.2872909394986,469.72619055964066,534.8166341888273,795.4100992696835
1731305067.532665,826.054759815712,467.17385445721584,514.2382662767235,797.6497825589636
1731305067.5343573,827.811032211248,464.6892383649066,519.5644421052964,799.8719421919318
1731305067.5365713,829.5541703012547,462.2730297447782,559.9459242191966,802.0751720483563
1731305067.538616,831.2825440162358,459.92583072761374,605.4370375124207,804.2583673525121
1731305067.5404773,832.9972576553279,457.6482079238221,619.1192113956199,806.4222868457716
1731305067.5443835,834.7037674880662,455.4407202721754,591.0355297602924,808.5704659535182
1731305067.5482898,836.4092694820409,453.30391988924464,542.57178828594,810.7072961374985
1731305067.552196,838.1140779692698,451.2383406346635,503.3670405581955,812.8323175513218
1731305067.5532322,839.8015829805979,449.2444884025259,487.998199273792,814.9340085503749
1731305067.554207,841.4395061644757,447.3228380918703,491.9961324135756,816.9914347836303
1731305067.554885,843.0056116844655,445.47383522106054,502.91799052993247,818.9917840057589
1731305067.5561025,844.5329298384328,443.6978984185588,511.5958160851292,820.9593664462373
1731305067.5600083,846.134635034098,441.9954206317673,515.6491200063972,822.969131409952
1731305067.5639148,847.9454305995799,440.36676893558905,516.9889659764507,825.1045117031185
1731305067.567821,849.9539127862531,438.81228377287545,518.1401659975414,827.3470267239206
1731305067.5697987,851.8250432648225,437.33227834725756,520.3018544295905,829.4676026928585
1731305067.5717273,852.9578528248267,435.9270383904287,523.3502921407571,831.0798722185576
1731305067.5721073,853.0070674869319,434.5968221727169,526.6692804814143,831.9928341413342
1731305067.5756335,852.7274198753726,433.34186055569256,529.8156592544876,832.7472985246349
1731305067.5795398,854.346369534519,432.1623569809642,532.6975184499321,834.800003020361
1731305067.583446,860.3133353048966,431.05848739626015,535.4314217814547,839.6201155233892
1731305067.58539,870.1377597395424,430.0304001649839,538.15081120857,846.5679727605024
1731305067.5873525,877.5239984684197,429.0782159957719,540.9131238214247,851.021845961387
1731305067.589793,872.2921514918694,428.20202790143725,543.7073713355843,845.6115144736186
1731305067.590983,849.1162465128529,427.4019011789947,546.5001681420302,825.9588300355917
1731305067.5912583,816.8243374032921,426.6778733998995,549.2695262013798,797.2709097933457
1731305067.5951648,796.9046482236565,426.02995440518765,552.0122653484044,774.4594179327593
1731305067.5990708,807.7717935184199,425.4581263057839,554.7354307579942,772.4726649732361
1731305067.6009817,846.6008441093684,424.96234349036354,557.4461815427666,793.2758453550124
1731305067.602977,886.2564469466615,424.5425326424687,560.1473583339647,821.3177628445649
1731305067.6068833,893.1804274583221,424.1985927671312,562.8383358149326,833.4626501496261
1731305067.6098578,853.1951013005263,423.93039522639293,565.5177112089442,816.647874027505
1731305067.6107895,783.8807886737785,423.7377837830549,568.1851104520429,778.7604450556388
1731305067.6146958,722.7096063415864,423.620574652321,570.8412764327103,743.1619066826026
1731305067.6165729,700.1815287214985,423.57855656130266,573.4869504866854,730.9650081340673
1731305067.618602,719.1689732557952,423.61149081646374,576.1216490102063,745.4720936531046
1731305067.6225083,755.8798276638788,423.7191113790493,578.7435867246772,771.1264448049717
1731305067.624701,780.1528193933224,423.90112494848745,581.3516041617897,787.0489556627268
1731305067.6264143,778.0967413706917,424.15721105374035,583.9484987020903,783.552291037758
1731305067.6287327,759.6164630707437,424.48702215261244,586.5427435575673,768.4628330072978
1731305067.6303208,746.5004349576419,424.8901837390581,589.1441255261026,759.0566990658633
1731305067.6321642,752.4142985794567,425.36629445852213,591.751726263778,767.0145205164124
1731305067.634227,771.8556101944232,425.9149262312949,594.3416106328093,788.8734881507852
1731305067.6381333,786.6368247858646,426.5356243838376,596.8717052529338,809.4501673658586
1731305067.6420395,783.1613831865543,427.22790778813555,599.3195369518437,814.8507862991752
1731305067.6459458,764.7896002250292,427.99126900941843,601.7415377388961,803.8232159548847
1731305067.647608,748.6384327266917,428.82517446289245,604.296312204651,787.9688950052088
1731305067.6477556,750.3090948734518,429.72906458006344,607.1502444035916,781.232906441026
1731305067.649852,770.2724338868824,430.70235398442776,610.2465790925824,788.3100516140172
1731305067.6537583,793.273851323599,431.7444316749743,613.09252587047,801.9432233095988
1731305067.6576643,800.4543159317875,432.8546612153405,614.8976777131691,810.6206797854163
1731305067.6596093,783.7635408395454,434.03238092846675,615.3282464297914,808.9540124691134
1731305067.6615703,751.5069482847412,435.2769041017585,615.5966429661358,801.3492359226672
1731305067.663347,721.6349490242269,436.58751921281083,618.7444232212382,796.4634569969459
1731305067.6654768,708.6938612603802,437.96349018320274,627.6283027211354,798.514891008498
1731305067.6664832,714.4760345505128,439.40405665137774,640.4624591046305,803.7952208147387
1731305067.669383,729.0441004256742,440.90843423070424,647.0708560102229,805.0686137681403
1731305067.6732893,740.668509898118,442.4758147105056,631.9787917399012,798.8090620668769
1731305067.6771955,746.1443369154671,444.10536620031814,587.7878538716972,788.0285946632205
1731305067.6789384,752.5045995637744,445.796233316504,530.4743972790628,778.7164874291943
1731305067.6811018,768.3920828492003,447.5475375967335,497.41923572617645,774.5414160506136
1731305067.685008,792.8003654331037,449.35837825963824,519.4454062128168,775.0223140230729
1731305067.6853583,812.1119377349934,451.22783309822375,588.0869605976757,777.4835187409637
1731305067.6889143,809.6437542003866,453.15495883872455,653.289228670609,779.671226226925
1731305067.6928203,780.5954262081168,455.1387902056529,661.0819847537297,780.8215908431607
1731305067.6945171,739.4570696624927,457.17833782652144,599.97668815847,781.2561623068816
1731305067.6945298,712.2351670890805,459.2725869932332,512.6510544444277,781.5516900360375
1731305067.6967268,718.3274317927343,461.4205007477093,459.4324573249639,782.0309452729351
1731305067.700633,756.11372497784,463.62102909398425,464.4682572418006,782.704874434824
1731305067.7042334,804.0697604491199,465.87311964528595,493.67165990385104,783.4433293504176
1731305067.7045393,836.6130740307186,468.17571672741786,487.73487248588157,784.1368602884043
1731305067.7084455,841.5595736179293,470.52773554700696,423.78141558503586,784.7534091569181
1731305067.7101212,825.3565000582416,472.92801654064607,348.72477863724816,785.3143509137554
1731305067.7123518,804.0024860623034,475.3753006427836,347.08870502300965,785.8508215398645
1731305067.7162578,789.9204139302691,477.8682898660028,464.3188132597732,786.3788546823345
1731305067.720164,785.863722094219,480.4058190154878,652.7456073808231,786.8981362486464
1731305067.7231083,787.702402019775,482.9870370845622,794.7790977372408,787.4016880815393
1731305067.7240703,790.3137755538401,485.6113482512524,791.8281949332855,787.8841982937065
1731305067.7257123,791.1131591721378,488.2778801506607,646.1985064781916,788.3445647210767
1731305067.7279766,790.145054221072,490.9846261355456,464.88538608349097,788.7843617206352
1731305067.7294252,788.5313782937427,493.7280768074272,379.6558152895828,789.2055126465848
1731305067.7318828,787.1481275284568,496.5045263816702,448.8560510803833,789.6090751546184
1731305067.7357893,786.2157167980256,499.3133774768329,620.1357942360388,789.9952637458584
1731305067.7396953,785.5343127832467,502.16029210783563,779.5460826495929,790.3639899540216
1731305067.741304,784.8481551861638,505.05540527147116,840.6994184574507,790.7152874173966
1731305067.741984,784.0372898710783,508.0026493897585,800.0185236152851,791.0494217608964
1731305067.7436016,783.1151913798585,510.98391785759156,720.0084916082199,791.3667962195036
1731305067.7475078,782.1443961755389,513.9542438928513,665.5459354146662,791.6678283484239
1731305067.751414,781.1695966286368,516.8696160580321,652.84763515284,791.9528913482509
1731305067.7553203,780.2000410688729,519.7502887931603,651.2149598199212,792.2223199197675
1731305067.7568953,779.2241228403888,522.7346365735046,626.3403106614626,792.476440231195
1731305067.7592266,778.2286887930788,526.0327094852618,578.7829196570802,792.7155912393605
1731305067.760859,777.2083103953527,529.7139215777547,542.120008067025,792.9401282241695
1731305067.7631328,776.1644452883047,533.4173688615595,547.7459977249258,793.1504155960162
1731305067.7643332,775.1007757298437,536.3029083360276,594.1015959684491,793.3468195514671
1731305067.7670393,774.0198186636882,537.6324340050305,649.1567858429613,793.5297070756163
1731305067.7709453,772.922208376721,537.9690735674027,679.8214578296887,793.6994516449358
1731305067.7724867,771.8075856418383,540.0607116865767,677.9901135111654,793.8564401284767
1731305067.774851,770.675621207346,547.6738799611787,661.1820060077424,794.001071471255
1731305067.7787576,769.5264341383969,561.2594052848062,652.5927786058783,794.1337398550821
1731305067.779734,768.3604461280721,572.2560127085094,661.9278065628873,794.2548078387273
1731305067.7826638,767.1780590340062,561.6081003429589,681.7752446412389,794.3645956450832
1731305067.78657,765.9795092184102,507.4807259846635,696.7133396569967,794.4634230634073
1731305067.788078,764.7650438628809,398.3192041796539,693.1575351587346,794.5517120815362
1731305067.7904763,763.5352962425849,239.51558059582786,663.0103217762133,794.6300810501089
1731305067.7943826,762.291471103465,49.79610838875715,603.9240246847799,794.6992819642438
1731305067.7982888,761.0348585520411,-142.0884528885387,521.7393641724126,794.7598637543335
1731305067.7986093,759.7655703283802,-294.0431387757456,434.4563603247601,794.81168741066
1731305067.7992413,758.4813494801607,-353.47489392106746,370.2708687353661,794.8538009955678
1731305067.8021953,757.1782840928091,-281.47588916284286,354.530443262728,794.8853333303585
1731305067.8036697,755.8548959344018,-88.42570978923646,392.3164657031802,794.9074581942488
1731305067.806101,754.5181218679921,153.94000349650355,462.6985441471496,794.9249934515747
1731305067.8100076,753.1849985525871,349.2923923291377,533.9539601033754,794.9448258925879
1731305067.8139138,751.8719039657127,442.4166352852159,588.484611483973,794.9692405174497
1731305067.8174844,750.5704929349325,456.5707438595383,633.0581389153432,794.9870918026876
1731305067.81782,749.2276605034381,462.66341606252183,682.7142157359118,794.972788536052
1731305067.8192608,747.764004340613,505.75069918390636,735.3096024618728,794.9049335715443
1731305067.8217263,746.1550208216189,561.5967387596277,766.0305740132542,794.8035975989313
1731305067.8256326,744.5402312172228,568.8802227219096,750.1347272586428,794.7567698066254
1731305067.8295386,743.2386930680279,503.45763760396153,689.8348816974919,794.88320496757
1731305067.8334448,742.5242920594837,413.96833884214476,615.7436758303612,795.2013900782855
1731305067.8341494,742.1692041277281,376.85731651607165,562.0311877471105,795.4708440468665
1731305067.8348522,741.1128713407363,414.85604989541804,542.3122566687235,795.2005723101014
1731305067.8363595,737.9079130461165,465.1490543211987,547.5460607729716,794.0366504831467
1731305067.837351,732.3368170690508,436.4051672105878,560.6900268340509,792.4762139699814
1731305067.841257,727.4374862478772,304.3589646781846,570.2800213450239,792.3268456928926
1731305067.8451636,729.6436685239755,152.89382377231703,573.8827099395411,795.9794175970559
1731305067.8490698,744.7666109434201,114.44628373836417,574.2945735648283,804.1492660564381
1731305067.8504436,771.1587191848802,256.90502778225687,574.7567132481354,813.4678094921586
1731305067.852976,796.5100864770295,517.0619330339039,576.6580487523661,816.702719076572
1731305067.8552346,804.2484824700534,743.0475628861356,579.7176823013953,807.1253401475295
1731305067.8568823,786.6768623713311,812.442116644002,583.1106241214937,784.6520579464074
1731305067.8607886,753.4970788225297,724.76768149382,586.2929112072123,758.5131265591554
1731305067.8646948,726.7168881673073,589.3491847356004,589.1810801984616,742.9598624843759
1731305067.866035,724.7781384470937,523.3087503018378,591.941699709663,748.0855939446341
1731305067.868601,748.5940231581585,553.75682676931,594.7447104050083,772.3766456703206
1731305067.8690574,780.947226025256,609.2705323026694,597.6553007528238,802.9293938670845
1731305067.872507,799.8079995313137,599.1478252803759,600.6528822135903,823.6881515704054
1731305067.87411,795.0372088283186,499.5460930095219,603.6928398869363,825.9995999075815
1731305067.8764136,775.4515184610825,367.35497056788,606.7480839775249,813.9296951866294
1731305067.8803198,760.8805323760274,277.41761821287,609.8159449402747,800.5212296546371
1731305067.8816264,765.6125423477506,250.4018272127024,612.9058437014448,797.793101051098
1731305067.884226,786.5671653257954,240.9654228131394,616.0263903828966,807.9967432510787
1731305067.888132,806.0092235910414,193.20517110334495,619.18032310783,822.7809336878122
1731305067.8920383,806.801186447621,106.39803175609501,622.3660534135647,830.7496017206518
1731305067.892985,787.4443490085953,47.094677689936304,625.5811677063679,827.0537264969893
