timestamps,eeg_1,eeg_2,eeg_3,eeg_4
1731304952.709437,773.7233985886544,600.0472508855585,804.4475435379359,741.6898772711912
1731304952.713359,830.3144996395923,627.9667765094222,822.6552521241263,781.5492115824733
1731304952.7172816,883.5696380204554,630.9557156117085,832.9037164375449,818.2685840848408
1731304952.7212038,931.7820123911114,585.0840653661998,828.2136629716274,850.7628329896692
1731304952.7251265,974.8041350983838,476.1939307636993,804.0759252049392,880.1614924829394
1731304952.7290485,1011.9715704776825,313.3388858317731,760.821380608297,907.75905941382
1731304952.732971,1039.6614458273239,135.11386700788182,706.4206766195896,932.2496426857747
1731304952.7368932,1051.1629179596139,0.3913601271784728,657.687757001248,948.6263780431877
1731304952.7408156,1040.3419222538605,-34.77802031028932,636.9486764098752,950.5117520068891
1731304952.744738,1007.1719363158606,56.19090025965704,663.0174539924918,935.0905771632893
1731304952.74866,960.3616131854781,254.250238566294,739.9352446286358,906.6558461764271
1731304952.7525826,913.793972096081,499.90401879577246,850.6460596523195,874.8764625774759
1731304952.7565048,879.0254733915061,718.6927400342411,961.2938304416583,848.6879946673502
1731304952.7604272,860.0485895122201,852.3043817916183,1035.477163718526,831.3596300424902
1731304952.7643497,854.1935517513614,877.9732556908442,1051.103833231531,820.9771773276442
1731304952.768272,856.8816330845693,808.9212124312211,1010.047558772261,814.6928832948885
1731304952.772194,864.7844328227962,680.8417405011353,935.0672886983973,811.6800713943027
1731304952.7761166,874.8362961004442,535.310677794828,857.2823070912794,812.1918710396628
1731304952.7800388,881.7207737748602,409.2700369887664,803.2613050834092,814.7101202961275
1731304952.7839613,878.2202184969569,332.0018653491982,787.9632965502377,814.8540763931373
1731304952.7878835,859.6119915404147,323.56327973144187,813.3819633150068,807.6997399624724
1731304952.7918055,828.6278162438783,390.40213292353803,871.1413112601356,791.9357460201254
1731304952.7957282,796.0713808759997,522.1570602488855,948.520107034703,772.3792057110261
1731304952.7996504,775.453975687923,694.3013326610528,1034.3187798368904,758.1014576727813
1731304952.803573,775.0229748422416,872.737892684321,1117.846647536518,756.5962816984578
1731304952.807495,792.9195366580215,1015.6444249702697,1181.6566631092153,767.9932920280422
1731304952.8097131,818.9816912217917,1079.5710038950497,1200.7835290660362,784.2178935704137
1731304952.8114176,841.8102597567436,1039.2817264286348,1158.1217854068743,794.7517309495339
1731304952.8153398,855.953654677066,911.0462006964287,1064.441557072586,795.219431183812
1731304952.8187404,864.1543882387998,751.6173112508592,958.423438464904,791.816036554227
1731304952.819262,873.3469509185228,621.437157787493,879.0135372705715,796.9631795744741
1731304952.8231845,887.7326912402398,540.1501754907603,834.2434430113939,818.5567789110861
1731304952.8271067,904.422813538094,478.75663041382995,799.6521027161003,851.3111983863901
1731304952.8285737,915.2238076894279,399.8609797827051,750.78882066359,878.2610089449679
1731304952.8310292,913.3996519941435,306.04179117106287,696.6750679195188,882.7283628513247
1731304952.8343332,900.0509151525519,243.53449660596965,676.787578208613,861.8425033472098
1731304952.8349514,884.481348498684,253.77322437219254,721.1934540766258,830.090673149264
1731304952.838874,877.4970952395652,323.600373358402,813.8789199218804,808.7591602262285
1731304952.842796,882.8998773375703,390.9576618575072,898.5442703793548,809.2585648610312
1731304952.8467183,894.7912690446923,405.39561426930845,923.1669633312765,824.5585114420891
1731304952.8474338,903.480663804417,382.46149468958515,880.2551856664567,836.4840195130826
1731304952.849926,904.5239677578576,394.61884141176847,806.1722853069333,832.2757815200255
1731304952.8506408,901.9911612253904,505.3933847208603,746.0475393864433,815.0664303677678
1731304952.854563,902.6744388349974,709.0835812097956,721.3780353446152,798.8269501858463
1731304952.8584857,907.3539685765141,929.581138711435,725.513200101257,793.5360864815547
1731304952.8624077,908.6448975072221,1073.502698847564,740.1192379561926,795.7638758785521
1731304952.8655188,898.4390961665057,1087.2145636098228,751.6254883096747,794.0123732766276
1731304952.866294,877.9075658831398,974.914897381987,756.4210255688472,782.921337869351
1731304952.86633,859.6712183438215,778.17973869249,757.2478325059726,771.2620270977048
1731304952.8702524,858.7596411085232,548.4551326095676,757.8053994385594,774.8194457761575
1731304952.8741748,879.8183800913732,336.748377221362,759.873803084664,800.618531650041
1731304952.8780973,912.2472658169748,195.50666125857367,763.2895859640527,838.1005032117113
1731304952.8811116,938.1867541285789,171.5844515800527,767.1540364842602,866.5857381676221
1731304952.8820195,946.6151171889757,282.8787025953478,770.8133280760296,872.7352700062063
1731304952.8851545,941.3192449341561,497.16758820246963,774.1272381685098,862.0465511637415
1731304952.8859415,936.4059584739114,738.4506416367528,777.2638730971158,854.041692899462
1731304952.889864,944.4022548882804,923.7705241318168,780.4188227648926,865.9925614352882
1731304952.8937864,967.7719622369403,1005.521102953429,783.6772824418485,899.9867788622222
1731304952.8967044,999.9837463694945,989.7613692223676,787.0237650307008,943.8394648492017
1731304952.897709,1032.8824428707255,921.8018176358294,790.4091784561857,982.9852529689867
1731304952.901631,1062.5435924724372,853.6873268748958,793.8006464746384,1011.3912090695667
1731304952.9040148,1089.2977334513698,816.4392443694178,797.1927838537728,1032.5612867114517
1731304952.905553,1114.0945633354656,812.2783065945772,800.595362430067,1052.2473861005985
1731304952.9094758,1136.0179603717922,825.9522243382739,804.0185396654352,1071.5588971688692
1731304952.9122972,1153.0468903506485,841.4818997742195,807.4662670719271,1086.8657619197477
1731304952.913398,1164.161442949658,851.4098201155712,810.9373208993669,1095.1036944028722
1731304952.9173205,1169.9777053272157,856.2275959156998,814.4289471266613,1098.0582174987921
1731304952.9212427,1171.4396918097627,859.4155786436293,817.9393477812563,1101.0995809245578
1731304952.9228752,1168.4421729116993,863.5253947607929,821.4681484742925,1107.7977783389401
1731304952.9251647,1160.0889330321775,869.1030988001881,825.0157789301163,1115.861211929605
1731304952.92789,1146.319614453721,875.4881288865366,828.5828337211985,1118.5129275099198
1731304952.9290874,1129.2753495572229,881.9134588910532,832.1697676745946,1110.3778382147777
1731304952.9330096,1113.1948586809972,888.0458983557554,835.776679845344,1092.8418304105223
1731304952.936932,1102.9455681047089,893.9475381195241,839.4029416282727,1074.1750113204612
1731304952.9408543,1102.0765568375712,899.8122767762934,843.0469458452507,1064.0606481520842
1731304952.9417353,1111.2129092222112,905.7702291828525,846.7067468773232,1066.785535370569
1731304952.9434829,1127.4220457875697,911.8435011521585,850.3820650982191,1078.467693356266
1731304952.9447768,1145.2397638623177,917.9946557202123,854.0766251042047,1090.5539093964094
1731304952.948699,1159.5592400708524,924.1847460440881,857.7978355476091,1096.8987499698471
1731304952.9526217,1168.8901580664237,930.399208622846,861.5506892761775,1098.7226382865006
1731304952.9565437,1175.9554158799774,936.6437548015078,865.3270513623445,1103.0563609937258
1731304952.9590757,1183.851239874967,942.9298946902923,869.099788758272,1115.3727229507285
1731304952.960466,1190.2646043927155,949.2649947637749,872.8367126597498,1132.3059180558184
1731304952.9605956,1185.4735168749776,955.6504834981039,876.5403617135869,1141.1142850277693
1731304952.9643884,1157.5883145831165,962.0847837700073,880.2900821717751,1127.3899333448494
1731304952.9683106,1101.6795425420714,968.5666677620935,884.228297683214,1085.2742769652666
1731304952.9722333,1024.7554907562612,975.0968739128932,888.4369500286349,1021.6220235007177
1731304952.9746685,941.5895097798798,981.6777778457156,892.7382160363168,950.4615852124962
1731304952.9761553,864.947271994188,988.3116674738956,896.6093044903756,882.8625581057757
1731304952.979456,799.2493633349485,994.9985017100546,899.488237816485,821.6139895850519
1731304952.9800775,743.0910910743362,1001.7347650052542,901.5500321954387,765.1813514350459
1731304952.984,696.7747971050276,1008.5156665323307,904.4651626033533,715.7074982991559
1731304952.9879224,665.8367382120687,1015.3416362276082,911.0641171931406,681.363805762282
1731304952.9902613,656.1009782215126,1022.2255165083292,923.0980099702521,669.3023529926531
1731304952.991845,665.3375535809656,1029.1911558034287,938.2970297230298,676.0474433030371
1731304952.9957669,681.0378387319827,1036.254172916524,950.3734180455717,686.2542872185625
1731304952.9983163,688.324233956157,1043.3892064618017,953.5213650118244,683.4422416667951
1731304952.999689,681.8712092524042,1050.513276684028,945.8236076851423,664.247329203037
1731304953.0036116,670.8874001294963,1057.5307756698542,925.2653497725543,642.8606233241237
1731304953.005854,671.7277813874604,1064.4564238039216,883.7002458318029,640.2189598075609
1731304953.007534,693.9156627414987,1071.5408860903394,811.3350783815569,666.5505688134026
1731304953.0114565,731.8518565395544,1079.2199836254983,711.9172070999015,712.6777166154478
1731304953.0121093,769.5074508772512,1087.7273353187502,611.2600747690897,757.6266619902684
1731304953.0153787,793.0945351581677,1096.4870723540096,544.3690163498534,784.6964522096766
1731304953.0171766,799.7138291056235,1103.8777300423412,529.601438372332,791.1699435968833
1731304953.0193007,795.736269392054,1108.2030502037862,555.410595197692,785.32354897578
1731304953.0214467,789.3989240278255,1110.0598421177422,594.4465835378033,777.1328115361814
1731304953.0232234,785.3532240442678,1114.5152011187101,630.793482574211,771.9366007099896
1731304953.0271456,784.0492728113294,1129.6788612606076,671.019156501435,770.0259745349271
1731304953.0310678,783.9296358884933,1158.975375560541,727.1817078818611,769.4313344474212
1731304953.0349903,783.5724729006889,1190.027397977824,792.1845741259407,768.4711269565851
1731304953.036037,782.5103714737796,1191.9218930113893,838.283152609685,766.6472637396582
1731304953.0370398,780.9802218040074,1134.4683765890493,844.1150666332411,764.2839973258112
1731304953.0389123,779.3737785925764,1023.5644005435131,821.3468730506333,761.8567552397797
1731304953.042835,777.904134734925,916.2923834766777,808.4282660978884,759.6085105966562
1731304953.0467572,776.5738060628019,883.7567320409746,833.074450871544,757.5299132326403
1731304953.046782,775.2925308671403,945.4937300993736,881.3159751556697,755.5083406330992
1731304953.0506797,773.9858593490906,1043.2676740839229,908.4905489942208,753.4564727190597
1731304953.0526326,772.6319488916845,1089.429294973659,885.5541812664554,751.3517444901436
1731304953.054602,771.2445147979118,1046.0853419940986,834.9025374726178,749.2128463830481
1731304953.0548973,769.8432923622881,955.5794340691575,815.7701383636936,747.0638518787969
1731304953.0585244,768.4375883692952,890.845529313611,867.6884810862368,744.9154424573148
1731304953.0624466,767.0257372072539,875.9908111779598,964.7633105663219,742.7652135929058
1731304953.0663688,765.6017339685031,858.6969959461074,1028.4393970850806,740.6059918810907
1731304953.0682254,764.1608087175629,764.6288492238274,993.4466884446776,738.4323993667322
1731304953.0702913,762.701063126522,581.0804902253665,869.555911085083,736.242563127504
1731304953.0737576,761.2223917024215,385.2948048961852,741.1082393855178,734.0366699073134
1731304953.0742135,759.7249091950492,284.802743065945,700.4799428822241,731.8150679852798
1731304953.078136,758.208148570641,322.9825721465975,772.1235330234072,729.5773618446565
1731304953.081455,756.671094274974,439.1676866025989,894.2775583266532,727.3225022731053
1731304953.0820582,755.1125596090177,522.7868011000219,974.5464390276076,725.0492512913005
1731304953.0838184,753.531481172654,512.0265284770427,969.0712780506313,722.7565176124816
1731304953.085981,751.9269901236926,444.78565792534386,914.3364116316826,720.4434199292914
1731304953.0899029,750.2983255744786,414.7768596822316,885.0966870476403,718.1091817020994
1731304953.092618,748.6447107060026,475.6043783292775,919.8865004363456,715.7530137349445
1731304953.093825,746.9652874300128,584.671870239285,983.9809474321186,713.3740831428363
1731304953.0977476,745.2591672414688,640.7619588968003,1003.3107249728762,710.9715866791039
1731304953.0994112,743.5256015687115,580.6414533242912,936.6194907255174,708.5448709289732
1731304953.1016698,741.7641707298999,444.1714311882326,818.1982016192698,706.0934765500101
1731304953.1055925,739.9747657483595,345.80680392109406,730.998798508554,703.6169723350566
1731304953.1095145,738.1571399260923,376.42508757694475,733.9160588029448,701.1145714383625
1731304953.1114783,736.3101218528835,523.5279073161455,808.9558737330523,698.5848101881577
1731304953.1134367,734.4311830222669,681.0383792722608,875.9102234886662,696.025836459649
1731304953.115004,732.5174536608786,738.419375877573,861.0697861112742,693.436690307842
1731304953.1161275,730.5686281958702,668.4857808721677,758.4457315519306,690.8190279647348
1731304953.1173592,728.5900438256648,538.0892181972131,630.2508449500318,688.1773718100111
1731304953.1212816,726.5916887020221,439.05179149649814,549.382500112668,685.5155701749724
1731304953.1252038,724.5791840941826,408.82386882342945,538.4489393938165,682.8295879162113
1731304953.1291263,722.5392041952944,414.5113202409489,560.065362306521,680.1022420468353
1731304953.130339,720.4331508222087,408.29784749567244,562.7885987687861,677.310116101321
1731304953.1305969,718.2192295428631,391.83145408735993,535.0226524042882,674.4487582979812
1731304953.1330483,715.9085135193403,420.8252532915248,514.910018209986,671.5637894938563
1731304953.1369708,713.6185889424287,543.707859314771,549.24151407587,668.7505453446422
1731304953.1408932,711.5436122634735,736.1344857424594,643.0630079687013,666.0810504595357
1731304953.1448154,709.773491477961,899.5357448121866,748.2201808657385,663.4681391337604
1731304953.1461897,708.0251099108764,931.8715295201806,800.9613068922177,660.581036883299
1731304953.148738,705.5602634316659,810.8298246104042,774.070585622735,657.0038911935992
1731304953.149199,701.6592283960592,616.5084435264098,697.739162719346,652.7306304549388
1731304953.1508007,696.7045726637967,472.1602247731944,632.3797143456769,648.7277073926219
1731304953.15266,693.1275594620618,451.35453928675395,618.1749290306169,646.8514213462419
1731304953.1565826,694.7155998167426,528.3201880721343,644.736081209285,648.4290539012367
1731304953.1605048,703.3873370826554,611.4323302382941,665.4669991796088,651.9330231187525
1731304953.1617825,715.4199895349905,628.4150681471026,642.175974881143,652.0891424213925
1731304953.1644273,721.782840507864,587.5879555815775,580.2103031970883,643.095078617005
1731304953.168059,714.6084032631943,562.8660288057968,524.7085025030296,624.8833700627279
1731304953.1683495,694.5313843875664,620.4879480883915,523.8227643200457,606.1885876891315
1731304953.1722715,670.7426481765337,756.6252903679942,591.7574546955997,598.9533377192358
1731304953.1761942,652.6339259480859,900.0069786572801,700.156942006384,607.2920160635671
1731304953.1773753,641.4699100505927,971.1289015818113,799.3293496629517,621.8295854745567
1731304953.1801164,631.1887900425363,942.0682605950931,848.7641094892253,626.8372838092373
1731304953.1840389,617.8455505423303,849.3301795717828,836.2504255975882,615.1976165454222
1731304953.1854734,607.577895972548,759.0792528426274,779.1864012994704,597.3412463066289
1731304953.1869197,613.683607787562,720.4890894698551,712.9596540500529,594.4809587038545
1731304953.187961,644.0813859760724,740.9283084269354,672.8858857587911,620.4717815223514
1731304953.1918836,690.5709807847599,790.1832167253217,675.0993664557592,667.6310945676111
1731304953.192968,730.826039941889,820.6260305297806,704.5785209790555,709.5150409862362
1731304953.1958058,742.9447675515863,789.650129844482,720.6615514856308,719.4619522141461
1731304953.1997285,720.7564082741299,679.2077697152846,682.8463941794613,689.8978909606385
1731304953.2036505,676.8742429954983,509.7245673086671,583.3243231682839,636.380371430267
1731304953.2057798,631.1886028664643,340.6207045552523,461.75643832219026,583.5091160250188
1731304953.2075727,595.3574406236114,248.3602642198564,385.95026221080855,545.56278901573
1731304953.2085607,566.8641364321581,284.76252889942435,407.1405628564688,518.6709964709626
1731304953.2114952,536.6858905978879,438.54464340394804,521.7119167333888,489.98096759238626
1731304953.2154174,501.8843173024807,632.6205638164247,671.2196572559664,453.604074837885
1731304953.2193398,470.6032723249212,770.4561625535198,784.3764068259726,417.927715223228
1731304953.2201464,455.02772305777887,803.3822994932797,828.5781017007084,398.20341491250934
1731304953.223262,459.32888447717573,763.9217668509508,827.6521623101655,402.1489374444016
1731304953.2241538,473.68912570071603,732.060892565251,831.2865839621675,421.6042635313874
1731304953.22464,479.4948197520293,760.5677184047015,865.8060888068854,436.8069760354869
1731304953.2271843,461.31040607025693,826.5099617211188,912.5550307481988,429.21685064836953
1731304953.2311068,416.61860850979684,854.6095886365323,931.6255594237701,393.2231545065524
1731304953.2350292,357.2596332766597,790.5834613888119,903.5105224946038,339.385123267876
1731304953.2389514,303.2275264241082,654.3353696391307,846.1374553603955,288.5473814298037
1731304953.2397466,273.9886718205655,522.3934981642449,794.7770910232001,261.7234317766379
1731304953.2428737,281.8529723791778,457.7366324040915,771.5235368438712,271.63845907805774
1731304953.2435005,328.4354679571839,455.31116111469436,774.5440114477738,318.89631316912977
1731304953.246796,403.44045843623894,454.86229965475053,789.0714140783411,392.4871664031503
1731304953.2507184,486.36290821523966,407.4996320555292,802.3649556480676,473.5266795323503
1731304953.2546408,552.9837078376598,331.9510196639761,809.9823196763343,541.7366767223796
1731304953.2548192,586.134909632061,306.46493796128885,813.6505493753634,583.4284165022227
1731304953.2553394,585.368388330585,401.41101676201964,816.6131485112926,597.4342177587936
1731304953.258563,568.2773597952279,612.0523391198217,820.7206700893843,594.83209551953
1731304953.2623608,560.8208163767896,852.8545772421658,826.062908141688,591.8910861255895
1731304953.2624855,582.2766108018459,1021.5726028882891,831.9150011463562,601.0909339066845
1731304953.2664075,635.2332700260715,1078.6026670407136,837.6544167549025,626.8453821330868
1731304953.2703302,707.3912870225286,1071.5248370456661,843.0915767975409,668.0698668212942
1731304953.2709322,782.4058216862172,1083.7666346701324,848.3415775032522,723.0311703926401
1731304953.2742524,850.0584809587112,1156.370860263595,853.5787186256371,790.171235601212
1731304953.2781749,908.1558269044974,1255.6482471573631,858.8940061890462,864.0541099703435
1731304953.2812212,957.2784590392989,1313.1368282702795,864.2859441935989,932.2883331971595
1731304953.282097,995.8607220627351,1294.0001852547919,869.7143758068382,979.4476225527371
1731304953.286019,1021.08073833099,1225.5420621922863,875.1477936578331,996.9569651265138
1731304953.286525,1033.7040971149318,1160.9465937007476,880.5782838042468,990.8346629658109
1731304953.289492,1040.475855255199,1118.7404207317636,886.0131966765917,979.4469096669438
1731304953.2899418,1050.3835719863032,1060.9296914776762,891.4619692757749,981.358348845236
1731304953.293864,1067.8477825159478,932.9047377869621,896.9290586521398,1002.2315440379563
1731304953.2977865,1089.5219006623133,727.4964028401048,902.4139605479061,1031.644086615986
1731304953.3000815,1108.173187565987,512.2184554074555,907.9144314942962,1053.1425878589323
1731304953.3017087,1120.1827337558445,392.12520913550605,913.4292920017815,1059.437805948141
1731304953.3021178,1129.3570659800241,437.61265940907543,918.959310148115,1059.3635706464906
1731304953.3056312,1142.9831676060544,635.8403261503778,924.5062241785212,1069.8348277904176
1731304953.3095534,1163.6032800356006,902.914543978902,930.0706416424326,1099.5844129021718
1731304953.3134758,1184.602502239581,1142.8222042729474,935.6501438546629,1139.490881020486
1731304953.317398,1194.600988174164,1303.4272943217338,941.2396668197832,1168.71092915028
1731304953.3177106,1187.4754646425413,1389.2549692242378,946.8359552122955,1171.5496652878433
1731304953.3189418,1169.3378254484994,1433.1957829966946,952.44488984249,1150.5255608863106
1731304953.3213203,1156.1418349057476,1462.4474284509529,958.085033103235,1124.877452742323
1731304953.3241649,1163.4818929707376,1487.7981026162433,963.7774248517659,1116.4610532340273
1731304953.3252428,1196.471390739346,1512.273407908965,969.5183074122746,1134.9040064734156
1731304953.329165,1247.1197571610574,1535.0317850369947,975.2517644597874,1173.2592123967365
1731304953.3330874,1300.2838038287998,1540.891890577659,980.8818823228044,1215.9982044249216
1731304953.3333037,1342.794297624903,1494.3030483095945,986.359149966261,1251.3944188850164
1731304953.3370097,1369.0947174040393,1360.4591719540279,991.8139765020076,1277.9698122202403
1731304953.3378022,1380.9410267976414,1145.5333007785284,997.6057537444424,1301.0235464190428
1731304953.340932,1383.7566567185793,916.1186927803536,1004.1041424992112,1324.2941272896219
1731304953.3448544,1383.5193413325876,766.4058429224121,1011.1653834105268,1345.4025559906997
1731304953.3487768,1385.5314663702325,750.708764025535,1017.6605647261372,1359.0357998912182
1731304953.3488965,1393.850488073578,840.389802742018,1021.8111684649035,1363.9012467735638
1731304953.352699,1410.3475340400892,949.5599759395266,1022.9169864748974,1366.1279428892014
1731304953.3566213,1434.1633542623272,1010.3038803330985,1023.8176998473956,1375.7169443855496
1731304953.3566625,1462.6739141703365,1027.7287751966317,1031.501818991582,1399.202283303839
1731304953.3588378,1493.2823172385063,1061.9879402092836,1052.57816623478,1434.4945104942854
1731304953.3605435,1524.0068957984045,1155.4632286160368,1083.5563346301658,1471.3978319459138
1731304953.364466,1552.1113784811278,1278.5508448387004,1103.728006960941,1496.94977697158
1731304953.3644893,1572.5505377579511,1350.541632746539,1084.149192128781,1502.0664978151337
1731304953.3683884,1578.6163719376423,1317.5889988577853,1015.3314150748464,1485.7206889462627
1731304953.3723106,1564.9987843209133,1210.5095812790564,929.1945396491193,1454.3177811741625
1731304953.3755229,1530.9111208360987,1121.2084492502943,882.2774500448039,1416.599130677238
1731304953.376233,1480.651404609349,1115.1300025922924,903.7020620849457,1377.3931218205864
1731304953.380082,1421.1193032033777,1162.9439199532912,957.4204853140134,1334.7484267555499
1731304953.380155,1358.2667840457798,1161.733123465,964.3164867602728,1282.752837534006
1731304953.3840778,1295.0998120395957,1032.6383174023003,872.6373039532658,1217.8837661042005
1731304953.388,1232.2841005486318,805.8657379304517,713.3389097159708,1143.7692483304186
1731304953.3919222,1170.1316096094286,609.756218700885,584.777666532168,1070.4814414262744
1731304953.3935106,1109.8363151916358,566.9112133967756,574.2627437585602,1008.8656477849055
1731304953.3943832,1053.063775315708,687.8376495259328,683.4056531974747,964.1590596000912
1731304953.3956747,1000.9677682314002,858.3673064830127,823.5454925822296,933.4421746813484
1731304953.3958447,954.2013119562409,934.2608841410854,886.645122416243,908.5336206341212
1731304953.3997667,913.955872453645,860.36138029754,831.2074217357881,882.108627340848
1731304953.4036894,882.2918359939328,709.9556679239766,710.7651274236218,852.4896851360439
1731304953.4076116,860.2263214935114,612.4511020037379,623.9193545900093,823.2545611512538
1731304953.4112675,844.4447257794787,637.8984446735985,632.615482972133,797.6429154401848
1731304953.411534,825.8807433051118,743.1252689280592,718.9587439025971,772.4666661180868
1731304953.4132435,793.0491213430505,824.0417389036543,812.0903870960045,737.7494883220975
1731304953.4154563,739.4105189023785,820.0076226356454,854.2697881804373,684.167053920136
1731304953.4193788,669.8863107164195,770.7840764437376,845.7743359491369,613.1250939075571
1731304953.423301,600.8076715639813,773.7539879187619,833.2864614703378,540.4471992597777
1731304953.4268603,551.6834026288745,882.6721568773369,858.5873139148733,488.65890138731464
1731304953.4272232,533.6386105362217,1043.5353877227558,916.8042229063595,472.4075767231022
1731304953.4281836,542.9449826851258,1130.087932618285,960.9566690858247,488.50304067701416
1731304953.4311457,564.7896044353652,1051.1317892890384,946.3575248607146,519.1318191809098
1731304953.4321036,583.9786636014004,834.9552386537505,873.2905285667557,545.2209049228545
1731304953.435068,593.4832276581014,613.4342034086089,789.3084519875068,557.9156995502526
1731304953.4389904,594.9688450431116,516.4267294105308,749.7051712154798,559.6664337184361
1731304953.4424531,593.6289082532921,568.1418857858732,772.2058784023716,557.5414811374023
1731304953.4429126,593.2982265412251,676.3939138994401,825.7754215552828,556.7427518868335
1731304953.446835,594.9515730475621,721.3872523505272,861.0522425999321,558.6030501076739
1731304953.4507573,597.764083402729,660.632821482558,852.4767893530521,562.0187727444275
1731304953.450964,600.66508454829,555.7504551407147,814.5237232922498,565.5477316210871
1731304953.4546795,603.1509621171544,503.5748537127654,781.4497662686651,568.5092924712578
1731304953.458046,605.2774366819368,541.8860044167992,773.5756111854605,570.9771318826361
1731304953.458602,607.3058415894781,616.5745311730694,781.8125390089584,573.3034174676861
1731304953.4625242,609.4223128545211,633.5613976187262,781.1582826857211,575.7398257968612
1731304953.4628563,611.6639776382667,541.536061429404,756.3733142956881,578.3372884481705
1731304953.4664466,613.9803011358844,370.94917528577207,714.821601088781,581.0282835865256
1731304953.4698243,616.3142182159784,201.1773733765623,677.0661619627847,583.7362044808068
1731304953.4703689,618.6410830664579,92.06469486749359,657.6295306598046,586.4280405856234
1731304953.4736388,620.9651540654595,41.09002013544523,655.5282156398241,589.1097803014909
1731304953.474291,623.300024155642,-2.2848398193997355,661.7544356758666,591.8000684530086
1731304953.4782135,625.6543793566032,-85.45990923077443,672.6267802092349,594.5109778339938
1731304953.482136,628.028946831755,-212.56879616128344,692.6327395861605,597.2438539217659
1731304953.4860582,630.4201602195516,-346.38236679258625,723.4588060807413,599.9942354709835
1731304953.488685,632.824422666077,-443.0701616055053,753.2878997224092,602.7576021854661
1731304953.4892316,635.2399636000612,-485.44058800887046,762.2353038826936,605.5318869715089
1731304953.4899807,637.6665014454172,-488.92212558575284,742.0704170675178,608.3170280651497
1731304953.4939027,640.1041744590498,-482.53877235327377,709.8055080461347,611.1135290336352
1731304953.4975293,642.5528258632871,-486.25405456370913,697.6270349271999,613.9214929114497
1731304953.4978251,645.0118892986261,-502.6265667977707,725.7390847287936,616.740465045568
1731304953.5017476,647.4806053087882,-523.8494672836359,784.3242564535772,619.5697231653212
1731304953.5048244,649.9582450942187,-542.8463587152285,842.7650221523677,622.408578462698
1731304953.5056698,652.4441954339435,-558.1690821450782,876.0297056642287,625.2564906128723
1731304953.507545,654.9379269334145,-571.7676328890602,881.1681554895216,628.1130264528878
1731304953.5095923,657.4389302035752,-585.2535765877442,869.8709010510879,630.9777755781777
1731304953.5135145,659.946684582971,-598.9468550946751,849.9180865930462,633.850307924479
1731304953.517437,662.4606771026124,-612.9878400094674,818.2588148280071,636.7301948453464
1731304953.5204172,664.9804479885245,-627.7813954847497,772.153341806521,639.6170621328622
1731304953.5213592,667.505612167558,-643.2228385980407,722.9354428593958,642.5106133080247
1731304953.5252817,670.0358053172182,-658.3922137608565,694.0946179564764,645.4105651020751
1731304953.526405,672.5705509606614,-672.604298636154,703.2577776732971,648.3164965766075
1731304953.529204,675.1091470415815,-686.4840786069944,745.9634003704141,651.227729807783
1731304953.532202,677.6507632254379,-701.3995325756716,798.1468626111862,654.1434578943606
1731304953.533126,680.1948834198801,-717.5884179506124,834.9129271789226,657.0632571832696
1731304953.53601,682.7419052838675,-733.1448673343764,846.9670743275345,659.9877446332991
1731304953.5370486,685.2932328927769,-745.5257660036427,841.2332056125871,662.9186162338863
1731304953.5409708,687.8500564410526,-754.7641182769228,830.0578970460983,665.8571906417687
1731304953.5448933,690.4108523592074,-765.3029306498722,821.5702990925002,668.8015936166089
1731304953.5452657,692.9695410936747,-783.4571733106743,817.3864031219637,671.7448738651027
1731304953.5488155,695.5178530427788,-810.7176061650739,815.4359714344279,674.6780247866681
1731304953.5516028,698.0540453871031,-837.6584284751368,813.397703584665,677.6000269405438
1731304953.552738,700.5937227379261,-844.9095003591563,810.3055898722757,680.5296255084918
1731304953.5566602,703.1698224572149,-812.9365063283967,806.3837500997362,683.5040233622348
1731304953.5605826,705.8074127100583,-733.2550751382987,802.2289647328151,686.5490328417851
1731304953.564126,708.4765279687589,-609.0275556122806,798.2255383258283,689.6262160097818
1731304953.5645049,711.0624725859453,-441.0183723224054,794.4262641162071,692.6033317538376
1731304953.566875,713.4199403396946,-211.8120693420109,790.7083111372596,695.3219747499301
1731304953.5671957,715.5434817314501,110.35896068866225,786.9499427176119,697.7930299274254
1731304953.568427,717.7609140728306,541.355617335025,783.1057910014874,700.4054304642596
1731304953.5723495,720.6991441213468,1046.3558248350537,779.1915013661527,703.8626044330064
1731304953.5762718,724.7707826493677,1535.8850037653724,775.2390185526577,708.5784063896028
1731304953.5801942,729.2940120303226,1906.3255234407322,771.2671932224617,713.6956205786887
1731304953.5827885,732.0443145290844,2098.452740241669,767.2773402900497,716.6592150628688
1731304953.5829864,730.4800250337053,2128.672854827946,763.2622986689167,714.7192306862833
1731304953.5841165,725.1341562835861,2070.050679202829,759.2156345866605,708.7956056645019
1731304953.5880387,723.2804738756147,2001.815276693053,755.1351555548279,707.3961711840402
1731304953.5919611,738.415916804479,1967.4189670605097,751.0217796930567,725.5051929754451
1731304953.5958836,782.3236716702761,1966.8071091247673,746.8771097201005,775.0550444739982
1731304953.5983813,854.0278472668241,1977.4789045396178,742.7019642285725,852.4259152379833
1731304953.5998058,936.7736135570525,1980.3159120213047,738.4962474248155,936.1131253475073
1731304953.6015477,1008.379029203495,1971.1656226448029,734.2594971622998,1000.5242414951009
1731304953.6018467,1055.7516069008855,1956.489489267816,729.9914009079644,1034.2257799943484
1731304953.603728,1079.7655172992327,1943.453090915285,725.6919604954169,1045.0967052186288
1731304953.6076505,1087.812751720604,1934.3259114511532,721.3613309967886,1048.601065301415
1731304953.6115727,1083.9397311288672,1927.3560245813132,716.9995203238158,1052.13214170916
1731304953.6139743,1067.2514349093474,1920.3377596517694,712.6061969955565,1050.752470190183
1731304953.6154952,1039.0709837605245,1912.70796733503,708.1808599444964,1037.0844432290849
1731304953.6194174,1009.320277367395,1905.0600299776274,703.7234694981804,1013.7856302639569
1731304953.620707,993.0487936376416,1897.696039791609,699.2351984894965,994.7695276729975
1731304953.62334,998.4832495182368,1890.2060420447488,694.7183998981067,992.8564237372377
1731304953.627262,1017.5650839460146,1882.3774372264102,690.1748371568962,1005.340088085135
1731304953.6295671,1028.9269227131458,1874.9746566482572,685.6024633463684,1011.8968447773268
1731304953.6311846,1012.6961316021537,1869.1047101326822,680.9935043630087,988.8399222909163
1731304953.6351068,966.1910962324466,1864.8332649384372,676.3383525760534,929.2793746696306
1731304953.6362207,908.130826055106,1860.9009266195555,671.6373113593227,852.552188154001
1731304953.639029,867.1164777173004,1856.0620814952888,666.9135300722014,793.5909869370411
1731304953.6395674,861.5388196826143,1850.4206898227062,662.2099064516899,778.291396657647
1731304953.6429515,884.6850330800099,1845.1412518996567,657.5531933140805,802.6094460211573
1731304953.64516,906.0659700331453,1841.0379162145675,652.8939838644795,831.7610048291274
1731304953.6468737,889.3410334660338,1837.8232813829638,648.0778223613711,821.8466278015252
1731304953.6507962,815.6030095760894,1834.7346927118492,642.9307316618125,749.572346847382
1731304953.6547184,696.4939731043174,1831.69159032629,637.4866273069938,629.0843391413605
1731304953.6584277,568.2832168907084,1829.9417165910672,632.214317240519,503.7909321277625
1731304953.6586409,471.0318194467185,1831.6066652852194,627.9137732464039,419.0059797471461
1731304953.6607528,426.6868995839383,1837.6444596438319,624.994431088425,394.6691408883258
1731304953.662563,429.7632479748954,1844.6980592885664,622.3670132905321,416.42985785246026
1731304953.6664855,455.3179772983311,1843.787446369321,617.0536841491597,449.60760875303464
1731304953.6704078,477.780755513837,1824.6303896457628,606.0562510693876,464.71918353283655
1731304953.6708934,487.6897840113503,1784.8449487116034,590.8238536352447,456.45079088454185
1731304953.67433,495.23908426909276,1736.212995010884,581.4640959510137,443.93670282277515
1731304953.6763456,518.8294515286998,1699.3324937402035,594.8210076020466,453.8858546743681
1731304953.6772878,567.6486237748903,1687.740453633287,642.8789359065884,499.67641615938703
1731304953.6782525,631.8387485940947,1695.0830644995299,718.5296861096353,571.3466170484992
1731304953.6821747,688.0949896688276,1699.9493178005537,794.7156223232147,642.8174602573484
1731304953.6860971,716.4861769297562,1687.4927561961215,843.6225131334863,690.1209320831155
1731304953.6900194,715.3681911784654,1667.8040535895645,859.7155434763602,706.9213181296873
1731304953.6919384,702.8572421804977,1669.2498102718996,862.8216645872319,706.5389961761998
1731304953.6939418,704.0192328637723,1707.7444673526204,877.6071146102996,710.3506620631698
1731304953.6961482,733.5696396615001,1760.9013126767973,910.4822432515832,732.1135556309478
1731304953.697864,786.168171813198,1778.573886084421,946.3877605551994,769.2650801519862
1731304953.7017865,839.998422438523,1728.6351659494062,965.9960853782206,805.9273001974359
1731304953.7055664,870.3731897702768,1636.5251101116846,963.5437153595516,824.2419591978364
1731304953.7057087,864.5350004265339,1572.435135230437,948.4422941632333,816.1392289341828
1731304953.7075312,828.7205444542254,1585.4239167513597,933.7156444999135,788.1324721265005
1731304953.709631,783.2921522814756,1641.7336657671353,925.8781256404407,756.2126999788405
1731304953.7135534,749.2399235458755,1634.798820008229,923.9288560326145,734.4333988658914
1731304953.7150085,735.5382841802104,1474.7784065826568,923.9149534360453,725.7475299122884
1731304953.7174757,736.6057827140756,1184.2456862487008,922.9719482201567,722.5867223353785
1731304953.721398,741.096932064569,905.1279595845385,920.456611050065,716.6546935403894
1731304953.723124,743.4225938629008,793.596646465196,917.070751314925,708.5836203358161
1731304953.7253203,747.0697260767593,886.0479377042799,913.6522399179956,707.4296383344874
1731304953.7292428,757.0694351878683,1057.5620881777713,910.5729676604964,719.6126973239444
1731304953.733165,770.208565553667,1118.6475932017274,907.7720862738647,738.1795081267543
1731304953.7338688,774.4702985577645,971.7791974486432,905.0409642618557,744.6250392489789
1731304953.7370875,760.3731938468193,693.1576504128193,902.2380992199477,724.5225814368004
1731304953.7387168,734.5364032801358,470.41840673227574,899.3395785796766,684.538008945317
1731304953.7402391,721.6882630920537,451.91692343654387,896.38730523569,654.7279261186766
1731304953.7410097,749.9865552018994,634.7353667905368,893.4256229917573,670.6498207410165
1731304953.744932,829.271928764447,878.6311415454984,890.4725515603608,746.8977140802305
1731304953.7488544,940.0342927215601,1023.3889978416228,887.5238704314083,863.026250613738
1731304953.7527292,1044.0312890106156,1004.1434654632382,884.5687717747485,975.0591759579601
1731304953.7527766,1109.822020696991,871.332195894419,881.6007077343475,1045.3948452832683
1731304953.7543097,1133.0056314439626,713.3661603369782,878.6193940596756,1067.7522979656524
1731304953.756699,1134.6928694165792,566.1128812842254,875.627754261477,1067.018551358778
1731304953.7606213,1140.4187320350993,395.80975397188354,872.6285869930994,1074.9371658779833
1731304953.7645438,1158.4457893305996,162.7387736732884,869.6231895818156,1103.016293230135
1731304953.768466,1175.6160584651789,-107.62503293950624,866.6116952226898,1135.2269688985689
1731304953.7699025,1171.8979772208586,-321.89991177620755,863.5939764295392,1144.4014569198375
1731304953.7715895,1138.4296542548525,-387.222510779628,860.5702728389031,1115.735942917099
1731304953.7723885,1083.2789314877168,-283.2159170679763,857.5412991355412,1057.0740711266903
1731304953.774912,1022.8347692941163,-72.16443017144024,854.5079388770151,990.062237904378
1731304953.7763107,969.8195128182582,153.4910776700674,851.4707417963708,933.4342042748211
1731304953.780233,929.2793083415536,331.6874026386226,848.4295440821854,893.9701710111782
1731304953.7841554,903.4766734442354,449.9442343323216,845.3836669345043,870.4623568103126
1731304953.7854953,897.2453384668617,523.2316307089798,842.3330271337414,862.872255664375
1731304953.7880776,916.1005124980094,566.4962392116114,839.2797499172408,875.2433170424571
1731304953.79045,958.3179132886871,588.2611433446028,836.2286637077356,909.0544801860124
1731304953.792,1009.7029598090033,598.4095865381611,833.1845227558069,954.7361834097447
1731304953.7959225,1048.3732921705573,608.4056882870968,830.1456685525995,992.0312988209781
1731304953.7998447,1057.8679442091218,618.4670330982875,827.0986105114613,1001.7932682007438
1731304953.801088,1038.6607592961923,608.5365085645249,824.0226095243162,980.348891777666
1731304953.803767,1008.4128420743749,550.0237061989012,820.9108640029377,943.8415601124115
1731304953.8076894,990.1189749993343,433.1881900623516,817.7995269301721,917.9122669195914
1731304953.8093102,997.0135670254601,285.2806886831297,814.7727717717725,920.4477473924507
1731304953.8095849,1025.3734982402414,158.59489484705216,811.9048,950.7001101569392
1731304953.8116117,1059.742723689547,93.33869970839407,809.1395273579216,992.4296649141352
1731304953.815534,1085.6728142977652,85.22478062020389,806.2004302808261,1027.5124523674863
1731304953.816681,1100.2443062206712,88.45717300851823,802.7023979491175,1049.0750312490165
1731304953.8194563,1113.1470231304793,56.69248228116237,798.5733650140425,1064.6406320914548
1731304953.8233786,1138.1980736205567,-11.264089046733602,794.5911391117205,1087.902259591457
1731304953.827301,1181.7163911500702,-64.41379849632995,792.4306285266059,1126.1872329414575
1731304953.8281703,1236.0293664199967,-43.303024483511535,793.573417126823,1173.3800738191917
1731304953.8312232,1282.6523276319044,62.396487898647024,797.3712600846507,1213.3692933982588
1731304953.8322735,1303.1552300687822,198.45850452028333,800.6193763607918,1231.027172891348
1731304953.8351457,1290.9327420269667,292.6962460014855,801.9436095152419,1222.7359391914968
1731304953.839068,1256.7861476959674,322.1964339618417,809.1555156588397,1199.6656082502248
1731304953.8429904,1224.7289203279931,334.8733883533769,838.7718053761126,1182.0911793009946
1731304953.8442578,1219.2865316662414,400.14953498735963,899.960335877626,1187.782932812252
1731304953.8469126,1249.9678774216811,533.3111008256319,975.3594392553327,1220.0660943007429
1731304953.8470309,1301.4405384519964,667.1304310364935,1023.4472801849653,1261.985646665417
1731304953.8478663,1337.3090243029678,702.2770697774924,1009.0973767060013,1281.7698742870077
1731304953.8508348,1319.0282541077854,593.9916091793855,937.248205642006,1249.6719417101967
1731304953.8547573,1230.6913504243103,396.3491186649465,855.3247553524952,1157.8672355668737
1731304953.8586795,1092.7385797515935,221.91650919332892,816.3045540964598,1029.4307153294421
1731304953.862602,952.0683411397588,151.49289665799859,832.7241447506586,906.9943230169154
1731304953.863459,852.8009043336417,175.08560537700828,864.7835443042122,826.3022286480639
1731304953.8658912,808.3514284208726,216.63636927266782,857.1274877110825,793.3366763593707
1731304953.8665242,796.1449448054375,216.70509755762544,792.9468298153901,782.9591877275727
1731304953.8704467,778.8712313936691,193.2363903798921,714.8626999549642,760.7380582823893
1731304953.874369,734.9491175235729,222.4438547800106,690.8369805467364,710.9034493383454
1731304953.8782914,673.9958932990324,358.6893511798645,754.6244598277768,648.2354745482943
1731304953.8789306,626.1369898236552,570.4436881348365,874.6702656400912,604.7442012528779
1731304953.8790522,615.433329800217,754.2633250817998,978.9755622078152,602.4063757943012
1731304953.8822136,639.6238377798886,815.9641167789164,1012.4344991229407,634.1699510931052
1731304953.8847516,671.8537511043743,746.5775814826895,976.1588602855161,668.299730490018
1731304953.8861358,681.6711337867932,625.942427867729,917.7932152646736,672.159636706439
1731304953.8900585,657.6408736918166,551.964103693332,885.9662777754434,636.1674167406806
1731304953.8939805,613.8312758759067,558.7456305786451,890.428602693437,579.1231358062174
1731304953.894645,576.3337399597381,594.4053145377611,900.3402376566684,531.753377886693
1731304953.897903,562.0889025120432,574.840091606627,878.2091637499441,512.9845999268116
1731304953.9018252,567.4738114236402,463.38971603160974,817.1499304701858,518.3550305605975
1731304953.9036117,574.7067192297308,306.64223269311634,748.4229080710606,528.489860072532
1731304953.9057477,568.82964769615,197.67444126725832,713.5235506834705,528.2849693186234
1731304953.90967,549.9259156187186,200.63351008687425,726.4266190965801,519.292646915288
1731304953.9102378,530.5561670258953,300.48860505566114,760.0188901149763,515.0388223212135
1731304953.9135923,521.8545904015284,416.94423253912385,769.0247845988441,524.6501022295879
1731304953.9136035,521.5410261866086,467.162305126694,729.1934349655763,540.5458802285826
1731304953.9175146,514.9890466645584,425.12574054713167,658.5444419821487,542.1648743527688
1731304953.9214368,488.5594298886304,333.90138125084894,603.3021214081222,513.1464445406364
1731304953.922472,443.35704565829815,268.1394534977227,602.1530157536827,457.0532582832509
1731304953.9253592,397.2020804757403,280.71623803163976,658.9265499668602,397.71612909739537
1731304953.9258306,372.9639092886759,372.47013573551556,743.165857391501,363.58331179765764
1731304953.9292817,382.9576569926022,500.4515367520353,813.6542628470153,368.90831807464855
1731304953.933204,421.8103590127572,611.2694581871386,844.2926720758386,406.4687633090118
1731304953.9371262,472.45323774861646,672.7499298672442,834.7747802465644,456.0447880676271
1731304953.9410486,519.1084177288767,684.3150832316393,803.1147795554925,500.0609827107338
1731304953.9413323,556.492719238083,665.1691855965223,769.8570402710535,533.4803018032821
1731304953.9414234,589.0438569898415,634.8306027574638,746.5077247161212,561.6873381408606
1731304953.9449708,622.9413299496773,602.2747897843346,734.0613551453991,590.8245214233266
1731304953.9482763,659.1243460131709,568.827000884148,728.5227012337463,620.5154227927518
1731304953.9488933,693.2160816440867,536.9462141056924,726.4621990618406,645.1971081043664
1731304953.9528155,720.9955994696954,513.6422988726438,726.6296075427667,661.4567034455802
1731304953.9567378,742.8413328140399,505.5758640310862,728.730934204358,673.0358721083765
1731304953.9570162,762.3558323845091,513.0219955843783,732.2384206316653,687.8304523429807
1731304953.960193,781.1963556299285,529.9618538770154,736.3522619708904,709.7350060302244
1731304953.9606602,796.6029926469959,549.1884536039676,740.4550923510315,734.0120655996507
1731304953.9645824,805.025894111484,566.5667394051886,744.3286039025265,751.6198561943161
1731304953.968505,807.8267007117538,581.5669001647042,748.041278277364,758.5391624348599
1731304953.9724271,812.0208639365146,595.443031612487,751.7352262794295,760.5769682494064
1731304953.972609,824.5093054630187,609.4013558241329,755.4932042225649,768.6802951197398
1731304953.9763496,846.0123674125061,623.8641718588392,759.3200486724065,789.5839283870844
1731304953.979053,871.5163096698316,638.6502725721522,763.1838716872185,820.9122591566284
1731304953.9802718,896.4990811657133,653.4318646993388,767.0568711888405,854.4630159851665
1731304953.9829493,921.3998125539756,668.023314792218,770.9303690264007,882.9894003280806
1731304953.9841945,948.6517354158393,682.4166966276343,774.8093409391358,903.389105020765
1731304953.9881165,974.9209000339995,696.6861351122709,778.7015385234208,914.1781559151824
1731304953.988202,986.9186163978995,710.8954710987102,782.6110791106893,911.2670106507456
1731304953.9920387,966.5984061809568,725.0650281356687,786.5379576737013,887.4200378363437
1731304953.9959612,903.4530282828626,739.1845395167692,790.4804062461593,837.05726726114
1731304953.9979134,805.2135745262225,753.237836148202,794.4370039593794,763.1084633268404
1731304953.9998834,698.5065211174855,767.217166442521,798.4073692993717,680.3303351249373
1731304954.003795,617.6336228558305,781.1241190343538,802.3918227637452,611.4406063130706
1731304954.003806,587.9876273622228,794.964214332479,806.3908226383758,577.4524868646934
1731304954.007728,614.653461389558,808.7421437631598,810.4046362753172,588.1082683974682
1731304954.0116506,682.9688596076908,822.4602321779535,814.4332701135282,638.3930563321728
1731304954.0155728,768.847355738449,836.119213072059,818.4765104543346,712.3494361928667
1731304954.0167737,850.1832276009096,849.7195192159086,822.534015060299,790.2336254561063
1731304954.017622,912.3803468963977,863.2620751194405,826.605525964894,854.3939866958959
1731304954.0193875,948.3980151582025,876.7485279443194,830.6912279962476,892.847381788301
1731304954.0194952,958.3426867264488,890.1811662432808,834.7920060029832,902.2365066758988
1731304954.0234177,950.9011954149445,903.5625477942756,838.9090832618834,890.2467281712118
1731304954.0273397,943.1315990765224,916.8946739827975,843.0427037178274,874.4117923529889
1731304954.0312622,954.2259267631586,930.1779159583471,847.1904754271957,874.8621938548318
1731304954.0349803,994.7589762879566,943.4107427965099,851.3473280533871,903.6939877057729
1731304954.0351844,1059.1648596435748,956.591732394289,855.5092955141209,957.9965190004631
1731304954.035634,1128.300423261659,969.7240641843333,859.6807083969828,1021.9777808187417
1731304954.0391068,1180.9974730106665,982.819320114316,863.8788677661948,1076.86149527888
1731304954.0430293,1206.0242823536853,995.8941616586358,868.1260644615402,1111.2816746560975
1731304954.0469515,1206.0302580739162,1008.9552427740721,872.4237567259379,1125.0517237671538
1731304954.050573,1192.3994047272158,1021.9786629790606,876.7227753361448,1125.1928739690409
1731304954.0508738,1177.1469777585962,1034.906576386579,880.9275999108681,1119.416267105744
1731304954.052295,1168.3892016420627,1047.6886438651104,884.973689427642,1113.01523587794
1731304954.0544944,1170.1746376997642,1060.367557535559,888.9623683927464,1109.9319615055388
1731304954.0547962,1182.5327730763377,1073.1427713725889,893.2335559707702,1113.4377029101029
1731304954.0587184,1199.0082042109793,1086.2908658600202,898.1882217737888,1122.5955703192424
1731304954.062641,1204.7237869599803,1099.8680804806372,903.7868600824312,1127.0778229522168
1731304954.066166,1180.7309694195797,1113.3383244556112,909.0238680340075,1107.7623100196408
1731304954.0665631,1115.532353741134,1125.568099091732,912.1117816805047,1047.2585570374047
1731304954.0704854,1016.2959348672773,1135.6809939007155,912.0548121439695,944.8630043520835
1731304954.0733547,909.5161617264325,1144.665407411027,911.1844672741989,823.7307700350628
1731304954.0744078,828.0070645891919,1156.3839179127292,916.3006096915454,721.9374986487887
1731304954.07833,792.3369723472616,1175.6813580456687,935.0727025524675,671.3795791420893
1731304954.0817587,799.7684282532207,1202.3643109624352,967.1479830040805,678.6889415427519
1731304954.0822525,827.985493423107,1223.8097123773941,996.2448411720609,721.6453938403142
1731304954.0861747,849.818043970242,1213.4597491114,993.3549418851685,763.5146875066057
1731304954.0869677,848.1434311048882,1142.109731576271,933.7908064198381,775.1627472136024
1731304954.0900972,821.7534557049224,1000.230397909392,817.259462946852,750.0123797836922
1731304954.0922153,780.4433842532418,816.6666843279394,675.0650829909811,702.7993169514473
1731304954.0940194,734.7545275987136,654.1086226700581,556.7271589207166,654.8494702377932
1731304954.0973516,688.2245479057035,575.5428155670947,502.40282041185293,617.682589539442
1731304954.0979416,637.06366609984,602.3464446832163,518.893325040103,586.818356470426
1731304954.101864,576.5491928311109,698.9974475853843,577.8273582333018,549.1404254680642
1731304954.1057863,509.0286814306805,801.5808591381141,639.8736633377187,496.9868001460868
1731304954.1097088,447.74538272607333,868.217287770912,686.242275650408,438.00004345568436
1731304954.1110754,413.3884529672311,906.2010595412005,728.9645553061551,393.78566440794634
1731304954.1129444,424.36840816993,949.9687303744078,788.7994267579675,388.3873278166298
1731304954.113631,485.7312940421928,1011.7246597591075,861.901510372885,433.91682484560573
1731304954.1175537,583.776120994805,1056.3958023111568,911.4865197034813,522.3783510903052
1731304954.1214757,691.4014428901783,1031.3867882383183,899.0060316929164,629.2097585258639
1731304954.1216407,782.2124496148573,925.8795881962442,828.1476794890442,726.6143360876936
1731304954.1253982,843.9057998016997,798.8553118525989,755.604177666751,797.6516600196923
1731304954.1285374,880.7743690182397,739.3356135086851,749.0696935457551,841.1907160247416
1731304954.1293204,903.6954001314657,788.0585098931847,824.349222379156,865.1075278816793
1731304954.1299355,916.8110348474117,893.4961245909102,920.3709218362964,874.8463470941364
1731304954.1332426,912.9950707541421,949.6791468830737,942.8540227639928,867.798882627845
1731304954.1371653,881.8896947792841,887.7327028374549,845.3655497362994,837.7311501378581
1731304954.1410873,822.5249002362588,738.757386142286,677.0567053072359,783.8706972838837
1731304954.1441302,748.5942616810992,608.0251319466361,549.8081049739759,715.5786867880777
1731304954.1450098,681.7065917736003,581.6345577869597,547.4090091279609,648.5970687716831
1731304954.1487958,638.6592532947478,650.4208681821035,653.8172295407267,596.6647009654747
1731304954.148932,622.9771936570228,721.2280769496195,764.9833474007283,565.3620711219619
1731304954.1528544,626.3785700229984,706.0605126139815,777.1855342888688,552.1254347888364
1731304954.1563134,638.0430369982761,608.470138915485,676.8622294844902,551.5858216873969
1731304954.156777,654.5269272012142,527.9325668052803,553.8560233395813,562.1759182270705
1731304954.159723,682.8548404393239,575.2158572917879,525.916292926822,588.930736029801
1731304954.1606991,733.3656086945045,771.1422751614282,639.4132916231924,639.0012772142197
1731304954.1646214,806.1112101597934,1018.2251218179906,831.2748119965368,711.3997711688282
1731304954.1676562,881.302473282571,1173.5460751709793,982.9207218621763,788.7743406267165
1731304954.1685436,924.3784328719325,1163.373503061705,1017.2356194177022,840.6312476238246
1731304954.172466,906.6484221630604,1041.45171679013,954.6873010100185,840.1495648987666
1731304954.175316,828.5556873809185,939.3093849682552,883.5785451417763,784.4404758432036
1731304954.1763885,726.3384935431891,950.4157748616594,875.5472083998545,701.5731337945717
1731304954.1803107,652.444634453547,1048.8259978968754,923.0934209945781,635.0882275341512
1731304954.184233,640.6079197075791,1113.4715092766944,952.6891917274936,614.4738897115358
1731304954.1865163,681.4991011825743,1036.6569015007667,898.1805304794636,633.8160896653635
1731304954.1881554,729.6981802768222,822.2973698160764,766.7041154034767,657.2311757237726
1731304954.190909,738.9585652841017,589.7402556069397,637.9771262905649,649.1735427766392
1731304954.1909864,698.8596948913289,480.54314623454627,597.4196993413823,606.0205070989368
1731304954.1920776,642.6175802329888,546.2846292235992,661.3276499021949,561.4769964278621
1731304954.196,618.046996694798,709.2813092592145,759.4934901949104,558.3611643578729
1731304954.1999223,644.9042747995265,826.8467053827845,791.9151436071523,608.8232858999042
1731304954.2038443,695.4766948127107,804.9486132632434,712.7069338474272,678.2557851962147
1731304954.2053769,716.9749993523416,668.2206473251676,570.3951071741984,710.1252699984952
1731304954.2065015,677.6256455598726,532.2788690169344,470.94928379241674,672.7591781576486
1731304954.207767,596.0983628293936,507.312983956097,495.89569592412886,587.6125631655376
1731304954.2116892,527.872484251831,616.5093479834588,644.0490398195598,513.4752624195863
1731304954.2156117,520.5499247532655,792.6484672816625,840.8475142869066,499.9712388903264
1731304954.219534,577.3605965138381,943.408590629168,999.2699721083338,550.4929376699708
1731304954.2220943,659.0599766078413,1019.5315742370756,1076.7640567214617,624.7753434231654
1731304954.2234564,718.8945130228805,1029.5779192463922,1085.938497657473,675.2346909504495
1731304954.2242372,737.5789974301113,1003.9399063581252,1063.4338154424054,683.3205334433985
1731304954.2256591,729.6833224565087,956.6039050120767,1034.16900369571,666.4625366535525
1731304954.2273786,721.6604888730078,883.208062356186,1000.7856433944853,655.1067571098537
1731304954.2313013,726.0121917095947,786.7645284211516,956.6351877337846,664.5105897253985
1731304954.2352233,735.0639664551305,692.6019690918478,900.2663730054423,686.3715115912572
1731304954.237687,736.231877301167,631.7422658393027,836.768389344124,704.109597789082
1731304954.2391455,730.6069013405094,612.6742479820535,771.7162591899064,713.8526419872996
1731304954.243068,735.8803341748527,616.6320353991714,711.0176508242065,730.1299534012895
1731304954.2430975,771.4486637093222,623.527903489758,667.4102778465567,771.880067081865
1731304954.2469902,840.6010722399417,637.87132409833,660.127071769977,843.5106464888732
1731304954.250913,926.2449128919966,681.8269534057683,699.3948847630427,929.1503072298112
1731304954.25328,1002.9003954571317,760.5326310878522,768.453344137501,1004.1626969850089
1731304954.254835,1053.1091853829118,839.9258697001346,826.3778408220355,1051.8338403443481
1731304954.2587574,1074.407974692095,867.8351336406187,837.5363734882839,1070.5115982140803
1731304954.260332,1073.580595295238,822.6461083977116,803.398642102769,1067.6999020170638
1731304954.261958,1056.5484092256993,740.2699260054148,763.7573444986747,1049.842887478631
1731304954.2626796,1024.519359026379,687.3273481101281,761.2071647395807,1018.556899797572
1731304954.266602,979.4430483936935,701.4262715977632,800.2451873307165,976.1333863540301
1731304954.2688727,932.2992825771514,755.0019174486723,841.2813103382912,933.7639610293313
1731304954.2705245,904.570498464546,779.7935229937327,837.8771718766872,912.9701933100257
1731304954.2744465,918.7374525720254,731.1461129904302,782.5119681279518,935.9684920776507
1731304954.2783687,983.0738288736816,631.1224806535546,715.6309027539112,1009.9748769937769
1731304954.2808182,1081.6401843647852,547.9901798787683,687.3402646880112,1116.6913032172038
1731304954.2822912,1177.652030322469,530.9620180393679,707.9977317346521,1216.2183005804475
1731304954.2844656,1229.573774102747,563.7611284243718,736.6434510173266,1265.2202946708944
1731304954.2862136,1211.0443495801183,583.7705088084008,721.0804771533509,1239.068313960575
1731304954.290136,1123.4919496391533,549.5798816915295,653.2723351192374,1144.4550157869826
1731304954.2940583,994.7594551120374,490.0738451745228,586.4594352976943,1014.9926486253481
1731304954.2950048,864.9202618152207,483.045795849648,593.8275788867469,892.9980448047892
1731304954.2979803,767.0773395404879,579.6047175590178,703.1738598210243,808.4446901820838
1731304954.2996786,713.025619880111,747.0473000642297,867.0419156873899,766.4307877029513
1731304954.3000584,690.7264445036071,889.6523058138052,998.1009732011781,748.7592382660533
1731304954.301903,674.3484215985122,932.6803972420846,1040.4622563921585,727.5936735468439
1731304954.3058252,640.8618773536771,890.5172840932003,1013.3180416910158,683.0431304228343
1731304954.3097477,583.1453237158265,850.7810093838924,987.0106972759967,614.261796003326
1731304954.31367,511.5408717283537,885.798945634607,1013.3485659212258,537.3144791918573
1731304954.3156512,443.85283877600335,975.0719529463713,1074.7908209420161,471.99923774022824
1731304954.317592,392.3658425840069,1015.3185254668992,1100.2450012939917,428.0724200525199
1731304954.318539,358.18526873792047,913.2832167939636,1033.7307889845263,401.58712827538506
1731304954.3215146,336.42946810115046,678.0001749353933,893.0613953728964,383.52646203915003
1731304954.3254368,326.59030110029397,427.2878793867909,763.7762625801157,372.80214012165226
1731304954.3293593,338.2465988868651,298.9315106062343,730.9339664814294,382.1224937700316
1731304954.3296778,385.85264125834294,341.39881319765976,806.8915073142092,430.42908145177114
1731304954.331244,474.89054395835564,477.69053935693677,918.4518284429031,525.8162992999157
1731304954.3332815,589.9674523269202,573.4361399714435,966.819166681343,651.6521432443216
1731304954.337204,697.0625239277772,550.7799672078604,910.7368824605055,769.2890799149615
1731304954.3373992,762.9931063433443,450.0762299656451,801.3979982526625,839.9781124255913
1731304954.3411262,779.7508717811805,387.05761261127975,738.0511673370572,852.0887379658427
1731304954.3450484,773.285875856823,445.60529439737405,782.4361180887524,831.7412425480195
1731304954.3468368,786.413117888651,603.3717988632318,906.7516571599837,825.8756757807708
1731304954.348971,847.640124500657,755.8540580486984,1019.4631914643305,869.6302433128845
1731304954.352893,951.2892586793031,812.6940713021179,1043.549140017318,963.8134390546023
1731304954.3562596,1064.9202113361953,775.2678435665631,977.5958223445117,1079.260148075598
1731304954.3568156,1155.9047071615914,727.4486564065477,890.2590910674792,1181.3471796354588
1731304954.3607378,1213.1208577696545,755.0250895969602,859.5872464454098,1252.2312759218644
1731304954.3624296,1246.4105453914317,870.3755703944272,912.3774814840625,1293.8240343894502
1731304954.3643506,1267.7793806413765,1004.5993356315897,1010.2708102544161,1313.6623637204711
1731304954.3646605,1273.948647658737,1063.7436830885579,1084.834437801463,1310.197711507319
1731304954.3685825,1246.9321296166568,995.239376813759,1086.7468524599797,1272.1977859179628
1731304954.3725047,1172.3077921791134,814.5629006121015,1012.0786185205558,1192.7290508307037
1731304954.37512,1059.1292018932986,584.3847297588911,894.465253296557,1084.6457186933717
1731304954.3764272,943.4815955646194,374.9323118044341,778.5267477616921,982.4616718699197
1731304954.3780224,870.3727273832276,237.06044493196396,696.9388900019168,926.0272673253612
1731304954.3803494,865.9329775622151,196.2133205415547,662.074335105099,936.3121750779247
1731304954.384272,920.4837546004022,254.72291026764668,668.9153443363007,1001.2482649091726
1731304954.388194,995.6771335205917,391.2971623793532,701.9642359068915,1083.2422755494872
1731304954.3921163,1050.6311746280642,562.4613616953859,743.4447527891718,1143.6480110764123
1731304954.3936152,1067.5083292496909,717.1344587131609,782.2731780990948,1166.2990262216822
1731304954.39398,1058.3885786116962,821.6371790886491,819.0077483844332,1163.330773845798
1731304954.3960388,1050.5588808286668,875.1583059127857,860.1059077101462,1160.5642237401248
1731304954.3990233,1062.8964361379278,899.521607522048,903.7014175651319,1174.5304060331032
1731304954.3999612,1090.3725673048652,912.1845256772713,931.4378815562936,1197.8913692362976
1731304954.4038837,1106.2847426616056,910.2991765689707,919.6339884886521,1203.0687389861537
1731304954.407806,1079.811651051766,882.5036766700887,863.9071970102013,1161.3528589345387
1731304954.409208,997.39989486446,833.3507906981746,792.807753012249,1064.5660562553549
1731304954.411728,874.5797090356181,788.310944236241,751.0306935443473,934.5255767255392
1731304954.4128404,750.5806983453597,767.3725314120938,761.3885689994214,813.4510100023342
1731304954.4156506,668.4035581401131,753.4901060866042,799.6485679676675,741.1781794769272
1731304954.4195728,652.0338907543925,695.5607675007141,809.822047094083,733.918777574172
1731304954.4234953,694.7160241192908,554.4320919659265,751.723711052113,778.0710888507346
1731304954.4248009,765.6536250754502,353.2084559692701,640.3413562755918,842.1567244435893
1731304954.4274175,830.6851836847438,179.50753039833273,539.8014005989456,897.8537080735601
1731304954.4313395,873.0592829450454,126.19138550803416,513.0563365342198,935.8079168110463
1731304954.4317007,900.2442048574494,215.266887690178,568.4964519942838,966.5375183562669
1731304954.4336965,932.4388699929896,372.579021340153,650.461381679145,1007.2430909831195
1731304954.4352622,981.5513064489063,483.2845157295673,685.172669632057,1064.3710134586897
1731304954.4391844,1036.409276872861,487.89077315679765,645.4153589928073,1124.0034459061237
1731304954.4403937,1065.4044213157351,436.4175324193608,577.7008196120958,1156.7783788641677
1731304954.443107,1034.9186281207114,447.04867265063046,564.7182488416968,1134.6431981505987
1731304954.447029,930.7893672423995,598.6169403695534,652.3241241461747,1049.1500647748978
1731304954.450561,769.0681670060499,851.5146331566469,804.9418082924929,919.7053632328198
1731304954.4509516,590.6624938953466,1073.284341833786,931.4024530363376,785.6164294233204
1731304954.4548738,444.22230540406173,1151.450566788285,960.6821194878859,685.427348192175
1731304954.4559865,366.4427652491542,1091.9195322896437,900.3800549843373,636.6860705739498
1731304954.458796,368.53503709848707,1009.9053555456852,825.2926844556895,630.770113751231
1731304954.4627185,434.39357228510386,1018.8014542589267,807.0517429837382,645.1497612293252
1731304954.4666407,530.9852827575069,1119.0972781584642,849.2014265386715,660.4183911262938
1731304954.468369,625.547396098097,1192.0643316802477,886.1153821380734,668.6439090388211
1731304954.4694214,700.3699165297161,1108.2717281873736,846.047275520895,671.133892689868
1731304954.4705632,757.438498420475,856.1568013405087,721.9398231544944,672.1390068998764
1731304954.4715793,811.3795971358672,574.8557543043714,587.189104675274,674.4497731259968
1731304954.4744854,875.8104355695551,456.20298493312015,540.9070260392897,678.4624936628076
1731304954.478408,951.6349613136919,593.7795780675096,627.6111248080718,683.2887578715265
1731304954.48233,1024.7954521815016,905.208181760501,798.9498285646074,688.0399374674464
1731304954.4862523,1075.6624462276234,1193.9696313382112,950.0713485690825,692.3810080423689
1731304954.487172,1094.3345612622493,1298.8376048407263,999.8289975510422,696.4231938026733
1731304954.4882815,1090.5053412026057,1206.4993350740197,947.7481153286885,700.3991545299217
1731304954.4901748,1089.0790598947349,1040.0184231305234,863.3206488503081,704.4475455038933
1731304954.494097,1113.4715137879484,945.9224330068132,822.6312238623236,708.5791666282523
1731304954.4980197,1169.0956569906496,984.0672380069911,849.3367490115473,712.7423027146658
1731304954.5019417,1240.0917401647378,1106.8224310822743,906.6237511197219,716.8898679911097
1731304954.5027647,1301.833035126963,1223.6035273174261,938.2089151412762,721.0053707503492
1731304954.503042,1339.2015425068626,1276.629570222408,916.1550365769936,725.094954873272
1731304954.505864,1356.5111898625823,1266.0029527469324,855.2035993226634,729.1698359973437
1731304954.507142,1371.8618159440864,1224.8724465961545,789.5620605492077,733.2355882015545
1731304954.5097864,1400.58845833641,1184.1948796711972,740.9679879066065,737.2910721589682
1731304954.5137088,1440.615290400392,1156.2332137902708,707.6204678086716,741.3321728032196
1731304954.5176313,1471.4289944591214,1138.0699847934202,677.6664344780731,745.355254977207
1731304954.5183578,1468.4084534009562,1122.253506614778,647.4986121953549,749.358323939188
1731304954.5215535,1421.8963784483572,1104.0934870477226,625.6859839971358,753.3404799767384
1731304954.5254755,1345.4767515279032,1083.0345523999476,622.380883646011,757.301026646214
1731304954.5260024,1266.096441238801,1060.6509943612562,638.7163778022203,761.2390613664747
1731304954.529398,1204.3203302140698,1038.4502778026833,666.93141266145,765.1535616478161
1731304954.5333204,1161.8871857987808,1016.9694210594696,697.8132596147831,769.0435201488008
1731304954.5339506,1126.5384081374389,995.9925543504914,725.3737615141822,772.9077351361971
1731304954.537243,1087.3815186930472,975.1147331473223,745.4969475076412,776.7443148356747
1731304954.5377147,1044.5950591256717,954.1023806714991,754.6168119301185,780.5505200930978
1731304954.541165,1004.5043685912427,932.9411155740212,753.5822692625679,784.3237613298951
1731304954.5448627,967.0290077326514,911.7193112444504,752.1530907318337,788.0638223900304
1731304954.545087,920.5985870804749,890.513795806308,764.4995313556349,791.7746399446112
1731304954.5490098,851.8593914460575,869.347926069398,794.4101499448681,795.4624139762402
1731304954.5495434,761.9663977076137,848.2070588826446,823.0916522129396,799.1279196276696
1731304954.552932,673.3404144395389,827.069119039515,815.7869910395133,802.756518172049
1731304954.5568545,618.181655773872,805.9225153398583,748.6689008605399,806.317350747206
1731304954.5607767,616.1901871561835,784.7671320475953,636.3327952435327,809.7850715203643
1731304954.563723,659.3352997325165,763.6069748306907,533.5001984545099,813.182412085132
1731304954.5646987,716.5433626272184,742.4436588740414,502.2071060051547,816.6092877132498
1731304954.5651362,754.7583789599109,721.2750678963826,565.8409431575478,820.1981417989891
1731304954.5686214,759.4002345449304,700.0988456869986,687.8437799167486,823.9621715437145
1731304954.5723877,738.8469682169019,678.9173804151735,797.2188740436845,827.6136631882473
1731304954.5725436,712.328340919768,657.7391852151251,843.5686893778418,830.5728414373343
1731304954.576466,694.2505283494787,636.5720332208265,834.9989036809493,832.3946909882765
1731304954.5803883,687.9180141956297,615.4085434744838,823.7852343172165,833.5095822600459
1731304954.580729,689.7829848956717,594.2155674411059,851.9715174060477,835.4999520782734
1731304954.5825834,695.4773120472917,572.9474657413239,908.6812710320113,839.7785942755054
1731304954.5843108,700.8846278683644,551.5951834352296,941.7633826954693,844.8622786865244
1731304954.588233,700.6038716675286,530.2470469785442,913.9440111551957,845.229896530232
1731304954.5921557,689.7577635091402,509.08847911092255,848.341401700218,835.0245043201429
1731304954.5960777,668.9806429011275,488.2601380271413,815.6879904495444,814.6782796494641
1731304954.5963218,645.9309062287493,467.59298489141804,870.3823423477559,793.0463025743948
1731304954.6,629.8950398343844,446.44217782163287,992.8014224531032,780.2038817497639
1731304954.6014438,624.8661558377846,423.99236324492614,1093.4716569103807,776.0308204374152
1731304954.6039224,628.1292962823128,400.2159550118855,1081.606480910573,766.2767116983641
1731304954.6070604,634.279710006625,376.9578372042975,942.8194535935545,732.451582184915
1731304954.6078446,639.4932920405618,357.73823442989413,758.681387516131,668.5588579162915
1731304954.6117673,642.8062143739165,344.8625774245154,646.3675716317048,589.4154150630711
1731304954.6119146,645.0180959861374,334.4755264852205,664.4052317223952,521.5840959755471
1731304954.6156893,647.1643292888566,314.0470205046664,763.791997143294,484.43793450201457
1731304954.6196115,649.7269701329777,269.2481818869852,829.9918727288065,478.6608080517381
1731304954.620304,652.6461334961156,202.91493303753361,783.8484239232216,490.8034062238708
1731304954.623534,655.6650924828768,155.29696712443183,654.5342339153182,506.0646367876765
1731304954.6274564,658.6021248901764,200.10755507503063,558.2433978673273,516.8177981645713
1731304954.6275074,661.4206721266695,396.92557184237256,598.9463606831332,522.8000354087352
1731304954.631379,664.168859169991,723.2769343569388,777.8914624644449,526.9201194186439
1731304954.6353009,666.9006176814672,1055.1996088937117,990.3187958922341,531.5812741293232
1731304954.6391642,669.6381770310412,1240.8611897022683,1109.1410017484316,537.4511484099643
1731304954.639223,672.3757712768805,1216.9357021147684,1081.0905725241055,544.0288345350527
1731304954.6417334,675.0987436142655,1059.9537383735649,957.1107280242021,550.6224170566506
1731304954.6431005,677.7973263613663,921.0923437710242,840.8766417440771,556.8897057818591
1731304954.6431456,680.4695146361921,902.5004660807076,805.8611757174901,562.8525451785223
1731304954.647068,683.1174555552782,982.9236305917009,848.0150384206862,568.6756524233526
1731304954.6509902,685.7433223338979,1050.317322934866,903.7595816990658,574.4823488769711
1731304954.6549127,688.3475780398938,1004.4230223603464,909.0404930737509,580.3012599458117
1731304954.6580243,690.9293767870938,837.8098738079859,847.5092829289594,586.10260510921
1731304954.6586933,693.4876043125573,630.8662317317267,752.0452572243643,591.8503189482985
1731304954.6588347,696.02143087985,474.77969986356146,666.5619174689477,597.5284061772775
1731304954.6627574,698.5301659730203,396.57924276414303,607.1612424927166,603.1397466350845
1731304954.6666796,701.0128974249833,351.76051033751,556.8188412008909,608.6937977097949
1731304954.6706018,703.4685851214456,284.2567800734386,493.3838798430496,614.1972118337452
1731304954.674286,705.8969091031274,192.38233890709273,420.64211753884655,619.6515931011389
1731304954.6745243,708.2993204482436,138.57064173690287,373.36673961695635,625.0557607569772
1731304954.676406,710.6788512388541,197.0157376471825,393.8573506643105,630.4085488941564
1731304954.676885,713.0373024558603,389.3476253895983,500.8825910792314,635.7100270925324
1731304954.6784463,715.3704902275747,662.9189182027877,673.295840763966,640.9611357100931
1731304954.682369,717.6659473507108,923.4990832536607,856.4572418536642,646.162737912824
1731304954.6862912,719.9096981605642,1090.600804337491,986.4842717261728,651.3151050177823
1731304954.6898787,722.1042836615018,1135.086286650433,1021.0209180161891,656.4183829130725
1731304954.6902137,724.286740646026,1081.146314636021,961.7655434947953,661.4738614324986
1731304954.694136,726.5203277867448,981.3030170866039,854.2293981177027,666.4849541811683
1731304954.6957452,728.8371979613613,884.8376553993778,760.9489886231704,671.4561730252848
1731304954.6980584,731.1502764933797,816.617320998355,723.9023496638544,676.3891363248325
1731304954.7019806,733.2215710953255,773.121803215642,743.3132839880059,681.277606380669
1731304954.7054718,734.80774805386,732.6871898507435,787.9352206211008,686.1074948896421
1731304954.7059028,736.0062157748115,671.704229616139,824.4549915691721,690.8683734272854
1731304954.7098253,737.5637190076586,578.9407950461213,839.0487985921942,695.5749754834716
1731304954.7110791,740.6464151799203,463.2566882761269,837.3015350532811,700.2806708619898
1731304954.7137475,745.6830154275381,351.5035726147734,831.2005783205,705.0526789331458
1731304954.7146056,750.7075837093645,274.79451255291985,828.4640951177645,709.8943015540619
1731304954.71767,750.8688477408411,248.38684606655443,830.26111821762,714.6569286108604
1731304954.7210646,741.1252993279417,260.8790960792349,834.2506715517595,719.0560989500021
1731304954.7215922,721.6915139399749,287.41295574716327,838.0574866585667,722.9060941838413
1731304954.725515,701.0800695785731,320.04565324570615,840.7796563407824,726.5212976582459
1731304954.7294369,691.0626296763535,384.18348855113607,842.7135444696322,730.9201507341053
1731304954.733359,696.3149521764503,515.267768995595,844.4860074234056,737.2674081165159
1731304954.733466,709.3532960712837,710.250488161626,846.4746297650519,745.3367665545206
1731304954.7366574,716.1670511381984,904.1444961278969,848.7141894167578,751.8729509617135
1731304954.7372816,706.3183260025248,1007.2837923444281,851.0706176271814,750.927794370453
1731304954.7412038,678.6896069410326,979.0599929006693,853.4212577481513,737.7677728303635
1731304954.7451262,640.9472991981937,868.8728081314533,855.7252057339404,714.5780170546301
1731304954.745752,606.0625110174287,777.5942265432103,858.0024551527762,692.6552658263604
1731304954.7490485,588.0243376609302,767.677744649358,860.2868743459721,687.2522624275537
1731304954.7522502,596.1320527745013,804.6062479482107,862.5973170357009,707.4626767082145
1731304954.7523265,628.4598839373135,789.7862257369886,864.9345800334366,748.172080194724
1731304954.7529707,669.0005364851297,661.8386084930925,867.2913760746376,790.2854699177154
1731304954.7568932,693.6125298096063,475.05078719973443,869.6616734216894,810.4550450145496
1731304954.7608156,684.0890657483706,375.9023294104345,872.0439242373658,795.1854488992226
1731304954.7647378,641.7069720915888,486.16240652311063,874.4396334116888,750.2296618511523
1731304954.767843,589.594155574786,789.012687800246,876.8507972506392,698.3878338657101
1731304954.7686603,560.6474955549755,1121.2942104915733,879.2784524488922,666.817136244878
1731304954.7711866,578.9529901781614,1288.078713230585,881.7226508609253,672.7985886972434
1731304954.7725823,647.7872141213843,1209.4174777535843,884.1831513344373,717.7546366362812
1731304954.7765048,751.5028768518766,978.5764198635733,886.6600554508517,791.98432691657
1731304954.7804248,867.0096105925364,784.7407689009317,889.1539433017522,883.338945820542
1731304954.7804272,973.683736155176,766.356267998759,891.6654040162749,980.4806568749569
1731304954.7834358,1054.6349517315714,915.413784530028,894.1942101177478,1068.3692561411044
1731304954.7843494,1093.049322520796,1103.7993517432355,896.7388361756427,1123.7536450608688
1731304954.788272,1073.5032659722274,1197.3501767319708,899.2972973552846,1120.9510999056217
1731304954.7900467,992.4208092972492,1154.921634054862,901.8697058680806,1048.6490165141477
1731304954.792194,869.2811245244212,1034.3989875535938,904.4610778117675,924.8523029393024
1731304954.7961166,744.3861191011849,916.2913083616093,907.0806756130329,793.6972188725796
1731304954.7990286,658.4144092821356,825.2878514722092,909.734286113559,700.945717309855
1731304954.8000388,626.623580521785,721.2785226508505,912.4113062501604,664.5147719784308
1731304954.8039613,629.052450201509,559.4618491387494,915.0785192121305,663.7984409646184
1731304954.8078835,626.977372525816,355.2102058745652,917.6984742811345,657.8395042282153
1731304954.8089073,593.7436178429721,190.34566152207503,920.2783835605852,618.5474858498677
1731304954.8118055,535.2639754866757,155.7411026994455,922.9189379173703,552.486337832871
1731304954.8146214,484.0119944748161,282.19620349905114,925.7919812201666,494.5290728926648
1731304954.8150976,472.36484082838,517.3185632763864,928.9851510394178,479.78541073471655
1731304954.8157282,507.341737434031,762.7061616573385,932.2629285747068,516.8005439834703
1731304954.8196504,566.4019239368533,936.8338705301014,934.9807884920258,582.4836968527648
1731304954.8235729,616.3984439606592,1015.3270568088808,936.4810064313101,641.191373070262
1731304954.827495,639.725010563768,1026.433330908094,937.0357252389771,671.8206273907118
1731304954.8277676,647.0066467364321,1017.2633158958729,938.6986099322366,681.8171026213682
1731304954.8302145,667.2704765956745,1022.9274414285145,944.7251711045517,698.6203306077953
1731304954.8314176,724.558009925412,1056.5385094468593,956.5653511110686,747.1271180013596
1731304954.8353398,819.8212360143353,1112.9198014174972,969.4899483408401,831.5152272312513
1731304954.8392622,931.1733888235588,1170.4255323370833,970.3850001647382,934.1172425569665
1731304954.8431845,1029.7364971176814,1189.8764595707776,941.5690509561682,1028.9773001926887
1731304954.8458073,1096.3235267670402,1125.606350434286,871.5086153050316,1096.7047372717195
1731304954.846628,1126.1674629694398,956.5514609942901,767.6590050952582,1129.3099756922725
1731304954.8471067,1121.9889599832186,718.320978145072,661.1701989419807,1125.5160257999028
1731304954.8497703,1086.4821351035623,501.5967831139794,594.6611404850752,1086.1044802109216
1731304954.8510292,1023.2389018000779,403.85834360772463,597.0743943674256,1016.1372182393582
1731304954.8549514,943.6091431377572,466.48438415458315,664.5136139848747,930.4314675485967
1731304954.8588738,869.4126344106915,650.8006762883285,764.8668885679947,853.0942777975876
1731304954.8614,825.8580173901997,874.4841697426472,862.6944810246757,807.8438485165084
1731304954.862796,829.4124267750357,1071.877137689686,940.152260250167,806.1021733767342
1731304954.8654883,879.8438845731006,1220.678836537527,994.429709196891,842.5108019338206
1731304954.8667183,960.9323701911818,1318.5108018327537,1019.4668837778931,900.3124358272967
1731304954.8706408,1047.60548228161,1350.136811289899,998.7386653833832,960.8720027955831
1731304954.8745632,1115.2402489563397,1293.5998239176288,923.223872249886,1010.66873170166
1731304954.8769927,1148.4521410215484,1162.2973263793033,816.9001164992258,1043.9586784470544
1731304954.8784854,1147.342915255393,1029.1082596827032,736.807807765043,1063.0387336267875
1731304954.8824077,1128.2067441783124,988.1933391835462,735.54371199585,1077.2620871309948
1731304954.8843484,1116.2485090034495,1074.6366577520737,813.1042004546279,1099.5102230502503
1731304954.8844433,1131.9582782950674,1216.0014407674346,903.6880833626198,1139.1797255038437
1731304954.88633,1178.3338662306805,1273.9622878386558,919.021851752732,1194.6427457507032
1731304954.8902524,1238.2202629741369,1155.2976092714102,819.7536428142181,1251.4969732271643
1731304954.8925855,1285.7995437337224,899.8951339310731,654.7867560875036,1290.6337817107942
1731304954.8941748,1305.4833187138584,660.7645037172153,528.6669817679847,1302.034329048365
1731304954.898097,1303.5248947430266,581.7073049646199,518.1807459236347,1293.125160758817
1731304954.9020195,1301.4076699497452,675.4221624670668,608.506970839185,1282.7713377186988
1731304954.9032087,1315.028524517079,814.2381702041592,707.5380845614858,1283.9987320352054
1731304954.9059415,1337.5457824977598,848.127265080579,728.7531485213806,1290.1639016687745
1731304954.9081783,1342.4634645949488,745.4284677604193,669.0735823741892,1278.3971225360094
1731304954.9098642,1305.9707292250282,625.5290873239056,610.4293758779163,1229.3215863520597
1731304954.9137864,1229.1264644910104,650.111593552489,643.1610519568018,1146.164457021753
1731304954.9177086,1139.4047917639712,871.099786064336,781.3205937561947,1055.3430530498379
1731304954.9191165,1069.7144360190316,1174.2966779940457,946.4727860780497,986.9943475843336
1731304954.921631,1033.7903058408604,1369.7450701019502,1032.978471318232,952.6402815638387
1731304954.9220693,1019.6410116227303,1347.401685598762,995.2501819994848,939.8969666735882
1731304954.9237711,1005.2697360362686,1161.8364963012848,881.6044370892107,928.0389358197722
1731304954.925553,980.5694611921997,976.7593424921678,789.3307582466134,908.9176226563104
1731304954.9294758,954.9999059407756,923.040484362809,783.0258389085383,893.3817248342158
1731304954.933398,944.9974647836099,994.1737567458595,845.7659817989642,897.430272887636
1731304954.9373205,953.8996158469024,1065.150780350667,901.3687371516531,921.4320775334529
1731304954.939364,963.7194284455022,1012.1238038537709,885.155777358128,942.5765581397644
1731304954.9409294,947.3651353754893,825.184334704635,801.0487480837019,929.3771486419928
1731304954.9412427,891.6574245183272,616.2680918766033,716.3196575701362,867.5031008814398
1731304954.9451652,811.3784448005018,518.0891685253083,699.7512205232101,775.2840823676358
1731304954.9490874,741.2233462306986,565.5572160820421,757.9836568616424,694.4508463067873
1731304954.9530096,710.6779845989544,664.9268560424013,826.263958286822,661.5076207685717
1731304954.953789,721.4416182589666,676.7833587785229,822.3047396543773,681.28777559663
1731304954.9549568,745.5166624638933,538.4483401257579,717.2240916736644,723.0779089045625
1731304954.956932,745.5219601555162,319.1623077696839,563.4829867825802,742.0527256198117
1731304954.9597898,701.1702240554775,163.40628812506475,457.23976949323793,709.4118158229835
1731304954.9608543,621.8438269354011,174.9976740799874,467.2041834491079,629.2152785976681
1731304954.9647768,537.3678649604609,340.66893029875536,587.109338325084,531.7265677231
1731304954.968699,476.34481505291444,550.7252595203383,745.893426896776,451.21823160630873
1731304954.9705496,449.4375280652886,688.4927133159715,861.5622718264499,405.9655597450089
1731304954.9726214,448.5265260019861,707.8794489676584,893.3397217654556,393.3287714709982
1731304954.9765437,458.91697292266406,641.3106713379021,855.6741592679414,399.49345110705025
1731304954.97865,472.58441763784185,548.7619251076635,793.4299356928142,413.1157143529637
1731304954.980466,492.0302055220276,465.40035883748396,745.9669999407824,431.84470744789195
1731304954.9843884,523.6930927188109,392.239972653624,727.5730816688379,458.850994090649
1731304954.9861424,568.8526384102347,323.414520139871,730.8722666951746,495.6013629345358
1731304954.9883106,621.4730192491551,268.98184827847876,741.4656334211899,539.6447846224862
1731304954.988462,675.2953499411342,245.03164248950793,749.5301664111986,589.9738417514525
1731304954.992233,732.7453444633536,245.01064165983604,752.7399279398755,653.24651927824
1731304954.9961553,805.0416176040812,230.92053647423063,753.2299409537583,741.2711786839566
1731304954.9975104,900.4572797345622,163.08737462396505,753.6486859598136,858.0375203107048
1731304955.0000775,1010.0664090794662,43.10069961768522,755.1876304765226,986.7505228406856
1731304955.0017352,1105.486172746409,-75.42076983347022,757.6599698093983,1091.2487303600192
1731304955.004,1154.3066962988942,-124.41634674610361,760.4006383008538,1135.6052037752736
1731304955.0079224,1142.7151638399828,-73.53645268713001,762.9536085317865,1108.7359371633113
1731304955.0118446,1086.7018264083222,53.29543373391698,765.2372237085544,1033.9246556632804
1731304955.015767,1022.117709031924,209.5668970533328,767.3815164623948,954.5892122152927
1731304955.0163708,981.8142535288526,367.5764371072393,769.52607268842,907.4522434784221
1731304955.017328,977.9566170618375,523.7427212619702,771.7272003904848,903.7550874154458
1731304955.019689,1001.0087226615344,667.1582219327461,773.97007214664,930.2291011056059
1731304955.0231347,1031.982451561331,756.4021238985522,776.2183967940352,964.3926078738763
1731304955.0236115,1055.564907958204,742.3261861512733,778.4491843228452,989.4715443588942
1731304955.027534,1064.6764243362404,620.2844559223354,780.6593808320331,998.7765508847951
1731304955.0314562,1056.628428070099,454.2415653466429,782.8562666877334,990.7140894659797
1731304955.0329208,1028.2049232756704,335.97116813526924,785.0468752020201,963.0680539121444
1731304955.035231,976.3162704830196,308.1903555313935,787.2336018320873,913.5214184686404
1731304955.0353787,903.8508939184916,324.362373280583,789.4152177103311,845.4522178409463
1731304955.039301,823.9495527636037,291.8188549951508,791.5895727789185,771.7616619818513
1731304955.0432234,756.8640793873902,167.93063458964582,793.7553361156166,711.2029417013844
1731304955.0471456,721.1265848113296,21.615581090020896,795.9122349541448,679.631260456064
1731304955.0485137,726.4001331816642,-7.022137275135833,798.0604990009057,683.8113387409392
1731304955.051068,772.3856339788762,173.336558493599,800.2003103554974,721.684697974322
1731304955.0540917,850.6283196802108,509.2666570021088,802.3315995975609,785.1620309281461
1731304955.0549903,944.2847158869467,826.2284630981977,804.4541181737318,860.0476994573153
1731304955.0578077,1027.5171907800475,964.7457094898589,806.5675843307823,924.8345762819702
1731304955.0589125,1071.6713370994144,913.7896965994005,808.6717692246618,955.7986043971422
1731304955.062835,1060.2169662075958,818.2290807029935,810.7665029485271,940.4929242180317
1731304955.0641065,1002.5810325416967,847.3215520029316,812.8516418489708,889.8694872929528
1731304955.0667572,932.8079089983653,1040.8652559870561,814.9270398963786,835.5609918902655
1731304955.0706797,889.9792978622054,1274.099330746947,816.9925413581252,810.4448466651022
1731304955.0729518,893.9557806792697,1373.8629104943052,819.0479896478868,826.9146700249379
1731304955.074602,935.2778199229518,1277.7087278342783,821.0932382257198,870.9225230979335
1731304955.0785244,986.1736874938916,1088.2604551543254,823.1281510074898,916.1563657964429
1731304955.0796993,1022.0459366522393,974.0500581480638,825.1525879533046,945.0900617267337
1731304955.0824466,1035.8432184767314,1011.1030238399076,827.1663850172152,959.0444358455967
1731304955.086369,1036.316606439645,1113.0181181410649,829.1693520532411,971.0222101293957
1731304955.0902913,1035.7896829795868,1113.9326735318639,831.161313654303,990.6786797265961
1731304955.091812,1040.3649184164137,928.1305768977574,833.1421881176751,1016.0684382327607
1731304955.0924804,1050.291448750659,641.1624223519498,835.1120391684574,1038.4980837833514
1731304955.0942135,1066.795208442343,450.20238170764696,837.0709891779602,1053.8252134690074
1731304955.095292,1095.2479785770552,506.0807459732823,839.018936816176,1067.8469746564183
1731304955.098136,1139.227109540519,794.2588627910695,840.9552305234907,1089.772706156546
1731304955.1020582,1190.9865143085208,1153.2989754336497,842.8787139169333,1119.9635897408762
1731304955.1059806,1229.5572352484867,1405.849392056745,844.7885703790929,1144.4328334989239
1731304955.1099029,1231.4738617770054,1483.1857948023912,846.6857990669066,1142.7228733966645
1731304955.1106725,1186.8528864854354,1443.1974952267835,848.5740142245937,1103.3168412569528
1731304955.110885,1107.6970960210112,1387.0287539023584,850.4575082064244,1033.7224139910381
1731304955.113825,1021.488308441312,1365.375023482435,852.3357642490612,956.9411790165027
1731304955.1177475,954.8929831982198,1355.5610905399549,854.1976862554505,897.1375716961844
1731304955.12167,919.230997703259,1309.9936165172644,856.0235583334077,865.1769622399112
1731304955.1255922,906.9451827996115,1212.8025113720882,857.8021392354786,854.0486317569978
1731304955.1264777,900.1655483475145,1089.8529906136596,859.5581182706395,846.7442261869198
1731304955.1271534,884.6666860534517,974.9117736273512,861.3637639365343,830.3530103720931
1731304955.1295145,859.3958728840012,877.2944926580728,863.2968591994533,805.5988216943775
1731304955.1295326,834.9500502763444,785.8520908607904,865.334808604212,784.2596106539205
1731304955.133437,822.4732851250182,699.5951775460294,867.254147344222,776.5849625358436
1731304955.1373591,822.1575508545809,646.1238132668994,868.688591961985,779.7561946873402
1731304955.1412816,821.101572704317,664.3957617885659,869.4712194061691,778.0365492045112
1731304955.1420703,802.0875371000128,769.0827637889182,870.1392222799235,754.5410296559447
1731304955.1452038,755.1428882387698,933.9545049656313,872.0799602489435,703.5111910475555
1731304955.148393,682.2795488082127,1109.605771276173,876.6203665175495,632.1541422335923
1731304955.1491263,593.6326401570957,1253.8016602489015,882.9516266767536,552.2772993570426
1731304955.1530485,501.27244959060295,1344.3379935693242,886.268267056861,471.8132224780279
1731304955.156971,416.80119311586174,1371.0905854339103,878.82611818046,394.6131788917759
1731304955.157663,352.19290613434845,1329.065955759033,855.3759743576215,326.61833884573014
1731304955.1608932,318.84563808499774,1226.349916972633,819.4277765829974,279.4140738410123
1731304955.161826,322.4721623729365,1093.637332308264,783.1224197469724,265.3264414189381
1731304955.1648154,357.6563182615596,974.6693239352426,758.826983327099,287.60906458064676
1731304955.1672533,408.39121456104556,900.660300805806,750.4997359725967,335.18805712101477
1731304955.168738,456.56280428720305,873.6869397380019,753.1724188587627,388.1537986390312
1731304955.17266,492.92876457129125,873.8283791116409,759.0921538013775,430.66188058436455
1731304955.1732564,521.7373589831245,878.8033943328028,763.300043734539,460.79791864239695
1731304955.1765826,554.6919937232403,877.0748955091941,764.8591882330688,489.0947887725834
1731304955.1805048,599.1752536715929,868.2293729555357,765.0566689397309,527.3332119627178
1731304955.1844273,651.0365631144631,856.664239501428,765.3019661684633,577.8567141777119
1731304955.1861136,698.1559354052129,846.0227528002714,766.1669541082374,632.4972769745798
1731304955.1883495,730.9812569731183,837.3233718763377,767.5030630063133,680.5603297330232
1731304955.1888492,750.1123229195265,829.8120583296767,768.9438863971649,717.1455288316629
1731304955.192272,764.5940510355208,822.441416200121,770.2580058932546,744.4139016427523
1731304955.1961942,783.6019884520275,814.6914718952438,771.416521185095,766.658667958612
1731304955.196499,809.3419299569448,806.5934636998404,772.4956097195385,785.5596033374836
1731304955.2001164,836.0582829940417,798.3958237562471,773.5690136741484,799.5322519229567
1731304955.2040389,853.66820926802,790.284947737504,774.6633591549747,805.2193200104717
1731304955.204442,851.8683565236372,782.3039446481697,775.7683947207587,797.7480214216938
1731304955.204974,823.0587628681036,774.4072375485056,776.8644362982775,770.4482537333657
1731304955.207961,765.2409059848809,766.5394381212458,777.940059314768,717.7259196334032
1731304955.2118835,685.0533396479273,758.6753760960668,778.9945456485758,641.6003514672965
1731304955.2158058,598.2671514363592,750.8184266192512,780.032250752267,556.462713899953
1731304955.2197282,525.2506354521813,742.9819569598337,781.0570174392559,485.73219938044997
1731304955.2200348,482.9483883258535,735.1750933931628,782.0700957927503,450.58777281910756
1731304955.2236505,478.3773367828297,727.3992101711154,783.0708617299285,458.4962895511742
1731304955.2238345,507.59462120556486,719.6512079418577,784.0582846632698,500.09330808646126
1731304955.227573,559.6793198700009,711.9277038565091,785.031809856286,556.2573824013781
1731304955.2311718,621.7769936544779,704.2271047421817,785.9914674980578,609.2088672113711
1731304955.2314951,681.4622435753204,696.5495829941477,786.9376140874784,649.0101785084761
1731304955.2354174,726.0105706791702,688.8961147561308,787.8706700063406,671.6933466256643
1731304955.2356277,741.8457287054771,681.2673693419488,788.7909292929711,673.1797738451569
1731304955.2393398,718.1581568178482,673.6626994498273,789.6983676702329,647.2351629576581
1731304955.2426946,654.8295942365651,666.0796218228293,790.5924955167542,591.6232337930533
1731304955.243262,568.7583449950788,658.5147208145104,791.4725357791682,517.2540882563142
1731304955.2471845,490.4991311573113,650.9666896572589,792.3382035053588,449.4205168115882
1731304955.2511067,449.0788673922826,643.4402414300563,793.1908329684949,415.2394412504089
1731304955.2512205,453.517274293243,635.9465536628586,794.0336954736372,424.23488910140554
1731304955.2550292,485.21010676264797,628.4950237301456,794.8699539297044,457.8656441394054
1731304955.2589514,509.09511881300455,621.0767277551885,795.6980691735114,479.1630538208221
1731304955.261555,497.36789942232593,613.6525616867292,796.5079445501269,458.12841835433824
1731304955.262874,449.298411958817,606.1694952974669,797.2843942639578,395.1172368624292
1731304955.2658448,393.03256380129983,598.6186179230317,798.0226157171473,324.5296895385235
1731304955.266796,367.9674432405771,591.1060637194308,798.7491051716872,294.80871615060306
1731304955.2668133,399.52682148614883,583.8508468422644,799.524844355749,337.6802104165321
1731304955.2707183,483.0812735911064,577.0159165708258,800.4026401953715,447.6211662278234
1731304955.2746408,587.7001519422216,570.3971479891047,801.339917990851,585.8944798874602
1731304955.278563,677.0814220641904,563.2350446079336,802.1349670969672,706.1581862302501
1731304955.2804153,732.7437859786656,554.5891067715386,802.5114138875002,782.8280596949867
1731304955.282406,762.6324924040323,544.4876466827973,802.4277830209825,821.687725011367
1731304955.2824855,789.5843318568944,535.242842056442,802.4700484857962,846.9323313709693
1731304955.2864077,830.2818253074388,531.3388657384244,803.895289018132,877.7977696955804
1731304955.2903302,882.4628241658528,536.4714884057607,807.8883762429735,914.7135965148915
1731304955.2942524,929.8378580924735,549.2134526276591,814.3396713016663,944.3288602739441
1731304955.297999,958.2944319771234,563.190170493357,821.6563504775173,955.6058734103453
1731304955.2981749,968.0354997345123,576.1149368385836,828.7208745183065,951.0731887656398
1731304955.2992756,971.421120635349,599.4760499829949,836.889099346607,943.8758918933892
1731304955.3005176,979.4831910340511,651.1582308886232,848.050538291821,944.5896833522479
1731304955.302097,989.4135321136226,728.1877552327155,859.3565136425998,949.8774812201113
1731304955.3060193,983.866105773595,787.0010122322625,861.8775939181478,942.6066202992995
1731304955.3099418,943.1220111532573,764.4844282141148,848.5876056021028,903.6340178597363
1731304955.3135917,861.0900659329972,635.2916509531594,825.7157577383958,826.6568531788314
1731304955.313864,753.0251059169005,453.99586620904324,813.652806592475,725.2021396075269
1731304955.3177865,648.8037646050541,330.11394270856124,831.0902837433771,626.3938984031961
1731304955.318136,576.2577604945353,342.6563810836837,873.8581375553113,555.7801081720413
1731304955.321709,546.3458289422479,465.7209974228998,909.4985517972791,523.9949797532727
1731304955.3256311,550.1326859874797,579.0617743067374,897.7314286421235,524.0927217202845
1731304955.3291843,568.4159360531029,565.7635599271521,823.6008237501201,539.8894252963964
1731304955.3295534,586.1524749278095,416.3590890126311,715.6177063055826,558.1512358313072
1731304955.3334758,601.9153654435063,244.95616752643008,630.4822618417803,576.5154456844623
1731304955.3351903,627.1905188055415,196.95951875696085,613.2478980584193,603.3217104985208
1731304955.3369963,676.8531765820297,325.77467290193925,664.3576019450376,650.4424977293795
1731304955.337398,757.0445320109859,547.5913503838422,741.7401319952419,723.503098382708
1731304955.3413205,858.3809975582932,716.2028491736818,797.0849279001477,815.5832318581363
1731304955.344777,959.7390885373118,751.2459348173873,814.738871514302,909.3731049102133
1731304955.3452427,1040.7697588760288,702.4368204076708,818.259242853386,987.3067379384233
1731304955.349165,1093.9641887407033,690.006229610756,839.2260430611211,1042.187181624917
1731304955.3530874,1126.2516844893396,777.8934965728209,879.1199195031083,1079.0313452958312
1731304955.3558564,1148.2583510866239,902.1669058786234,902.7475425825762,1105.8250844512786
1731304955.3570096,1160.5215121438016,927.197669304013,871.9317078415135,1121.37036552014
1731304955.3603702,1150.0230663818365,780.7755441986517,788.577131965066,1112.449003376406
1731304955.360932,1102.4089328539098,540.7063412124344,704.5617111938117,1065.2117209301668
1731304955.3648543,1020.8621752703575,385.160135616524,684.2074966144258,982.5661141853267
1731304955.3687768,934.3805170941138,443.14562448700457,748.6535422414404,892.0141091488572
1731304955.3698633,884.9585361639903,676.7917013122617,851.0646713943989,834.4060752729041
1731304955.372699,900.8157374126255,904.3537364396938,908.1924601386255,839.573596846664
1731304955.3747168,976.2941355749668,949.5283856461144,865.9009836425827,906.868771157439
1731304955.375963,1075.4135375623487,789.0469478834937,744.971490833502,1006.1940998659006
1731304955.3766212,1157.079311586518,569.7830845373543,627.256110277394,1099.0992944680847
1731304955.3805437,1201.6859986764262,480.99026573098206,591.6292958393816,1163.0531061374584
1731304955.384466,1217.8756538112748,595.2328453406437,652.8002054451271,1199.6141515648335
1731304955.3883884,1226.0365894917577,817.3850820065569,754.4247746362455,1221.83385771019
1731304955.3915558,1235.7161736556334,980.3248335144729,820.167092018655,1235.0795690263215
1731304955.3923106,1238.18513735725,992.3823440606109,815.4660873344625,1230.7556976950764
1731304955.393577,1219.3679093578282,901.0384277360837,766.8334010270878,1198.6263121303778
1731304955.396233,1178.3435151814683,824.4716183984827,728.5590590072176,1144.0329703955106
1731304955.4001553,1132.0811249330034,827.8252397270446,734.1533260742821,1090.7122926923914
1731304955.4040778,1101.4436309773969,864.5225012742583,776.2327542760344,1063.8733891538573
1731304955.4045362,1091.9637203443624,832.014468406345,824.0597939235873,1068.0332460016891
1731304955.4071486,1087.959554038318,681.9641525860752,853.1359745627701,1080.6036443674334
1731304955.408,1066.2519921880478,478.7195166981138,859.2517117097568,1069.0222558564715
1731304955.4119222,1017.816879309881,351.603932147501,852.4558415636781,1018.1783993549658
1731304955.4124374,958.135452312396,383.6790510358332,844.2470609233492,944.841697201542
1731304955.415845,916.3832028311385,536.4447859782922,840.1625114507686,885.9940701132518
1731304955.419767,911.9830216075161,678.7707954917217,839.9122874725202,870.0596851338148
1731304955.4227414,938.4638810877334,696.5086524657816,840.9465721197577,894.9101874144881
1731304955.4236894,968.4828961042588,587.4724555777709,841.3581634368899,930.732519311153
1731304955.4276116,975.2738518550378,460.28795722585875,840.7146176108058,944.2257296037103
1731304955.4312978,951.6644548032858,442.5302877477147,839.4899281014033,922.7215786980352
1731304955.431534,911.1269009833403,581.2778776863174,838.252407824283,878.690874071439
1731304955.4354565,872.1069972640275,816.5920860889805,837.2562105101474,833.6846255729413
1731304955.4383342,840.761350346198,1036.5272766235023,836.4618986763038,797.9350803979268
1731304955.439209,806.5015219049355,1156.2228808813486,835.7286792482874,763.0032330197179
1731304955.4393787,752.5303875644464,1159.7070867747316,834.9603450109084,711.7409160633318
1731304955.443301,671.8628801892403,1088.1213022680072,834.1401397801704,635.6811120414591
1731304955.4472232,576.6432892354051,999.9307761083812,833.2960989515551,545.7310225912111
1731304955.450158,494.54198615695765,936.5052939070056,832.4581641119499,468.59492832904
1731304955.4511456,454.8772786439887,909.6907013173038,831.6385584013303,432.0045682211998
1731304955.453927,473.18500791746214,909.2453430947166,830.8344220397522,448.99581483499736
1731304955.455068,543.3879783465925,918.3562951870938,830.0383689995831,511.2548712677801
1731304955.4589903,641.7530844507394,925.4802183039985,829.2458521604101,594.9158258767304
1731304955.4629126,739.4600728159623,927.4651299392443,828.4565546161766,673.8536721457734
1731304955.466835,815.5446681777529,926.3535762399908,827.6723438753402,731.3287644142872
1731304955.4690185,862.8045089027086,925.02030739215,826.8950269236634,763.6543224376021
1731304955.46952,885.0787428454356,924.8609400592143,826.1254223373456,776.3758694673592
1731304955.4707572,890.0608082017111,925.7498926699125,825.3635782084878,777.9373821412386
1731304955.473882,883.1934886306728,926.9816292520702,824.6093463438609,774.9287109738614
1731304955.4746797,865.6803206287103,928.0404640944782,823.8627507665503,769.8311927185019
1731304955.478602,836.4783923182442,928.8137382761048,823.1240375015136,760.9375051986008
1731304955.4825242,796.1251630415098,929.431913402361,822.3935562140415,744.6017243099581
1731304955.485113,749.4191085714508,930.048014951661,821.6716434863266,719.2309889092953
1731304955.4864466,704.8024370822791,930.7287515033236,820.9585796898095,688.4438116791698
1731304955.4878788,671.1379153292078,931.4616463955583,820.2546044006367,660.8054382487588
1731304955.4903688,655.1925520046926,932.2075711401457,819.5599473108945,646.5371944841598
1731304955.4942913,662.1738544130725,932.9399642916786,818.8748464515706,654.1635341318186
1731304955.4982135,697.5243826088432,933.6538167300888,818.1995495416868,689.0349023212791
1731304955.5007057,765.8255884792154,934.356043993222,817.5343072105455,752.7046989229192
1731304955.502136,865.5932008516183,935.0538786164891,816.8793669380943,841.3555770230665
1731304955.5060582,983.9786102885763,935.7496806364234,816.234971077725,943.7011384945029
1731304955.5067391,1096.8457611014492,936.4417690725236,815.6013578639672,1040.8386181619367
1731304955.5085547,1175.840419699889,937.1273206603469,814.9787630589824,1109.959985088077
1731304955.509981,1199.2951964815777,937.8042978445565,814.3674207992756,1131.6969446678802
1731304955.513903,1162.0369441824541,938.4716676362827,813.7675634905219,1098.8863962060166
1731304955.5162983,1079.6399576950978,939.1286977268776,813.1794212922723,1022.6598008293279
1731304955.5178251,983.7655716928318,939.774402680895,812.6032217855144,930.7053830249898
1731304955.5217476,908.4757039582905,940.4077205792399,812.0391901320702,855.4729578153226
1731304955.5255997,873.7819099729071,941.0282439760837,811.4875496275121,817.7255265153776
1731304955.5256698,877.1935570600568,941.6366452639254,810.9485221128314,816.8262396294019
1731304955.5295925,899.7328424956285,942.2337261189954,810.4223274663767,835.4673593862649
1731304955.531891,921.3128332640596,942.8178394537094,809.9091817992644,854.5683864522697
1731304955.5335145,932.6908963382904,943.3824475144647,809.4092953308814,865.4692171989465
1731304955.537437,935.7094845290736,943.9176053048595,808.922872616366,870.3604034495414
1731304955.5413592,935.1716895777683,944.4183926683017,808.4501178860211,873.7193908522956
1731304955.5432277,932.0501893223106,944.8972083417243,807.9912444863849,874.8849510098983
1731304955.5444598,923.5368604800676,945.3871521063573,807.5464801273889,868.4537215845164
1731304955.5452816,907.1354023100234,945.9197572483599,807.116054747913,850.1943688201515
1731304955.547484,882.6348606547544,946.4754313115255,806.700165592097,821.070447667478
1731304955.549204,849.5526909431294,946.9424593183389,806.2989400436755,784.8201328540234
1731304955.5531263,803.6455712014281,947.1555392064793,805.9124472796345,741.8630877995965
1731304955.5570486,738.3350788790078,947.0633656988219,805.5408065704949,687.1018006988288
1731304955.5609708,652.9674420968611,946.9529351450026,805.1843630061247,616.5235574839202
1731304955.5630767,562.4013470023806,947.4800573781285,804.8437646494663,538.6514488271744
1731304955.5633202,497.9482939672924,949.2056141856581,804.5196982146468,479.5370475643364
1731304955.5648932,493.8986628304684,951.6590318884914,804.2122145483041,472.48292463652973
1731304955.5688157,565.644861919361,952.6723679027939,803.9200803331787,536.3058394726244
1731304955.572738,695.1366090000175,949.3401456501535,803.6411332394013,658.125213936466
1731304955.5766602,836.5506139775592,941.4527505906508,803.3744553673486,795.7789881090038
1731304955.5779004,939.9011349142073,935.9596670258699,803.1236175065715,899.9018359298002
1731304955.5786695,976.0807815771975,948.1591647019087,802.8976985454657,939.8173648440679
1731304955.5805826,946.8179805296836,995.464522135563,802.7056468002402,915.4306689241234
1731304955.5821805,876.3899804674879,1084.9456105220631,802.5433479982931,850.0084217861635
1731304955.5845048,795.1749661422099,1201.9341249943188,802.3825242135836,773.1523536733743
1731304955.5884273,727.2668324068414,1307.1875888227369,802.1800300270667,707.2643833218175
1731304955.5923495,686.7790881367484,1346.194321939121,801.9210894447383,663.9019760091654
1731304955.5942624,679.2756496923687,1271.5773760202792,801.6786429149976,647.0316885369692
1731304955.5962718,702.7329896644388,1074.2343469885932,801.6238995139082,656.1933118583388
1731304955.6001942,746.4203559403888,806.0321308117915,801.9080168451194,685.7849350663892
1731304955.6010406,791.217954370111,569.1583790193296,802.4159260865575,723.0579908248299
1731304955.6041164,815.8493455148487,464.3279101850797,802.5804682273573,750.6112961616102
1731304955.608039,808.5018782435725,527.4053285609231,801.6067491290015,755.4816390467644
1731304955.6098552,776.3990151132757,705.8893098517382,799.3238590679105,739.2783639579492
1731304955.6119611,744.3967172832747,901.4914099753165,797.2553305173614,720.1034808530978
1731304955.6125734,740.8964140982517,1046.6016891076542,798.6340508966931,722.2514592149334
1731304955.6158836,779.8321574908134,1146.2897438878385,805.914110079049,759.9193502506934
1731304955.6198058,851.6015833736064,1246.1680915470006,815.9973605098951,826.9251379166318
1731304955.6199007,929.5375497362014,1359.0581388173691,816.8397863115338,900.3584596659396
1731304955.6237285,986.9807729704245,1428.88130396538,791.4553100847717,955.4826036306081
1731304955.625448,1012.2773826400905,1377.7116072102408,731.5383275247805,980.4630470645848
1731304955.6276505,1011.4057438467116,1197.017424870759,651.9606154632138,980.1117895316747
1731304955.6315727,998.8704316997544,989.6718985093968,589.7613648131388,967.9640907721196
1731304955.6354952,986.5776536565563,905.53071010645,581.2722461319871,955.6089172436887
1731304955.6387613,978.9844997082722,1013.8677417956361,634.0632110533637,947.6528561091128
1731304955.6394174,974.9210315231901,1226.3286419121762,720.1099977069066,943.1788621550511
1731304955.6410408,971.6464541478965,1351.175301726422,797.4807101956841,939.5842364980409
1731304955.64334,967.4950979895619,1245.7313519841252,839.7397647010025,935.2053933974198
1731304955.647246,962.3162752770908,940.593019342208,847.4655604824961,929.8338560666937
1731304955.647262,956.7083811813566,624.5726250635465,837.706766387963,924.0205837486003
1731304955.6511846,951.2189228823963,496.3378375766946,826.9855627349176,918.299745634421
1731304955.6551068,946.0315819829954,606.7088624698873,822.4510504934564,912.8646933907838
1731304955.6566336,941.058744073084,827.0147900605425,823.1391295479028,907.6413509967967
1731304955.6576216,936.1506857858714,968.5638795646646,825.3252305755149,902.4867590960855
1731304955.6590292,931.2242601484168,943.9614611524283,826.465949966093,897.3174190808319
1731304955.6629517,926.2765941142568,826.6595539852898,826.1279456646043,892.1272901583702
1731304955.6668737,921.340809621035,762.6291652524138,825.0598946837242,886.9471180923738
1731304955.6707962,916.4444940956242,824.4065153190112,824.0521501480267,881.8039617813454
1731304955.6722264,911.5953024579346,944.5242128524382,823.4196149337531,876.7060947053195
1731304955.6747184,906.787217514226,983.3003530518243,823.0762382040077,871.6482474412612
1731304955.676482,902.011778305375,859.5445680782556,822.817463266549,866.6223177323747
1731304955.6786408,897.2644281816816,621.5600562592186,822.5156421147128,861.6237388336622
1731304955.6819189,892.5447990161358,399.2145507456622,822.1559613039935,856.652002764588
1731304955.6825633,887.8542116888838,287.8060232390519,821.78137510063,851.7083444589003
1731304955.6864855,883.1935418718591,269.7239089563731,821.4328375086254,846.7936526553975
1731304955.6878195,878.5625760637115,238.17033913341697,821.1248592375401,841.9077833913686
1731304955.6904078,873.9604101483218,94.10640234952336,820.851521112835,837.0499050773288
1731304955.6943302,869.3860472163008,-171.4895495335901,820.6018210082677,832.219071597111
1731304955.6953423,864.8387090351333,-475.5904490542623,820.369443229531,827.4145365892734
1731304955.6982524,860.3178325317392,-712.0033370181854,820.1540262314809,822.6357621732312
1731304955.702175,855.8229348689433,-826.0622764703132,819.957983924732,817.8822920922729
1731304955.7034123,851.3535036862459,-837.6348816108132,819.783401878839,813.1536435823258
1731304955.7060971,846.9089579167022,-807.6203714796652,819.6309049926464,808.4492681120616
1731304955.7100194,842.4886534079079,-787.5701522066156,819.5000799899946,803.7685591985176
1731304955.7139418,838.0919063856695,-793.719721156521,819.3903021562134,799.1108783529156
1731304955.7142026,833.7180374873053,-815.212492855097,819.3012191868775,794.4755945544337
1731304955.7165918,829.3664442038223,-836.726151871097,819.2327852652295,789.8621398378735
1731304955.717864,825.0366646683216,-852.1899605663682,819.1850804615507,785.2700518278218
1731304955.719005,820.7283343793513,-863.4665407161574,819.1581506437598,780.6989307076477
1731304955.7217865,816.4409486288507,-873.4219581539885,819.1519561759545,776.1482523443348
1731304955.7257087,812.1735095822128,-883.0102004535661,819.1663993769455,771.6171100035058
1731304955.7296312,807.9244148998938,-892.7344555123245,819.2013686230714,767.1041621144235
1731304955.733063,803.692071782034,-903.6410692110894,819.256761999388,762.6081366663992
1731304955.7335534,799.4763090580534,-916.0920489476894,819.3324873361435,758.1289001971611
1731304955.734598,795.2795952715383,-928.9910045336483,819.428452028992,753.6682883735201
1731304955.7374756,791.1060354215296,-941.3261955339385,819.544554788167,749.2291752592387
1731304955.741398,786.9566581513183,-953.8188472185318,819.6806833344461,744.8117978929043
1731304955.7453203,782.8229235723485,-967.5382055043349,819.8367160559371,740.4090382295448
1731304955.7492428,778.6855292986842,-980.5099913874872,820.012524300041,736.0061382672529
1731304955.7501907,774.5272791050199,-987.5509615535184,820.2079734771188,731.5911437304375
1731304955.7512646,770.3599620285581,-986.5651838687584,820.4229229374392,727.175126589761
1731304955.751923,766.2447529701242,-986.3746656453093,820.6572253742885,722.8057609450068
1731304955.753165,762.2678824150854,-1004.7757530491065,820.9107263758391,718.5456986235056
1731304955.7570877,758.4475991421716,-1050.0495778761363,821.1832643033698,714.400479793906
1731304955.7610097,754.6165063276942,-1094.8110578435444,821.4746703711911,710.233812946
1731304955.7649322,750.4175722162755,-1065.462497449811,821.7847687516129,705.7765700909523
1731304955.7657835,745.5701669903198,-867.4539914690158,822.1133766163921,700.8405640054194
1731304955.7688544,740.3768471427788,-441.8393650689586,822.4603041194589,695.6974573147198
1731304955.7707837,736.0512557245585,181.4835330132397,822.8253543630227,691.2893952658725
1731304955.7727766,734.1461540647784,876.7599253083257,823.208323378912,688.7368855733095
1731304955.7766993,734.6977420379138,1476.8556072978013,823.6090001323948,687.9115340406973
1731304955.7806213,734.0145105492443,1858.1306790798817,824.0271665400636,685.8600801409953
1731304955.7813764,724.6489692294424,1998.5893171984692,824.4625974916303,677.026214079998
1731304955.7845438,699.8600642354677,1971.6366417706997,824.9150608719258,656.8796095427815
1731304955.7859375,660.9529701774513,1886.8589276081534,825.3843175868028,627.4491282771653
1731304955.788466,620.9522321087038,1825.0884459451918,825.8701215999143,599.6294598491762
1731304955.789644,598.8734492410315,1809.776436182335,826.3722199836255,588.1100204072756
1731304955.7923884,607.0091067007719,1821.6417415634976,826.8903529767056,601.2083685937087
1731304955.796311,641.2591075332613,1832.4016099110927,827.4242540303171,633.5938549674063
1731304955.7969692,683.435351595584,1828.611700105118,827.9736498259912,668.8872228414513
1731304955.8002331,714.9629435977363,1813.9857732653572,828.5382602778662,691.6470401391252
1731304955.804155,731.2271948239571,1798.1320047304253,829.1177985795943,699.817101321815
1731304955.8080776,744.1172460607172,1786.2026005290102,829.7119713802075,706.6933034245434
1731304955.8085043,770.1413142554214,1777.173958355633,830.3204791064167,729.5461043115617
1731304955.812,815.0474608887885,1768.3026008774082,830.9430162682693,774.5223717656878
1731304955.812562,869.8330077972175,1758.9863245487518,831.579271402458,832.0790744725846
1731304955.8159225,921.9128851293718,1750.4335308657594,832.2289263854188,887.5074148072448
1731304955.8198447,969.2165846706724,1743.101523797698,832.891655419068,935.5294823482197
1731304955.8206103,1021.0285346123239,1735.8098374052402,833.5671248796795,982.9094646232307
1731304955.8237667,1083.0228056205783,1727.4822179435605,834.2549955551467,1035.2462458520752
1731304955.8273647,1141.8438276215516,1718.8081235788202,834.9549273576057,1081.8323584409895
1731304955.8276894,1167.536406491579,1711.372210001732,835.6665831260176,1096.6851542445247
1731304955.8281548,1135.4852100679047,1705.4061515191052,836.389624976254,1058.606658924683
1731304955.8316116,1049.1061674419886,1699.2782457973938,837.1236988221794,972.8593893625984
1731304955.835534,941.215513797415,1691.473125611256,837.8684140927039,872.647664332228
1731304955.8394563,850.5583130828594,1682.4612135327716,838.6233419837798,796.0407160256806
1731304955.8433783,793.4735557633205,1674.1233970054082,839.3880596119158,757.4341087616908
1731304955.8437476,756.290498986163,1667.6695883069997,840.162237023767,739.3346099590482
1731304955.8462248,715.3346122417537,1662.6225779894671,840.94569768915,712.6026932267521
1731304955.847301,665.3531844832332,1657.595244744663,841.7383296391008,666.9059842454863
1731304955.8512232,628.6462473108788,1651.423794853803,842.5397785903305,622.8110867341643
1731304955.8551457,635.1539637647621,1643.6259722466566,843.349080257264,613.40271595008
1731304955.8552833,691.7851253680785,1634.658909968071,844.1646860014132,652.113150793608
1731304955.859068,770.5305506744023,1626.2693154252945,844.9853666346219,717.3092229425824
1731304955.8593404,828.0709738500012,1620.9440844760727,845.8118457657358,769.074791767303
1731304955.8629904,840.328144499563,1619.8728653593905,846.647756424812,783.3536160574579
1731304955.8650851,821.2934879905271,1621.129897073437,847.4976329993912,772.048203728927
1731304955.8669126,809.4540706247626,1620.7775050352416,848.3609252110441,770.5701017115248
1731304955.8708353,833.8900781048372,1617.0308369069553,849.225459458329,804.3059147525133
1731304955.8747573,889.3896756371656,1613.5661482334147,850.0691200074668,864.3777171429892
1731304955.8749332,940.9562526900543,1617.1285806723567,850.8782102895593,913.9380628756691
1731304955.8786795,952.2536248315819,1629.2184052537348,851.6779293459665,918.5422460860743
1731304955.882602,913.3828503522565,1638.759680251826,852.5467302832302,873.7605264343088
1731304955.8839457,846.4421473772271,1625.0634886198504,853.5723031920428,807.4891026708192
1731304955.8865242,787.3345752349406,1573.0732633079017,854.7357203841963,757.2387582286033
1731304955.889956,760.6012819909555,1490.171255699419,855.7968271263293,742.6256278035266
1731304955.890447,766.4561993538352,1408.4678975476995,856.3490158573348,754.4610655156978
1731304955.890526,786.6765058638616,1367.0050235791807,856.1880788970988,766.2116588901208
1731304955.894369,800.9974572897443,1386.7335967159272,855.8744280754595,756.0680698663903
1731304955.898291,800.0563202913454,1458.4558900610677,856.924359262016,722.0251133111597
1731304955.9022136,786.9568060713982,1551.2875550575593,860.8493613559324,680.4391842123362
1731304955.9028058,769.9211267434066,1630.1807523686205,866.878452485671,651.9392032483507
1731304955.9061189,754.204020392009,1666.9514281143988,869.824627112224,646.6038371274062
1731304955.906136,739.3676097399704,1643.0750277358786,861.0714632854047,658.5391308810273
1731304955.9100585,722.1386146607277,1554.8089084316425,834.410549404109,671.9196576657391
1731304955.9139805,701.1059095839344,1424.6539316390715,793.0798714989667,672.8981986807491
1731304955.9179027,679.5410468984893,1305.3475033406737,750.1877059439132,659.0237944898482
1731304955.921666,664.7670749784585,1258.001055858262,720.0020145426895,640.4047405689795
1731304955.9217117,664.3884287499543,1306.9491534429606,708.1633437559667,632.3839403230033
1731304955.9218252,680.8954651174138,1403.795608766591,710.0918181571166,644.5394166331098
1731304955.924629,707.359494513887,1440.2196327118045,717.1199700439953,672.8319151296369
1731304955.9257476,727.7420118051726,1317.0428777713337,722.9949798713617,700.0396724262405
1731304955.92967,723.9324733327129,1025.7644731901883,725.9617052078337,705.1394824267352
1731304955.9335923,687.1856258163485,674.2475382004636,727.1493673925689,676.8439673096765
1731304955.9373045,626.7862257784773,422.690239075452,728.1739220180659,622.8965982315644
1731304955.9375143,568.364148759885,370.29594767119676,729.8352477782815,568.01605814909
1731304955.9405265,540.5695864342338,483.5802815759572,732.077440197101,540.2595627477451
1731304955.941437,557.983431609568,631.2988833398196,734.5098350601698,554.1550921945556
1731304955.9453592,612.4827589301702,701.3382934663623,736.8412217909369,602.4506900668393
1731304955.9492817,679.9228143519949,698.0523025217964,739.0046945646054,662.6595363153255
1731304955.9528973,737.2136591251773,729.5485884140054,741.0712809989271,713.2258922827359
1731304955.953204,776.4286687763546,892.4842454777039,743.1266719498673,746.5402711630551
1731304955.957126,805.2308067955811,1160.1420517429744,745.2090893855652,769.198564624253
1731304955.9593017,834.7007231745093,1382.3518380285973,747.3122474838807,791.1577659963763
1731304955.9593868,866.3022659357238,1404.6737813000655,749.4144404067257,814.643662841226
1731304955.9610486,889.9152850334694,1201.572594749884,751.5006844297205,832.8491926248113
1731304955.9649708,894.4676862244385,900.5822037332243,753.5680380052996,838.8444841616355
1731304955.96849,880.7753040616013,671.2059048267702,755.6203641655483,835.3869216151013
1731304955.9688933,863.5257817965878,577.0070712283701,757.6618253332107,835.0881520103484
1731304955.9728155,859.1132129042394,527.0487812853821,759.6939006815971,849.1841961646705
1731304955.976738,870.0011942181445,374.90487372727563,761.7157917957068,874.649470833567
1731304955.9782472,881.079374934124,76.8764879741176,763.726044846298,892.8458312792591
1731304955.9806602,873.2017569534144,-238.25231958595498,765.7236831233225,883.6555136573988
1731304955.9840827,842.4463997482645,-359.4270364389231,767.70839195451,844.248622108619
1731304955.9845824,806.7771119450136,-170.14835893195675,769.680123194654,795.2536985118413
1731304955.988505,792.5467542600023,242.72802841148507,771.6386583337526,766.8674741205373
1731304955.992427,812.2802070930344,645.0249667117203,773.5834878085016,775.7004545747283
1731304955.9939747,853.9705767707766,828.5711961764418,775.5141068143294,812.4968970600988
1731304955.9963496,891.5093887017592,755.5048356214468,777.4305477597048,851.2669093374388
1731304955.9971075,905.8934435326094,560.3478773940645,779.3336585709474,870.5546473689425
1731304955.9996758,897.4983379084827,423.3142956889575,781.2244904962978,867.2824167927525
1731304956.0002718,880.4122491139732,430.51500252916026,783.1026021661244,853.0986699411212
1731304956.0041945,868.0819923092818,531.4783411091097,784.9643414257937,841.0245823057313
1731304956.0081165,864.8236384636358,610.292497298761,786.8035582402026,836.4305576916549
1731304956.0120387,867.4545673185091,592.5804757086148,788.6169107899275,837.4220954201452
1731304956.0152686,871.1326466279611,493.580329158133,790.412129549799,839.8481248005542
1731304956.0159612,873.189950986207,377.70216026020745,792.2111493209588,841.0782216338889
1731304956.0159678,873.5153596476009,282.134321267657,794.0367545137103,840.7457359363269
1731304956.0198834,873.15175678574,181.99363333051497,795.8802866102305,839.6753965368737
1731304956.023806,872.9818719955406,25.62297841117254,797.6722383698202,838.6853268079931
1731304956.027728,873.2666961272552,-200.88814687532442,799.3023139933687,838.0786444879935
1731304956.0286474,873.8366040624315,-443.80804106543496,800.7254223660632,837.747509044058
1731304956.0308614,874.4429036023275,-611.472644309604,802.1135496466627,837.4748757083291
1731304956.0316503,874.9584513832464,-633.4287786216321,803.8937046742926,837.1325117685367
1731304956.0348282,875.3879681596746,-500.39937052859887,806.4659837169564,836.7106409985815
1731304956.0355728,875.7900885022832,-262.46524563011246,809.5883014729859,836.2566766954093
1731304956.0394952,876.2101699253507,1.7752621124434427,811.8831965160565,835.8131546423767
