timestamps,eeg_1,eeg_2,eeg_3,eeg_4
1731306326.11344,801.6808449711962,791.8930408224932,756.9545374700209,795.2752729215815
1731306326.1155236,798.8800786808622,788.6990763746921,769.5513794499143,787.823402218497
1731306326.1203666,794.3618940484755,786.4176726474417,771.6528129777163,782.0381557580067
1731306326.124267,787.9080839309972,786.0980532341831,759.8226322448694,778.6725328548816
1731306326.1281674,780.729185867885,788.5925248013842,740.3983724666086,777.0507675946174
1731306326.129,774.0570398750417,793.8236437571665,725.2736844404153,775.5337106438374
1731306326.132068,768.0485480059293,800.2999014067668,722.5963685365921,773.0384973002689
1731306326.1343808,762.1570474236738,805.5148782840603,729.3161934881261,770.5155817590326
1731306326.1359682,756.3750530051202,807.2262887013711,732.9389942910419,770.7886742505514
1731306326.1398687,751.8605448796593,804.8617420670855,722.8418417889819,776.4094602419852
1731306326.143769,750.3269032326954,800.0663695515386,701.9704504912545,787.2101292536418
1731306326.14456,752.9457615805577,795.925834068378,687.2767386652399,799.8360407009023
1731306326.1476696,759.7593088479271,795.3103687628227,696.4336661236199,809.8242954712855
1731306326.1515698,769.7283378479124,799.3899299113557,731.8953567475378,814.4255696446148
1731306326.1532383,780.8770711027458,807.191269688424,777.4086095323037,813.7891137016547
1731306326.1554704,790.3226113390202,816.291188039921,810.8744553310247,809.8606678974754
1731306326.159371,794.6808636182368,824.0350367863435,821.5117651396196,804.4718124776443
1731306326.16012,791.3523475946334,828.5412349075742,815.3277574831242,798.4747955427214
1731306326.1632712,780.2948813912725,829.132672720604,805.2814456392152,792.286748228526
1731306326.1671717,764.9388570827967,826.282253360783,797.8264700692561,786.6631895456107
1731306326.171072,750.9812807093551,821.3284626939665,789.5073540544024,782.5209354804613
1731306326.1720955,743.220424090207,816.1028017940067,774.7794464266547,779.956884344253
1731306326.1749723,742.428958683275,812.4488834288207,753.7525193755815,777.7286284337548
1731306326.17568,744.8131034254984,811.6283380072032,729.9335190959087,774.1833553606259
1731306326.1788728,744.8813776452779,813.8071272526058,701.3293835290103,769.1491081394724
1731306326.182773,739.6453456435758,817.9564820919783,657.954582247759,765.0331138016427
1731306326.1866736,730.6717314190923,822.3390341306017,592.7701345825052,765.693513244538
1731306326.190574,722.2593038201708,825.3546589184737,516.7674820777637,773.5396870275249
1731306326.1909528,717.4777899513838,826.264467368841,460.6648283383162,787.0859877318355
1731306326.19124,715.6186943954585,825.4321829100345,456.7711057517607,801.0670981924928
1731306326.1944745,713.0506456579551,824.0362138537628,514.9716184586539,809.2515660296416
1731306326.1983747,706.3102125984142,823.4077967214728,614.4334447038269,808.0392705294231
1731306326.2022753,694.6637454154363,824.2328762913362,718.0696199330264,798.4614020953732
1731306326.2061756,680.4713694559395,825.9798882127133,795.3557318946703,785.4365929505517
1731306326.2068,667.7583635098772,826.9887423843569,834.1154352667647,774.9346638221563
1731306326.2098105,660.3103564063888,825.3777837862776,837.1708485417615,770.8472501292273
1731306326.210076,660.1418759798872,820.3127618946935,815.256629717682,773.3430876110234
1731306326.2139764,666.6383683366796,812.7591486544502,785.1442005190696,779.4733473378552
1731306326.217877,676.7192812170379,805.1094058219827,767.9659132878759,785.3937297474865
1731306326.2217772,686.3044484975421,799.8984246546698,778.6040777644631,788.6197722275795
1731306326.22236,692.5237988418642,798.4812937300345,810.1396624991348,788.9121968620835
1731306326.2256775,695.1934099570024,800.4908676849341,830.954594803929,787.5737555897814
1731306326.2286675,696.3562908670309,804.263907035994,805.8447104298294,786.0889175024348
1731306326.229578,698.2177704145597,807.8285972548606,728.4449626442423,785.2030477905407
1731306326.2334783,701.1936503690988,809.8724995000258,635.1902319615201,784.8581000309396
1731306326.2373788,703.7024818709507,810.2654072820675,582.5620034720749,784.7327098104106
1731306326.23792,703.8551903957506,809.9511280620153,602.8605115073029,784.907878840454
1731306326.2412794,701.6086247823434,810.2734585020388,677.1704651741029,786.1712786132903
1731306326.2451797,699.5289203528971,812.0721516608899,751.3840580788508,789.5587673794671
1731306326.2475247,701.3720410104135,815.0563628681875,781.3361375864376,795.1770069771652
1731306326.2490802,709.4374294841566,817.8603053369951,765.2988768486199,801.1343580739618
1731306326.2529805,722.7224914283472,818.7984080840872,735.3915942797356,803.7713876177042
1731306326.25348,737.3609829231159,816.8839765242051,720.7068287678645,799.5887268913476
1731306326.256881,749.0369435072231,812.4637634679033,721.2812805609467,787.7392615197148
1731306326.2607813,755.556249428584,807.0401127928642,716.8222953700412,771.1654238968683
1731306326.2646818,757.8237272760969,802.4061963515295,695.4665405566583,755.3855729035133
1731306326.2663822,758.8881014438638,799.7204471545728,668.0710667863738,745.7572149278171
1731306326.268582,762.064002431076,799.173216079361,652.7334581457184,745.0081150032861
1731306326.26904,769.360108681564,800.3837827783349,649.5483728037254,752.2542607255042
1731306326.2724826,780.7659031145313,803.0276299552127,637.3683755841423,763.6112785387885
1731306326.2763827,794.3328061740472,807.0098878166036,599.4130411371433,773.9515526598001
1731306326.2802837,806.9240103640325,811.9749815915018,550.2944451214369,779.2403395259976
1731306326.2841835,815.591286289314,816.67432816321,531.67250202403,778.5787987016394
1731306326.2846,819.1803710003423,819.014346914238,575.0890645382806,774.7801210933989
1731306326.2852397,819.1864961356125,817.1065130594277,666.5471033516277,772.7822346253221
1731306326.2880845,818.9734556696462,810.6799631807338,749.6956926644659,776.5456753890011
1731306326.2919846,821.5815141768253,801.6550355685171,768.9247292034705,786.3211640876607
1731306326.2940812,827.5946598053343,793.1687740595113,715.0586248460481,798.1872572404335
1731306326.295885,834.6774787060405,787.6274050974245,632.840848746297,806.3580308810156
1731306326.2997854,839.1905886863836,785.3069558208553,584.3698582056041,806.8599876535002
1731306326.30016,838.7341238740794,784.647828918914,601.9280557121469,800.1282773301216
1731306326.303686,833.7945963941421,783.9188806158518,670.0704216308739,790.6802674606972
1731306326.3040967,827.376556898799,782.7110615054229,746.8627891890815,783.9808908474016
1731306326.3075862,823.022315146471,781.9382367902112,799.4245820789617,782.6738101646572
1731306326.3114867,822.769401726699,782.482536223704,822.057803828688,785.0218593786977
1731306326.315387,826.4593778360565,783.9178939167518,827.6436212877883,786.8844798032005
1731306326.31572,832.5637898390405,784.6294434799044,828.2886441608172,785.679121952209
1731306326.3192875,839.48842705452,783.2499602492254,825.7936067547982,782.8748517324187
1731306326.3229542,846.2219581537552,780.0310207761373,817.2157417342363,782.652460469453
1731306326.3231878,852.1481511554939,776.8132047043193,804.4533208385824,787.8222611351098
1731306326.3270884,856.7600062953783,775.5809305948869,795.0694157485187,796.7725599332612
1731306326.3288376,859.9425070893242,776.8913172899584,793.6169931519673,804.416735485283
1731306326.3309886,862.5718664914458,779.5299347401927,794.5445263612812,806.4078059542039
1731306326.33128,866.4866625911288,781.57753576654,786.5639623408722,802.794927183143
1731306326.3348892,873.3006446015477,781.835975764751,765.2020642205464,797.8042815485516
1731306326.3387897,882.7587194094763,780.4001084370324,739.5413755667794,796.040321884443
1731306326.3418114,892.1135022752264,778.1063904601876,723.9408475083013,798.6134788671563
1731306326.34269,897.3635466591436,775.6256387086066,722.3083498626756,802.5144064706102
1731306326.3465905,895.6271962993493,773.1198588253474,722.8937819823113,803.4268470002719
1731306326.34684,886.9441605785152,770.6441833761658,711.9175890486302,799.2798007396709
1731306326.3504908,874.3174737162448,768.6836222837766,692.909663465769,791.6863384733726
1731306326.354391,862.1808834244894,768.134468825877,689.1273752240251,784.5834488346655
1731306326.3582916,854.3688862531109,769.6575790419098,721.9492136525574,781.5638336296495
1731306326.360669,852.5923423480712,772.9852943225252,784.4069813255652,783.9054616167801
1731306326.362192,855.9355022517306,776.8396133594089,837.9716895498577,790.3037939409179
1731306326.3624,861.503295194163,779.5900423988038,840.8144086557412,797.9845041016213
1731306326.363594,865.9574398694605,780.1611629999934,785.1194890199565,804.1875666965092
1731306326.3660924,867.1743646949492,778.5294891265498,709.363267171895,807.1633812437833
1731306326.369993,865.0611370406679,775.5190937794987,671.1786764434827,806.428576026039
1731306326.3738933,861.1166314146608,772.1587070816779,701.0876515148792,802.5631299367258
1731306326.3777938,857.2715945993937,769.150096647387,776.2749558948353,796.9391961206807
1731306326.37796,854.9601864474703,766.8187470408044,838.456662544397,791.4671887558981
1731306326.379526,854.8772228695127,765.4390349359442,842.0815906639941,788.1176579702748
1731306326.381694,857.1114933725299,765.4618588749379,791.5605327470165,788.0892476804411
1731306326.3855946,861.1865768067298,767.2732868313108,734.926862001115,791.032447752825
1731306326.389495,866.0087744885484,770.6243490741059,720.1561477809088,795.0785063842554
1731306326.3933954,870.0747237860571,774.3148670160658,754.1140370028538,797.9843404793979
1731306326.39352,872.0515908205012,776.6153629911688,800.6288849638864,798.7362406213231
1731306326.3972957,871.3676162824695,776.297475354048,816.7523388481494,798.3731295903052
1731306326.3983502,868.3745269551767,773.5483912907083,791.5171365820713,799.2241769647216
1731306326.3983834,864.0387951510908,770.0118630742554,752.2273381168624,802.9489209368306
1731306326.4011962,859.4835250491107,767.8008442249379,735.9084132375615,808.8346158310932
1731306326.4050963,855.6680994155498,768.1194979528238,754.8953406888558,813.8658799432985
1731306326.4089973,853.2270993492705,770.4894982742982,787.8259214342378,814.8611629532566
1731306326.40908,852.3583618313751,773.1616066117587,801.9570564585722,811.2082235235905
1731306326.412897,852.747915264084,774.3878699522279,784.411433224386,805.9107326090239
1731306326.416798,853.6607525253119,773.582162312136,753.0887473967192,803.7770295363831
1731306326.4172406,854.3013548896547,771.5690812757675,737.4034412960067,807.9483222460134
1731306326.4206982,854.3061747827381,769.9119707591144,747.3866309395896,817.52824512205
1731306326.4245987,853.9663067455457,769.9591575391255,761.4901418149535,828.2843535286104
1731306326.42464,853.8524433525754,772.2380659580223,746.5897829336652,835.7804223554788
1731306326.428499,854.0541639615761,776.3621052509063,692.4145555995564,838.2268847371034
1731306326.4323995,853.7872216829935,781.2596291717126,626.9249407275322,836.8526048461209
1731306326.433107,851.9525629844588,785.550031763686,595.9721678327179,834.1174252529247
1731306326.436098,848.2863265798098,788.0447784480739,624.665434969595,831.8006786322876
1731306326.4362998,843.9410101263978,788.3069550372276,695.7275136937429,830.3721616992248
1731306326.4402,840.6973243405654,786.9802625300928,764.2206877918137,829.4693705926325
1731306326.4402003,839.3778478996342,785.5490832274777,794.4135888212348,828.6064318428655
1731306326.4441006,839.016406869733,785.5366601196301,785.4965916545262,827.5506218426123
1731306326.4480011,837.7192627334023,787.627262211151,764.9863225668515,826.3243101042193
1731306326.4519014,834.4256340353411,791.3087402311058,758.9023989467721,825.0458448707666
1731306326.454955,829.792770517059,795.2297869813705,767.6558161410775,823.8010085915608
1731306326.45576,825.3323873726782,797.9537717175929,768.9249838862788,822.6080541638295
1731306326.455802,821.7497141862528,798.6297980879096,742.3973763109342,821.444850651074
1731306326.4597025,818.234004894799,797.3051963012401,691.3071558173688,820.285776514099
1731306326.4636028,813.4785451472106,794.8537361943113,640.1927807168533,819.1197546428186
1731306326.4675033,807.5469761215444,792.6012630299697,611.9949164523929,817.9489141492793
1731306326.467863,802.8775875632447,791.7681470220098,607.4974955868323,816.7797616642205
1731306326.4713202,803.2802218361975,792.9094052221288,607.2080118813386,815.6166496477672
1731306326.4714036,811.2162337729841,795.5822601496182,593.2987088377953,814.4603132737822
1731306326.4738126,825.0563796424883,798.4331996054264,569.4876336370783,813.3095000859406
1731306326.475304,838.5044619549577,799.7477767729953,559.163557558555,812.1629106277645
1731306326.4792044,843.3293315194893,798.2671509923495,583.8969083921904,811.0200600185782
1731306326.4831047,834.2103237144851,793.848338835273,643.4824099474832,809.8811373538846
1731306326.48688,812.4623203946752,787.5369021996607,715.8083028872591,808.7465224743842
1731306326.4870052,785.6685409586858,780.962502766451,774.2907100149066,807.6164579834362
1731306326.4909055,763.15252925689,775.4652608538373,804.8297267934137,806.4909933655682
1731306326.49267,750.5321496485537,771.5702807163844,808.7128334243797,805.3700804392039
1731306326.494806,747.3355960813074,769.1112876628916,794.5623625817813,804.253672187624
1731306326.4987063,749.0596437977823,767.7504242160128,771.3907257219814,803.1417587457768
1731306326.50244,751.4476727137741,767.3853211180382,748.2847333714936,802.0343538455688
1731306326.5026069,753.3325554577918,768.16643241609,735.1918358028487,800.9314742779605
1731306326.5026195,756.1400577934282,770.2416439721522,737.9102708294513,799.8331402370288
1731306326.5065072,761.2166806714192,773.5026099162849,749.5900514009883,798.7393915408028
1731306326.5104077,767.7659011532063,777.4946823712992,749.1835198568957,797.6502881704737
1731306326.5115273,773.1759884069693,781.5049086249858,713.9944194630556,796.5658640215977
1731306326.514308,775.1154076716516,784.786672094149,640.4117488382581,795.4860438654878
1731306326.518,773.2551889043793,786.8365616392895,555.8843560201008,794.4106034281081
1731306326.5182085,769.1251186586844,787.5636956932199,507.68461920822347,793.3392921932883
1731306326.5221088,764.5801638378598,787.2068468619008,531.2772811313293,792.2721563738951
1731306326.526009,760.5908371444291,786.0507424704014,620.9333603008616,791.2098562980545
1731306326.5299096,757.4097335063178,784.2059123993757,728.9039441183943,790.1535079602303
1731306326.5303843,755.5068129006322,781.6766817452061,798.5458107564659,789.1036474760406
1731306326.53356,755.9067893409511,778.6440829505993,806.3672968572197,788.058660662418
1731306326.53381,759.4424592345279,775.653901846269,777.1175670844916,787.0142516573086
1731306326.537376,765.7863288947136,773.4886021199422,758.3832790436281,785.9661018686195
1731306326.5377104,773.3461917530622,772.8068798129847,777.4931295883996,784.9160868794892
1731306326.541611,780.0792820196554,773.8322892400636,819.3759327855508,783.8777360722262
1731306326.5455112,784.3632578392189,776.3027383911715,844.1168783004657,782.8720016321523
1731306326.54912,785.3365011272267,779.6735807998041,826.1782229256111,781.9066568608174
1731306326.549242,783.0123969515087,783.3996851709187,777.9764871539256,780.9476308430543
1731306326.5494118,778.6036632086561,787.1054055182418,736.1943435071402,779.9134833961845
1731306326.553312,774.6501238063765,790.5665145550857,724.7348293343105,778.7324559802105
1731306326.5572126,774.073423496482,793.5861280752188,730.4192447649934,777.4643498886178
1731306326.5611129,778.2243302299368,795.9267514971854,715.6905730209651,776.4027500153179
1731306326.56468,785.4449398453139,797.383423004013,657.4670418355934,776.0035195412522
1731306326.5650134,791.7587864844128,797.9103671017957,575.5847513199292,776.5764255807458
1731306326.5680993,793.5628569495746,797.6356480385365,522.5846212720465,777.9688171383211
1731306326.5689137,790.3012008839429,796.734529428265,541.9774622202369,779.6172741323461
1731306326.5721323,784.9949465364894,795.341055079219,631.6909070924866,780.9824918036355
1731306326.5728142,782.2807474543538,793.6687508952926,745.1251551887732,781.9379355956322
1731306326.5767145,785.5367969495026,792.2221139896287,828.0191536335827,782.8248771645251
1731306326.58024,795.0855926899153,791.745657260414,857.7373290613838,784.3079149160237
1731306326.580615,808.3160856972809,792.7507754150569,852.1302537354068,787.1589711588864
1731306326.584515,821.1793564420143,794.9709133526899,845.2055248093072,791.8400228036242
1731306326.5869565,830.0055912880202,797.3419628790488,855.7921800525273,797.8936628178228
1731306326.588416,832.8938402899474,798.6982963715216,876.7729791995242,803.650885733548
1731306326.5923162,830.2991688013134,798.6548412937559,889.2315653191877,806.8791979585277
1731306326.5958,824.6027844838053,797.8779259621917,883.1842455331581,806.265926976985
1731306326.596217,818.7517104619432,797.4706933959975,864.6172334365401,802.6385420019409
1731306326.600117,814.6417019700059,798.0154845766128,845.2004305877957,798.6971503275184
1731306326.6040175,812.2634069247063,799.1176668247066,828.0903143807484,797.1788569838773
1731306326.605814,810.1838369499052,799.8128420444848,805.2156776448713,798.832717955318
1731306326.6068883,806.9407689382954,799.4319274246336,768.5075034013217,801.9037886405913
1731306326.6079178,802.2693688657916,798.1735678938355,723.1420266721826,803.5806598779675
1731306326.61136,797.3297150015884,796.9485969774714,688.7016339490713,802.1730532250327
1731306326.6118183,793.9639417494249,796.6808519411318,685.9147189214661,798.2246954576516
1731306326.6157188,793.693296385494,797.637949148204,720.6374944372336,793.8034688545556
1731306326.6196191,797.1537296816721,799.2710930761119,779.0706141170564,790.8104148758111
1731306326.6235197,804.1147247743361,800.6166593418294,836.9018551234492,789.8389689100325
1731306326.6246712,813.722249931181,800.9124073860196,872.5938415495458,790.3880449225859
1731306326.62692,824.6127071951572,799.9869297430636,874.4310666780409,791.9118498516888
1731306326.62742,834.9578959166088,798.2191991529807,840.756556590485,794.5245810586308
1731306326.6313205,842.7801884797271,796.2153039832568,779.6990100902929,798.6686873742955
1731306326.6352208,846.6439628147182,794.5148442626969,710.5986368045153,804.1290523238931
1731306326.6391213,846.3219762205082,793.4975035359485,661.2754304775297,809.4416424490494
1731306326.641645,842.8651964547075,793.3904264272534,655.4974645130827,812.4571754306402
1731306326.64248,837.9428106932378,794.1899076843681,695.3780334530668,811.83235031269
1731306326.6430216,832.9417678265727,795.5059348849152,753.0952457094975,808.3234106413352
1731306326.6435285,828.4628561530992,796.5726345024736,783.6040045365226,804.6962583392734
1731306326.646922,824.3904857169556,796.62148021788,754.4140941594894,804.0146422307071
1731306326.6508224,820.1985558927694,795.4640278866872,672.0270515313425,807.4045569328579
1731306326.6547227,815.1569190759648,793.8125853337967,582.5344873473098,813.0354841884347
1731306326.65804,808.5110384938278,792.9506522001628,541.6564579269349,817.3050269324526
1731306326.6586232,799.8876043827779,793.8646697959446,575.1569062517337,817.502545069863
1731306326.662386,789.8317045512516,796.4498250853272,661.5048199046821,813.9437661389286
1731306326.6625235,779.9647717850904,799.4175246310605,751.7453422295906,809.8557253797546
1731306326.666424,772.3787406120704,800.9971496317313,809.17544999283,808.9987518316473
1731306326.6703246,768.5092045715888,799.9211577304479,833.5655130398295,812.793861252954
1731306326.6736,768.2323292223949,796.0606085888824,849.863472777089,819.149327665058
1731306326.6742249,769.8520687526185,790.4625423816001,875.615455795806,823.8897443056259
1731306326.6764014,771.1002236221852,784.9464023706905,900.8240692732677,823.701189603857
1731306326.6781254,770.6422831248357,781.4768056743187,899.6690446027527,818.3957060625738
1731306326.6812432,769.163550815229,781.4113407811138,860.6779478761475,810.8982041398548
1731306326.6820257,769.1531070939394,784.7923892351134,803.4656215981139,805.1032961170005
1731306326.6859262,773.2187566042487,790.0948864604733,763.6408672762025,803.251829392571
1731306326.68916,781.9346286924172,794.8343752092818,759.3016629662338,804.6864295767884
1731306326.6898265,792.9352974672115,796.9222309348556,771.9531597260349,806.7350526861374
1731306326.693727,802.2648646107197,795.9648204989279,762.5921771780196,806.9010027817984
1731306326.6976273,807.0713994139236,793.5220875856145,710.4013977026206,804.6301717996889
1731306326.7001004,807.3542774374665,791.9999354641753,637.9713260579871,801.3450507779899
1731306326.7015278,805.3334693700135,792.9140308435119,596.7689914390351,798.872397622979
1731306326.70472,803.3799350268872,795.8336393542791,622.8179034444508,797.6917575807073
1731306326.705428,802.5621760128196,798.8264506528805,702.0990190655197,796.5036114924578
1731306326.709329,802.6770353404829,800.0157988593216,778.7133250942119,793.4309190455899
1731306326.7111578,803.0695420120915,798.955719132028,800.2055447095358,787.8012127983496
1731306326.7132287,803.2893135603556,796.7410680281791,759.56525875593,781.0544715507447
1731306326.7171297,803.2519166952131,794.9128814318983,696.4264386338193,776.0839241152197
1731306326.718958,803.0818618386191,794.2370958120189,658.5445433560678,775.4894644312822
1731306326.72028,802.9153103844109,794.4048529511304,661.1201054523608,779.9202899648657
1731306326.7210298,802.8082371500972,794.7304184265621,680.7808526150728,787.565149757769
1731306326.7249303,802.7471394450631,795.0062936874955,685.5470264430318,795.1228161639673
1731306326.7288306,802.6970785847496,795.6752788297188,668.171608429972,799.6718908226418
1731306326.732731,802.6357326625406,797.2740456207105,650.3472535310091,800.24003972844
1731306326.73584,802.5601538121517,799.802735922662,656.5613883989134,798.0246283527877
1731306326.7366314,802.477569236639,802.6208225734612,686.0871136771044,795.212266321182
1731306326.7378151,802.3950709214093,804.8734497520538,711.2958928192918,793.4383349472588
1731306326.740532,802.315269329995,806.0102897538598,703.1479004928213,793.0650436089408
1731306326.7444322,802.2372259093642,806.0152721407493,658.626347935566,793.5344754194031
1731306326.7459142,802.1590721082746,805.2817709042516,604.1503001557003,794.1398694642761
1731306326.7483327,802.079717960291,804.3027224848815,572.1441343722779,794.5107971550309
1731306326.7514,801.9991032787208,803.4052162465218,572.5148133166595,794.6393855525255
1731306326.752233,801.9176657024263,802.6738359623146,585.0612275588664,794.6741007509067
1731306326.7561336,801.8358013732104,802.041003799951,579.7846603764,794.7363672137576
1731306326.7566724,801.7536530094164,801.416024033575,546.7273682073619,794.8595996731641
1731306326.7600338,801.6711663565046,800.7549458192203,507.95141225829354,795.0183004733168
1731306326.7639344,801.5882327126923,800.0613684225324,500.29056666693833,795.1774785248274
1731306326.76696,801.5048016753103,799.357071248314,544.3612055255893,795.3198562837887
1731306326.767835,801.4209383925438,798.6580285772048,627.6171031914757,795.4465075927018
1731306326.7717352,801.3368213049761,797.9677266639109,715.1141552541247,795.5656697922824
1731306326.77553,801.2526513368441,797.2820938664083,775.7558754154326,795.6834611186077
1731306326.7756355,801.1684588878394,796.5963419536732,800.164175715965,795.8012163475241
1731306326.779536,801.0839108638944,795.9083542608166,798.4413636689108,795.9173315802162
1731306326.7806706,800.9983759752889,795.2184726035131,786.1443726357202,796.0298943295323
1731306326.78252,800.9114963417803,794.5278694873157,773.6233501195338,796.138007834593
1731306326.7834363,800.824115960362,793.8373294014568,764.5976127690744,796.2417270133643
1731306326.7873368,800.7386974677532,793.1469674648986,759.2848148415547,796.3414382593669
1731306326.791237,800.6579445313589,792.4565267104947,756.7147578298516,796.4373879861837
1731306326.794387,800.5812504472027,791.7657381789007,755.5714099515803,796.5295689114398
1731306326.7951376,800.5012497919236,791.074482893977,754.7269810612843,796.6178291223636
1731306326.79808,800.4056219360955,790.3827676350405,753.6151601351356,796.702006797662
1731306326.799038,800.2884927155004,789.6906364180994,752.1920038206517,796.7819929153009
1731306326.8029385,800.1675963054696,788.998110445535,750.6419160402473,796.8577305527081
1731306326.8068388,800.0899023636968,788.3051779231698,749.1245827156756,796.9291973802011
1731306326.8107393,800.1022631966889,787.6118100678061,747.6868435856207,796.9963950190138
1731306326.8132443,800.1834597027563,786.9179751398324,746.2970158162493,797.0593306642623
1731306326.81364,800.1855660204217,786.2236405796875,744.9092635502938,797.1179671257992
1731306326.8146396,799.8832830496087,785.5287719756382,743.5002909067155,797.1721564683801
1731306326.8154268,799.2059822725976,784.8333427918823,742.0710912664952,797.2216368209989
1731306326.81854,798.5674561800324,784.1373565407656,740.6325446967268,797.2661914381189
1731306326.8224404,798.9742256854086,783.4408598066949,739.1930596707218,797.305960555925
1731306326.826341,801.5553274762168,782.7439096931865,737.754811674557,797.3416561262819
1731306326.8292,806.5936379101645,782.0464807928223,736.3160259292135,797.3742362727214
1731306326.8302412,812.789050495286,781.3483676056093,734.8744301086717,797.403794007455
1731306326.8321018,817.5761470655578,780.6492197418494,733.4290499489803,797.428232733063
1731306326.8341415,818.579919999065,779.9488357356614,731.9801684595172,797.4433715135217
1731306326.838042,815.3281529868328,779.2476314717179,730.528522925222,797.4462243782388
1731306326.8419423,809.9119496780504,778.5468336126055,729.0746839232432,797.4408974438065
1731306326.84476,805.8470450235305,777.8477518114324,727.6189113886513,797.4420040359836
1731306326.8458428,805.7597541957756,777.1499656452255,726.1613073810489,797.4673409807655
1731306326.8497434,809.6123428142041,776.4496224240486,724.7019788590399,797.5162276842794
1731306326.8501832,814.8597115807171,775.7404678031893,723.2410575730271,797.5459795646337
1731306326.8509593,818.3658666020178,775.0197370907424,721.7786121385493,797.4782475949963
1731306326.853644,818.510144126006,774.2967936713977,720.3146107301125,797.2656454705661
1731306326.8575442,815.8894869627269,773.5956093225036,718.8490864466706,797.0018402659757
1731306326.86032,812.2905986026019,772.9393372661646,717.3824837114619,796.9729017449408
1731306326.8614447,809.001311938046,772.315727583011,715.9158686352688,797.497887336362
1731306326.865345,805.9064048616867,771.6484876002336,714.4504952684691,798.5124953787293
1731306326.8692455,801.984209399164,770.8248465165213,712.9865091944231,799.1653606967891
1731306326.8698163,796.6121734545851,769.8160865907263,711.5215422247203,797.994692412065
1731306326.8731458,790.5228514288851,768.8461505484842,710.051105054631,793.9910964728557
1731306326.87588,785.6732289494568,768.4485359783756,708.572592948357,787.9002933948302
1731306326.8770463,784.2162179683737,769.2468407523049,707.0918710952951,782.466613480009
1731306326.8809466,787.3938202693569,771.5312062357802,705.6262855480443,780.9979252843583
1731306326.8848472,795.0340090870436,774.9864192635696,704.1949799527562,785.1165552010509
1731306326.8849397,805.6599101251155,778.8329575492024,702.7937555338135,793.3666223043094
1731306326.8886738,816.78136161738,782.2248416033796,701.3705172149083,801.782445767468
1731306326.8887477,825.2401317221957,784.569538606952,699.8377787595502,806.1121792931906
1731306326.8914402,828.0318939193478,785.6440575513784,698.1532124143844,804.2136860651907
1731306326.892648,823.8269422487323,785.5702810695536,696.4414248316734,797.0443134853097
1731306326.8965485,814.3703788092637,784.6985222744953,695.0346631624636,787.6962570047848
1731306326.9004488,804.3288528928404,783.434701304914,694.2658613768266,779.2878778085043
1731306326.904349,799.0630082573418,782.1139518386414,693.9867336496502,773.2062577185181
1731306326.907,801.5784842200333,781.0019729970622,693.1479215044815,768.7895014561359
1731306326.907531,810.7566282809552,780.3465324596839,690.1375306382372,764.4461788878094
1731306326.9082496,822.0614476480856,780.3281394568515,684.4032869892269,759.2489275081954
1731306326.91215,830.1679372371678,780.9135055833556,678.7378101953623,753.842538447886
1731306326.9160504,831.7924152383052,781.7951093593301,679.8917781648846,750.1461334981872
1731306326.919696,827.0826696950041,782.5444066302645,694.856939754404,750.2533212235461
1731306326.9199507,818.9691799047371,782.8845631650242,723.6369418296337,755.361737009542
1731306326.92256,811.1363441838812,782.8787830828404,754.968627087113,765.2213735003903
1731306326.9238513,805.9636734426789,782.9167228138606,771.9133472438921,778.0353765934203
1731306326.9263885,803.564867865834,783.5066538456524,765.4086913142746,790.6767373783273
1731306326.9277515,802.2382727549301,784.9465040960711,743.710072692036,799.4129862419093
1731306326.931652,799.8606903153557,787.0223459199975,726.5590928330464,801.3230412889757
1731306326.9355524,795.3740365198322,788.9788163823445,726.605520478864,795.9432504990596
1731306326.93812,789.5467462722218,789.9440075588662,734.7626510768384,786.037303804915
1731306326.939453,784.5775050626964,789.6475513415013,725.6959772974305,776.5891187768788
1731306326.9433532,782.7647829037809,788.8761238796671,681.9590765010614,772.2385511993272
1731306326.9452455,785.0940539828476,789.1317967306051,615.6583641455759,774.6247226520079
1731306326.9472537,790.7164909003814,791.5637011195736,565.3350932348357,781.4590257651757
1731306326.951154,797.6684298170612,795.9555887125723,567.2982668353222,788.1335839224736
1731306326.95368,804.1976909667262,800.6365751968041,625.6642123572157,790.8363460002633
1731306326.9544525,809.5677274402502,803.4622879241144,708.5385751639927,788.9225849490433
1731306326.9550543,813.7453906014376,803.136966285726,774.2239662968667,784.8427312389805
1731306326.9589548,816.5062577400062,799.9149248496204,803.3637676976336,781.8941708407613
1731306326.962855,817.079546378029,795.2693894077147,808.0972498137548,781.744780814106
1731306326.964103,814.8406477412,790.8907564080449,812.2133465933571,783.6252408699319
1731306326.9667556,810.3588114315957,787.7584583857722,824.0101307363942,785.4919751298041
1731306326.96924,805.615233571499,785.8430799797533,829.0883678264809,785.8515500666493
1731306326.9706562,802.9728161410374,784.4822005566392,809.1993133328847,784.6653923961925
1731306326.9745564,803.6938091035554,783.0265689375927,766.8735896386681,782.8330715234863
1731306326.978457,807.2126395142047,781.2649714723736,729.4947858316837,781.041966494645
1731306326.9823573,811.6494856505395,779.423778310309,726.4767241904071,779.1486409997397
1731306326.9829602,815.0338505920681,777.9150174058836,760.2585225204332,776.5834115461937
1731306326.9848,816.3492516167144,777.1320058075529,799.9577257474548,773.3130063127218
1731306326.9862578,815.8936617802447,777.4068235095863,806.8308119616721,770.4720803712563
1731306326.9892087,814.9755431024228,779.0112882915822,770.3365392297706,770.0709681379964
1731306326.990158,815.2040127147764,782.0550864181791,721.0993192407764,773.8497718005493
1731306326.9940586,817.6640122471372,786.2897703184267,706.1444604392807,781.932886787363
1731306326.997959,822.2928892039728,790.9689988539787,746.7714470514982,792.1423570007365
1731306327.00036,827.7648970364464,794.925705217117,817.5164559554421,800.5376219521162
1731306327.0018177,832.0117936462793,796.9310916706415,866.7582870301266,803.1065802987998
1731306327.0018594,833.1799316367591,796.2483238805295,860.9951099511437,797.8856895555532
1731306327.0057597,830.5454631661466,793.1193100965529,812.4511477600214,786.4341932499835
1731306327.0096602,824.8987163123115,788.8399813456884,765.4477504999938,773.6843432226956
1731306327.0135603,818.2146629285725,785.2573037977844,755.6073049590036,765.849345705732
1731306327.01592,812.833060429836,783.9290401992594,780.1106198449519,767.2079903819961
1731306327.0174613,810.5683288693571,785.4740464788042,804.7317001313877,777.5700404743039
1731306327.0206747,812.0791723936157,789.4791645400278,798.0835137837755,792.1420068047365
1731306327.0213614,816.663359610416,794.8584871255716,759.6383766577139,804.0979364652358
1731306327.0239651,822.566661403588,800.2824855681223,716.4447688658984,808.33420034582
1731306327.025262,827.7994764852459,804.4696849715144,693.9770856555588,804.0635271643401
1731306327.0291622,831.1967596599491,806.4631235961418,690.4476405936036,794.7400369848814
1731306327.03148,833.1586772070202,806.0264310763703,679.9672399622597,785.636575678128
1731306327.0330627,835.4810098345679,803.9581557090561,642.0174162031415,780.810283635269
1731306327.036963,840.1125136565032,801.9078567428421,588.4278454677384,781.239734449312
1731306327.0395322,847.4272615508667,801.5698213657661,559.8842559286431,784.8475637578648
1731306327.0408635,855.2011056673687,803.7103474406086,592.7089717874849,787.9741292530791
1731306327.0447638,859.3229672969214,807.7337069429498,685.9315722632822,787.3663557701154
1731306327.04704,856.141390122045,812.1035248802465,799.0158431148939,781.804398054444
1731306327.0486643,844.9395676117863,815.2666139374261,881.6223111570313,772.736100095777
1731306327.0525646,828.62604649136,816.3888401711706,908.1269866300314,763.6507007744398
1731306327.0564651,811.9560779063073,815.4571907471693,888.8143430040387,758.4463333797803
1731306327.0583897,798.5689661204229,812.8632924288461,853.7837276631062,759.5203409584768
1731306327.0587215,789.1037320506251,808.9916923098345,828.3033596385491,766.445175638983
1731306327.0603654,781.7457015780564,804.2657264251891,819.9068086210759,775.883107049483
1731306327.0626,774.5792769687529,799.5787434247864,822.1214019356971,782.9925498832171
1731306327.064266,767.759663256901,796.4966438875371,825.4830761788727,783.9583545900654
1731306327.0681665,763.7709702192395,796.6540426878272,825.0074865059363,778.4426833381649
1731306327.0720668,765.5461824037046,800.5230908605167,820.8577403515524,770.2493176995406
1731306327.0759673,773.800978341208,806.5445967283575,815.3737074624725,765.1798729164096
1731306327.077247,785.5402211349187,811.5625293763381,810.3903085614777,767.0159377465595
1731306327.07816,795.0041715399545,812.4858212349834,806.3858191398249,774.4368734791178
1731306327.0798676,796.7355312282826,808.0510232966142,802.958737010954,781.5955797354198
1731306327.083768,788.8973476581123,799.4715999294349,799.5809258008561,782.4833999596137
1731306327.0876684,774.5496418464539,789.6518807459744,795.9999569690713,775.935187866143
1731306327.0915687,759.8534032438229,781.6511078369145,792.2396097225679,767.1163148205717
1731306327.093478,750.3893161110752,777.4041178454926,788.4274468477407,763.9276310601733
1731306327.09372,748.1947486930391,777.2735944471938,784.6558357274956,770.9834066357215
1731306327.0954692,751.4671598594589,780.3559880048884,780.9441954786166,785.9404084641296
1731306327.096104,756.7176078685237,785.121342635737,777.2683466433821,801.0708234974674
1731306327.0993698,761.3924976543559,790.0351603092255,773.6003650627844,808.7609543035013
1731306327.10327,765.0210115465592,794.0160604262413,769.9280474672676,806.6517824723156
1731306327.1071706,768.4844940555263,796.6721144457894,766.2534497186366,798.7038995009082
1731306327.10928,772.5270416382983,798.2472327831684,762.5833447270434,791.8512718169004
1731306327.1110709,776.8885562900975,799.2651490546679,758.9221753286384,791.2008426839396
1731306327.1149616,780.5103691684495,800.0365736735338,755.2704907858231,797.3582070113816
1731306327.1149714,782.2623151354935,800.3507792544972,751.6267185986536,807.2906316795483
1731306327.1188717,781.5037715161525,799.6151193220666,747.9892470711529,817.3322415245834
1731306327.1227722,778.3433440032964,797.4016958827714,744.3573075946475,825.7357338496923
1731306327.12484,773.8115186120684,794.0113410819177,740.7307655098285,833.083110280337
1731306327.1266725,769.8844082437157,790.5770607706943,737.1096031517457,840.7438800682177
1731306327.1282344,768.9405242844117,788.5381613232323,733.4937075038044,848.9299122673854
1731306327.130573,772.5421004986715,788.8089897909111,729.8830637135235,855.9648737559007
1731306327.1338189,780.2853617651052,791.2245784291149,726.2780037342568,859.339617792995
1731306327.134473,789.8419380479487,794.6358148612268,722.6789955109224,857.7630582806662
1731306327.138374,798.4743567487196,797.5405492506471,719.08574898666,852.6268890928793
1731306327.1404,804.8657348538331,798.8009554807772,715.4961935390783,847.6054874423854
1731306327.142274,809.5982836201198,798.044210275037,711.9067387166008,846.409637801926
1731306327.146175,813.8021546159775,795.6272634471953,708.3151496763949,850.199951307891
1731306327.150075,817.3022246994918,792.2861772006572,704.7252912797426,856.6631982690254
1731306327.152676,818.1586030770177,788.6846217952049,701.1492921411734,861.6271907352423
1731306327.1539755,814.206583859973,785.0951030870513,697.6005502723203,862.0787412875773
1731306327.15596,805.3053560551481,781.4128825348588,694.0756046015086,858.2634897303567
1731306327.1578758,794.2719208733558,777.5366095972489,690.5364649582607,853.2806516609953
1731306327.1617763,785.5201458588147,773.8527965568334,686.9197011863401,850.6129161597199
1731306327.1629908,782.3188872093432,771.3515004477931,683.1945781298936,851.6074946925555
1731306327.1656766,784.7633436707872,771.0668045844233,679.450792420804,854.7994290547356
1731306327.1695771,790.0520781012416,773.1009821212897,675.9275567946589,857.3845569620881
1731306327.17152,794.8372059584086,776.0356550672806,672.8640141895232,857.4806290198617
1731306327.1715336,797.7199426065276,777.4689265636827,670.1516270914445,855.3692940667926
1731306327.1734774,799.8367760082734,775.5821854422799,667.031806245851,852.9189658097664
1731306327.177378,803.1303928749231,770.636925553386,662.3402863631059,851.9141342497612
1731306327.1812782,807.9719549331002,765.0955578953323,655.6742500328542,852.7919767508708
1731306327.1851788,812.411152190066,762.0419791129949,649.0279818582818,854.7444978504044
1731306327.18708,813.802782169601,763.0060895473338,647.1973316708144,856.8414384324684
1731306327.189079,811.2758834920846,766.870564975172,654.9056063830018,858.9542433485517
1731306327.1903908,806.6960339644661,770.6853258863607,671.0144930029624,861.5931147754416
1731306327.1929796,803.2276220981578,771.7089633820625,685.058172562992,864.9446046821481
1731306327.19688,802.8802822413357,769.1615612660999,682.7486810175367,868.2283825349581
1731306327.197747,805.3222032811722,764.581756464792,658.7464357789142,870.1460300282627
1731306327.2007804,808.9564104423467,760.7712953154837,623.907763348402,870.0539267719546
1731306327.20264,813.0439774853925,760.1491761649278,597.2283073749471,868.7224130420485
1731306327.2046807,818.6383883273712,763.4850105595651,590.0424626043739,867.8601444342999
1731306327.2085812,827.2969998280364,769.6074826632921,599.1121130169212,868.6314379694479
1731306327.209248,838.8458597947167,776.1327360033144,613.4606671116973,870.2817639711934
1731306327.2124815,850.5717097260696,780.7554587698651,624.6731126590181,870.0780721913345
1731306327.216382,858.8867688020636,782.3679073130497,630.8451972058634,864.9482291647912
1731306327.2182,862.0492626367633,781.398583448233,634.2266132931189,853.8640553212256
1731306327.2202823,861.4623503917164,779.2827228599192,637.5006156907426,839.1164885263136
1731306327.2241828,860.4614073130441,777.5425097234848,641.8776506568632,825.2131557382222
1731306327.2280831,861.7848840744399,777.1170667031728,647.1843923093297,816.0782710508721
1731306327.2281055,865.807013544204,778.2367477462459,652.76279702997,812.8354386319564
1731306327.2319837,870.572096000182,780.6510804642813,658.1581581840883,813.9579603518977
1731306327.2325034,873.1714542660662,783.8535063334734,663.2873925738802,817.3279110131723
1731306327.23376,871.4429154219029,787.1741093958713,668.2790413330032,822.0491171181804
1731306327.235884,865.2398295315528,789.8911218086993,673.2722271887694,828.4087144897857
1731306327.2397845,856.7765985079272,791.5026570698798,678.323616520742,836.421989016001
1731306327.2436848,849.6922210262334,792.0412571751656,683.4189466422924,844.7219344100452
1731306327.2469628,847.0317491549143,792.1468307667393,688.5222989577388,850.9743313994085
1731306327.2475853,849.3027036877003,792.768960541454,693.6108120475972,853.3656482184908
1731306327.24932,854.1256472188608,794.699330662835,698.6814494574728,851.7240914529383
1731306327.2514856,857.9848012157405,798.2806178981737,703.7415266486811,847.2894289733639
1731306327.255386,858.8331789214911,803.4317035671911,708.7981693275368,841.4387292453101
1731306327.2592864,857.4401315948353,809.7862021058698,713.8538876243318,834.5961759406068
1731306327.2631867,856.328117245049,816.6478778637625,718.9075389850328,826.3398145938829
1731306327.26488,857.1749217017449,822.7692011417726,723.9570224760278,816.5805005634601
1731306327.26582,858.9134769417685,826.3580800357416,729.0010779865396,806.6479047248882
1731306327.2670872,858.2825240918617,825.712992401967,734.0396199992869,799.1549651277337
1731306327.2672598,852.5937525020709,820.3241625886018,739.073211594973,796.6205378568455
1731306327.2709875,842.4995029828071,811.6395224513707,744.1023563677018,799.9438919083987
1731306327.274888,832.2340618950893,802.69580637773,749.1269396815994,807.8659030927021
1731306327.2787886,826.726048091011,796.6250064748378,754.1460093839471,817.5732447883521
1731306327.28044,827.7892492964359,794.9931454241207,759.1582009013534,825.7298636142228
1731306327.2826889,832.7234501164743,797.1297617269338,764.163022452323,829.3463564334006
1731306327.2846775,836.6754037481995,800.8617110336156,769.162455541345,826.5877421765152
1731306327.2865894,836.6303804649375,804.0273629370274,774.16111830313,817.6942066123524
1731306327.2904897,833.3508691385372,805.66517122432,779.1628949156657,805.429018126115
1731306327.2943902,829.6279765368832,806.1555828114747,784.1642138736134,794.1099602129561
1731306327.296,826.8301093603428,806.4526954353897,789.1492573531314,787.3083366123428
1731306327.2982905,823.2698385743532,807.1596061206246,794.096604768097,785.7965822664262
1731306327.3020165,815.9518456539505,808.1380823947968,799.0028211263048,787.4478445027961
1731306327.302191,803.9485511735946,808.7731547531444,803.9111876499785,789.1857697990763
1731306327.3035347,790.1986609246476,808.5081499874409,808.9106373732681,789.3791845597855
1731306327.3060913,780.037546334414,807.2143303420737,814.066917340849,788.8752389072811
1731306327.3099918,777.5842367551793,805.2481583250285,819.296129650734,790.0681188611476
1731306327.3115602,782.7705699373182,803.3070847202152,824.2880101562935,794.7716146079443
1731306327.313892,791.1908388137133,802.2224814888874,828.6563437935184,802.3088497625674
1731306327.317793,796.8154128619476,802.7203922384513,832.3988312090763,809.0660462511145
1731306327.3216927,795.6177054924683,805.1284336491747,836.4073776906924,809.9933424996127
1731306327.322392,787.667427958893,809.0917845450393,842.3507428677581,801.4048663133219
1731306327.3255937,776.4776337636031,813.4987494179207,851.2578813104005,783.4227900287347
1731306327.32712,766.3631825232114,816.8205697777818,861.1080158277985,760.2977086548067
1731306327.3294938,759.7822752341967,817.816739795215,865.5215569173004,738.0573038456879
1731306327.3333943,756.2992328793604,816.184727922018,856.6334581408953,720.8968497154841
1731306327.336773,753.4456889916851,812.6243997655365,832.6535103407418,708.9221185151677
1731306327.3372946,748.5730657590328,808.1896506823192,804.0936277787953,699.0347221710703
1731306327.341195,740.5116062876907,803.4454640437169,789.3995160175014,688.2738988622559
1731306327.3412497,730.2820921129571,798.2041498700974,799.5792149896198,676.8155139407856
1731306327.34268,720.6529091503888,792.1165443491368,825.6099569358598,668.0210691519138
1731306327.3450956,714.7403575567764,785.5251327137014,842.9617224007135,665.4058823689313
1731306327.348996,714.2716926383174,779.6202083592957,830.8829113248188,669.1113185621499
1731306327.3528965,718.5441684797793,775.5735987846036,788.6779481336325,675.0994775041338
1731306327.3567967,724.9587938196034,773.4243974271071,733.7291062982403,678.1327176077469
1731306327.35824,730.887549288456,771.9004425790458,683.6732624471621,676.2378133769245
1731306327.3601067,735.3210738394528,769.5297403939823,640.7460857849248,672.6688706647708
1731306327.3606973,738.7614623459347,766.0943236383988,594.4173939102334,673.2336099601844
1731306327.3645976,741.5566173297291,763.0437059832361,539.7884005210371,681.0202109564115
1731306327.368498,742.6308835588322,762.404749855342,491.87148640690395,693.2758544073101
1731306327.371529,740.2701806089065,765.1110110105312,478.61760231977536,703.5099306467645
1731306327.3723984,734.3337878412173,770.1771293945224,517.2350226113111,707.0287582787665
1731306327.3738,727.4272738912889,775.3224059185327,596.5653802490334,704.744938685857
1731306327.376299,723.3774155298107,778.3799701138157,682.9693414023162,701.7776775728402
1731306327.378964,724.1856362530564,778.3437608421984,743.8107726736775,702.5165628904855
1731306327.3801992,728.5154604609539,775.5084433844437,766.6211842004968,707.1746772183603
1731306327.3840995,733.4688365165708,771.0319794438744,759.4659418346644,712.9521604374746
1731306327.388,738.0178175626252,766.4865117913346,738.136707289867,717.9193367777066
1731306327.38936,744.508005905926,763.5396014317873,715.6518547395938,723.0680317817272
1731306327.3919003,756.4151282831674,763.5398906834469,701.1534671737069,730.4366232783008
1731306327.3958008,774.3847668927315,766.9517986608454,701.9175982508834,739.826943276966
1731306327.3978214,794.5050975679889,772.9954284771732,720.0405637986569,748.1607455680758
1731306327.3997014,810.6864974502151,779.8946447980495,745.3714917173143,752.4336091830769
1731306327.4036016,819.0915785636431,785.696625688083,755.3798888759615,753.1954788748125
1731306327.40492,820.7215339104055,789.1702942855865,729.0580611104425,754.9243980888625
1731306327.4062853,820.1116308550771,790.2687398276186,667.3190182151079,762.8396969564559
1731306327.4075022,821.5763031700284,789.9922662717676,601.0011728164897,779.036833138559
1731306327.4114025,826.3187161161355,789.826250441251,573.7089933259492,801.1250008494421
1731306327.415303,832.5815389645834,791.0322267157716,608.9603604926331,824.0305559590782
1731306327.416679,838.1968230342804,794.0476586349898,689.4963021865972,843.0292129035977
1731306327.4192033,842.9608623621734,798.2442771946187,769.914288681779,855.6451493774704
1731306327.42048,848.7583148079927,802.232248311204,813.9728564121249,861.6707332061326
1731306327.4231038,857.6031223871329,804.6264268029425,823.1648681092552,862.2766414174607
1731306327.427004,869.5987859563212,804.8159020667213,830.0940862972874,859.395093601861
1731306327.4309046,882.65411302153,803.1797079824655,863.7263504357015,855.5074939647178
1731306327.434805,894.0018957897296,800.6064533145079,920.3001687568589,853.1728212325054
1731306327.435536,901.9827342187292,797.8065091326131,966.9116077907868,854.0394659626669
1731306327.43604,906.5831759814932,795.1094198910785,972.3682660222839,858.0437060955701
1731306327.4387054,908.5687130696673,792.9083522641265,934.6256270944568,863.6741751502882
1731306327.4410417,908.267683951926,792.1206644013333,879.5453731342099,869.1996969229507
1731306327.4426055,905.1080522886677,793.8585901138501,834.4356588049126,873.6919023298384
1731306327.4465065,898.1695628649054,798.3002068615943,803.4416883193351,876.8441570284272
1731306327.4504066,887.2540808969533,803.8089757089875,768.7786392674537,877.9892709032385
1731306327.4516,873.7690021610017,807.4741659869278,715.9897274236687,875.8106453708683
1731306327.4543073,860.8204722743459,807.0448042163164,657.3866294369176,869.5562695851931
1731306327.4543934,852.1487089286588,802.7626490871006,628.3221970830059,860.5980887072656
1731306327.4582074,850.1617088566229,797.4214925708992,656.435132490659,852.2392911459361
1731306327.462108,854.2660363668626,794.4463234335944,731.3776095217636,847.2772229854988
1731306327.4660082,860.987509870477,795.5246580666916,805.1669784598517,845.4942146913702
1731306327.46716,866.1636166580172,799.6359326987387,826.5483955969651,843.8007147511904
1731306327.4699087,867.5527338898105,804.0001563282569,780.7456599705338,839.1593371825224
1731306327.4732506,865.5936762173772,805.9190104545527,699.7006525909886,831.3900860306379
1731306327.473809,861.7332623317526,804.1271417456234,634.1784530269856,822.9692539416294
1731306327.475798,856.1541654491201,799.0931790111156,613.106597914676,816.0963355289392
1731306327.4777095,847.3220880285148,792.5845216532662,625.3899595031752,810.1734002908483
1731306327.4816098,833.8604446855239,786.9395377535085,637.1773935064858,802.3493171494233
1731306327.48272,816.8499702842233,784.1674495054355,625.2598403086486,790.5531901911479
1731306327.4855103,800.1781344084424,784.9685935828721,595.0310684597995,775.9056729664414
1731306327.4894106,788.3613894953246,788.1683876231247,569.1236876863619,762.0576658110485
1731306327.492108,783.503406814902,791.2179587110106,561.8418825829408,752.0409531935235
1731306327.4933112,783.7867358742864,791.7643736290769,566.430009000091,745.5838074423898
1731306327.4972117,784.6929021419844,789.252517201071,566.5818989674452,739.3569052878815
1731306327.49828,782.0613336497872,785.2150704412568,557.7053551201162,729.8700219550118
1731306327.501112,774.697820722927,781.9054606238874,554.2157989256043,716.3554528377074
1731306327.5050125,764.5919406565858,780.4234873077792,575.2473573410473,701.103698896277
1731306327.5089128,754.7055837490632,779.9867742444403,624.4713085343017,687.1524510200587
1731306327.5105546,746.2637652538181,778.9238434664112,685.08712105159,675.6645668162907
1731306327.510965,737.8375704070675,776.3325963506279,733.8072502880076,665.4857375202312
1731306327.512813,726.9153283992688,772.7848214190697,757.9793635794844,655.1255430080221
1731306327.51384,712.5125676653755,769.4984137239926,759.3400562788569,644.969892383266
1731306327.5167136,696.5608459444903,766.9566163216725,744.9143335268471,637.3638145450888
1731306327.520614,682.9821880098656,764.4583905604235,719.3323476529563,634.4976528488342
1731306327.5245144,675.3423333907047,761.0655600212713,688.0285128101493,636.3774248604501
1731306327.5284147,674.9567497709996,756.934474597741,664.577594083377,641.0062849772855
1731306327.5294,680.5687762948569,753.586676593845,667.8073794444545,646.4030686241509
1731306327.5298226,689.245863204451,752.71371207555,705.088395191152,652.0649755096315
1731306327.5323153,697.4977419184944,754.5736634285826,756.2886247991624,658.2626136385968
1731306327.5362155,702.1574263296998,757.486618089479,778.1927606099866,664.2106579910167
1731306327.540116,701.2437173084106,758.9756072327039,733.4092001642094,667.5710153674667
1731306327.5440164,694.9049128064366,757.6641528313728,623.7634755621241,666.2661613143009
1731306327.54496,685.9153886428647,754.4131861319036,498.8634574468422,660.9042057767446
1731306327.545311,679.0083530896809,751.8166100043875,427.40751422796933,655.2498439798308
1731306327.547917,678.9696740226526,752.4412222362189,449.8848806894355,654.0343051181849
1731306327.5486798,688.3803387782351,757.0638554750306,550.0951705759879,659.9656893490228
1731306327.5518172,706.3464153996056,764.0661304784197,670.6352413690834,672.474355139733
1731306327.5557177,729.0338146584644,770.3025092399482,760.7313923501032,688.9967846901252
1731306327.559618,751.6357373349459,772.8253903339894,814.1966028062727,707.3238329130264
1731306327.56052,770.4737946582304,770.4276123054408,861.7749747761702,726.8825630893998
1731306327.5635183,784.0315157698467,764.2054493847261,925.1221188371509,748.1532474676576
1731306327.5674188,792.6752467253774,756.9695223109397,979.9598690121597,771.1901739016945
1731306327.5675373,797.7203657025661,751.9152367075455,970.7276822257556,794.7196747425937
1731306327.571319,800.6219678593767,751.2443384041692,868.5362513124417,816.3829118426697
1731306327.5752196,802.5603682231,755.3571102488331,716.7674106921874,833.613480577664
1731306327.57608,804.2894646266718,762.9022866115447,613.6046236483826,844.4361921646719
1731306327.5791202,806.134929499224,771.5537165713572,637.5165307770004,847.9845336698211
1731306327.5800674,808.1218625771161,779.0745061229067,778.1166715894225,844.9317394473728
1731306327.5830204,810.1588179356719,784.1521241994278,936.3706174195299,837.8701219518902
1731306327.5863943,812.1706601509858,786.6506282402964,999.9250025184601,831.2172541341615
1731306327.586921,814.1392804799964,787.254836426085,932.1887585428976,830.0634900392016
1731306327.5908215,816.0834508735146,786.8256822698169,798.7774850412533,837.9268227037571
1731306327.59164,818.0264653234981,785.9335039487448,707.7604764100337,854.4821409509824
1731306327.5947218,819.9791924575924,784.852673176515,715.6436127349924,875.0516606999445
1731306327.5986223,821.9404850775846,783.9046691894022,781.9762424366836,892.9070126998546
1731306327.6025226,823.9048408241337,783.743933234713,812.5328950649871,903.3112264243132
1731306327.6052518,825.8684079646542,785.2285906840118,751.0783821900467,906.4360486578154
1731306327.6064231,827.8305319769986,788.8698241310788,635.2533541983665,906.75457925861
1731306327.6072,829.7924203779136,794.2540400209531,565.1307261897789,909.217592867504
1731306327.6103234,831.7554033595536,799.9745245538991,613.6623259677809,915.2021827133123
1731306327.614224,833.7201076179318,804.3118432723285,761.0388057071788,921.4713515171624
1731306327.6148236,835.6865393990989,806.2995647631965,910.9297462102884,922.9666829408254
1731306327.6181242,837.6545072067568,806.3881206026542,970.5922848081816,917.2167470894351
1731306327.6220248,839.6239265447514,806.1349347332872,921.8086740227072,906.8993954638794
1731306327.62276,841.5948819386078,807.1117004443848,824.0347759340002,898.5062794932697
1731306327.6241093,843.5675423150888,809.8638064929157,755.314958594654,897.980042550213
1731306327.6259253,845.5420631038232,813.6828765178373,748.2170883840349,906.4827663946535
1731306327.6298256,847.5185460653832,817.2435917187246,774.1680540885588,919.4402439100769
1731306327.633726,849.4970603633743,819.4809859179535,780.9244596803742,929.6135237630994
1731306327.6376264,851.477692587382,820.0329586405923,742.002507358997,931.8967337465214
1731306327.63832,853.4605810266725,819.1044536658274,673.1462676779889,926.2458743287609
1731306327.6415267,855.4458906082233,817.1395844663614,607.8686447891554,916.729944191583
1731306327.6429665,857.4337123894636,814.7000577767168,563.5347570975786,907.8372360334403
1731306327.6454272,859.4239429127229,812.5227634154883,533.5710401944989,901.2029818447586
1731306327.6493275,861.416288198757,811.4197181071886,509.32848804744214,895.2571529771187
1731306327.64958,863.4105446890247,811.8707117618922,502.4354474905499,887.6753325241643
1731306327.653228,865.4071118817153,813.6181107484513,539.3089667142265,878.1953492946794
1731306327.65388,867.4072984137863,815.7398780281945,631.41808919341,869.2028111125776
1731306327.6571283,869.4127040837983,817.2923012718827,752.9578360880508,863.5841639684704
1731306327.6610289,871.4233516403566,818.03193253269,852.0151138661138,861.9136158559286
1731306327.6618235,873.4356260189052,818.5620508190127,888.0899273376435,861.7617368317193
1731306327.6649292,875.4427610070464,819.7340313489287,862.1500589256234,859.9811359677137
1731306327.6688297,877.4405446387304,821.8352124386313,811.8797421378504,855.9319406462823
1731306327.66944,879.4368717628993,824.31625542745,777.5049904295968,852.553260686506
1731306327.67273,881.4563598311533,826.3051813484607,770.4155257426077,854.0941537226604
1731306327.6766305,883.5267665579422,827.4014372588182,772.3559200166915,862.3836699076105
1731306327.6805308,885.6428052875887,827.9750188747342,762.3937911938964,874.8114868261302
1731306327.6806812,887.7299508867493,828.6726546908978,742.1892230321954,885.6371932640977
1731306327.6843364,889.6607590103727,829.6062423183429,733.1821210383553,889.5155448277525
1731306327.6844313,891.3693908720805,830.0490361273725,749.0363057960029,884.6338602757869
1731306327.685,893.0273772718936,829.0444847837584,773.4456601474196,873.4557757303493
1731306327.6883316,895.1040269423,826.4659305848531,769.5836487898994,860.8331532316226
1731306327.692232,898.0634911994704,823.5192644613651,715.3036047006053,850.8803698462442
1731306327.6961324,901.6348773510787,822.0372778933372,629.6810582247298,844.7133788688509
1731306327.6995385,904.0824132280288,822.9756919198785,562.3672767138845,840.5860356919202
1731306327.7000327,902.3421101429119,825.3473281922156,553.7459748015212,836.2501588312625
1731306327.70056,893.5910245620254,826.5908208326274,603.8075223863551,831.5774857365651
1731306327.7039332,877.58316580178,824.2168336995869,678.9061940289106,829.1490417367644
1731306327.7078338,857.9541037929994,817.5351081627413,746.9398374403398,832.1580460701689
1731306327.711734,841.0381815557562,808.2203083658944,803.8177677285072,841.2556455454597
1731306327.7156346,832.5558139019366,799.3670849739151,865.6608930788614,852.8979787586856
1731306327.71612,834.2744584798436,793.7221733403804,938.1257048316526,860.6279666836216
1731306327.7183957,842.9195538798764,792.2237143660585,997.6216335245472,858.6212407592284
1731306327.7190928,852.0945392653213,793.6661818724391,1006.3600994140479,845.2990958537156
1731306327.7195349,855.956297513541,795.5862874287284,948.2735575552134,824.6519957715768
1731306327.7234354,852.293038508458,795.7861365950752,850.3144706145456,804.1337851023266
1731306327.7273357,843.1331273731128,793.586679206887,765.5796875357047,790.145257835918
1731306327.7312362,832.7276953791237,790.0822146257677,730.970126455409,784.0980023535844
1731306327.7316802,824.5296010324892,787.2903248976162,738.519757233986,782.1167503758876
1731306327.7351365,819.3187223297467,786.8056267881067,748.860988019137,778.8384787104166
1731306327.7372532,815.5071139635535,788.8545558014682,734.9882422038569,772.2525754956956
1731306327.739037,810.9152512056105,792.2867382452887,712.8920931097296,765.3720605462241
1731306327.742937,804.4307663175609,795.3505564771109,725.9697404305548,763.234207467186
1731306327.746838,796.4702533521909,796.6491594430684,795.5502965393748,768.018255784392
1731306327.74724,788.3328842572458,795.72841920611,886.5010057615025,776.8191837141317
1731306327.750738,781.3093262795304,793.121244441122,926.1147850890429,784.0532910246122
1731306327.7538493,776.3127449337575,789.9971161204672,864.050071482453,786.0945216173703
1731306327.754639,774.0822607982196,787.651107451982,719.7664728331937,783.824074180297
1731306327.7561104,775.3574539322526,786.9966048250567,572.6018925218567,781.0493501723765
1731306327.758539,780.469688655519,788.1861635256944,500.6248017086483,780.7726285692263
1731306327.7624395,788.5481239937538,790.5254718949257,520.281485228663,783.0498247867105
1731306327.7628,797.2156987721727,792.8167677164698,578.3299065493833,786.120662968292
1731306327.7663398,803.4266210360379,794.0232683260792,601.6477803180549,788.9767783260342
1731306327.7702403,805.0816396555441,793.8190475847583,559.9806883974682,792.2995219750402
1731306327.7741406,802.2646499628603,792.5683430132348,486.4207078357392,796.8787280332838
1731306327.7749677,797.1768603549933,790.7560500072303,439.948360452317,801.5986993093727
1731306327.7780411,792.8521038654668,788.4699643891397,447.7863050936529,803.5148460685562
1731306327.77836,791.5804410037454,785.5348204169491,482.681864348079,800.1507688299753
1731306327.7819414,793.9982056355353,782.1802725521258,495.1496642953181,791.762554316484
1731306327.785842,799.1586193326082,779.4222212337722,467.2835345250863,781.4673190938383
1731306327.7886057,805.214870919003,778.5054217970546,434.8453711152556,773.3099759586161
1731306327.7897422,810.1430951242364,779.7357313788488,456.4337715108797,770.023040081087
1731306327.7936428,812.2083756574157,781.8040723484452,559.7280436828723,771.9470447333557
1731306327.7938251,810.2401352428475,782.3949211034752,714.742000730188,777.2459369515897
1731306327.79392,803.8930440078605,779.7324115605809,855.9519713447535,782.8610147157161
1731306327.797543,793.912063549274,773.857556718475,930.3082328332475,785.8795226351797
1731306327.8014436,782.1978458490722,766.6473175119928,929.8276883459728,785.0797851086498
1731306327.805344,771.3935353141927,760.6194241055292,887.3312614992885,781.8419160066034
1731306327.8092444,763.9252405511334,757.4667145374533,846.7464376025686,779.3583925941575
1731306327.80948,760.8781189988969,757.3229974980545,834.6920578575057,780.178225326983
1731306327.8126824,761.4194351707096,759.0662964892613,850.6074939246133,783.8664477351883
1731306327.8131447,763.2595243108033,761.1929592186225,874.1578695014828,786.9812366219957
1731306327.8170452,763.9155821164214,762.5599285128868,878.8419737578695,785.7780955922981
1731306327.8209455,761.9486349795917,762.6420974495038,843.5667626870235,779.5340400733605
1731306327.823362,757.4586635620004,761.4398797611908,760.9626148813787,771.5887424932197
1731306327.824846,751.781728100114,759.3444203487622,643.3895077794068,767.025489000552
1731306327.82504,746.8197239726742,757.0672041779034,523.9290728668138,768.8115722055994
1731306327.8287463,744.3487872008712,755.4814930444844,446.6991510131273,775.6093030169848
1731306327.8315396,745.3500879911512,755.2348729889927,445.6751641878616,783.0513607077735
1731306327.8326468,749.4272916390144,756.2889164342737,523.0404551542657,787.2230903207357
1731306327.8365474,754.6602616150936,757.7953752019125,645.2074233777138,787.2197430056009
1731306327.8404477,758.2471134293188,758.5755146530992,764.4491948118142,784.8394193318666
1731306327.8406,757.8045370236058,757.9541385486377,850.6423735265164,782.4060555357419
1731306327.8443482,752.6698292928257,756.2813778262266,904.5404770890524,781.0788117527338
1731306327.8482485,744.4297173398695,754.6504562857733,940.0910260054027,780.7247602959992
1731306327.850397,736.2056725718325,754.0449918055666,955.9758041452708,780.6982971719375
1731306327.852149,730.856655485762,754.6983938047947,930.2603632801851,780.5236117010705
1731306327.8560493,729.1290779574589,756.1628037212164,848.2941228635441,780.0907544576816
1731306327.85616,729.2815759086985,757.8294132478561,735.5670306425815,779.5141784144936
1731306327.8581183,728.8896189201614,759.3394501984176,655.6561146911614,778.9326569112683
1731306327.8599498,727.5373411591306,760.6459025222251,664.491101932856,778.4083930159774
1731306327.86385,727.8102717321054,761.8586777117131,757.7789483989088,777.9315991562639
1731306327.8677506,733.1870414329527,763.0843653105219,862.848700412741,777.4674825673102
1731306327.8692544,744.3501912289821,764.360855615666,891.0013654841335,776.9920782602657
1731306327.8716507,757.1989100632552,765.6726246538046,810.8773257173282,776.5008918563536
1731306327.87172,764.5319288149956,766.9908296502477,679.1936386002905,776.0004529068103
1731306327.8755517,760.2377090489105,768.2989145267721,598.2498461218084,775.4977998141737
1731306327.8794518,742.9106588333349,769.5959552302974,633.2530840757656,774.9956457510721
1731306327.8833525,716.650879073914,770.8883361183896,759.757282661171,774.4930070275568
1731306327.8872526,689.1385681545415,772.1816080745364,886.6955338082474,773.9877869211967
1731306327.88728,668.5867097914424,773.477510833977,934.1428333273616,773.4785855916723
1731306327.8881116,660.9750245789634,774.7750751532765,897.1873326599771,772.9650461432205
1731306327.891153,668.0933491390089,776.0727898880198,841.7595250344407,772.44735467563
1731306327.8928747,686.6993885858203,777.3698728940382,840.4026263783115,771.9256888197085
1731306327.8950534,709.460430280702,778.6663627479154,907.9113957154174,771.3999896605882
1731306327.898954,728.0820569563147,779.9626460422177,992.85115612386,770.8700176712701
1731306327.90284,737.54749220561,781.2590365723204,1028.1061015637745,770.3354983151253
1731306327.9028542,738.8731967490965,782.5556387182708,991.3913518631409,769.7962142413908
1731306327.9067547,738.1021094575511,783.8524183351677,921.0885622364416,769.2520092572382
1731306327.9069693,741.8037741497659,785.149320896205,876.1600742645578,768.7027398808443
1731306327.910655,752.2180252351286,786.4463404918287,879.9230162890926,768.1482300178998
1731306327.9145555,765.7331452037567,787.7435272216959,899.8613992705032,767.588274668834
1731306327.9184,775.8461756161608,789.0409581860183,880.2270904796418,767.0227094614964
1731306327.9184558,778.1651783253552,790.3386948408895,795.5773402070147,766.451508163922
1731306327.9223564,773.5124915429247,791.6367432192054,676.3638974828352,765.8748026105851
1731306327.9258263,767.0257508111357,792.9350441005492,585.5424068759438,765.2927027904858
1731306327.926257,764.5048003044686,794.233531045763,569.5028781819794,764.704921722914
1731306327.9276311,769.0848473933116,795.5322637694655,626.4000119354687,764.110493942338
1731306327.9301572,780.3496577186513,796.8315512142169,715.2415757436161,763.5081194804824
1731306327.93396,795.6446497438459,798.1318775896909,791.92751449393,762.8974607632682
1731306327.9340577,811.9052570030614,799.433478575495,838.4701079843512,762.2807700232086
1731306327.937958,826.6748678318838,800.7357179596223,863.5943615803396,761.6629199327325
1731306327.9418583,838.2246172356063,802.0369042444762,881.6422186427758,761.0476752770622
1731306327.9446836,845.4433390616813,803.3353965828526,894.4895900383107,760.4306395857401
1731306327.9457588,847.9781880053565,804.632102745144,893.4028510575033,759.7947197141049
1731306327.94952,846.4865850723378,805.9325847496634,874.6046673848989,759.1180423612028
1731306327.949659,842.5276026004491,807.2451908921461,848.0427855193768,758.3993348139325
1731306327.9535596,837.8753146970754,808.5726582285397,827.8891339114663,757.6870493472132
1731306327.95746,833.6337739797375,809.9007303532219,815.2605203475838,757.0748854946502
1731306327.9613605,829.9093100370795,811.1963750155738,793.8694713721869,756.6257254904929
1731306327.9623876,826.4893827540108,812.4309201638903,745.8453569438789,756.2398426386101
1731306327.963541,824.0747152066465,813.6275097168289,672.4401714655689,755.5858052373785
1731306327.96508,824.8487043834008,814.8960890042015,597.7540891215701,754.2800324627925
1731306327.9652607,831.4114238188367,816.388319963663,550.4512237023199,752.3910399307168
1731306327.9691613,844.476287543775,818.1311360151452,540.7771423846045,750.9882539986464
1731306327.9730616,861.1762052102588,819.81802049687,554.5716205307226,752.0649589532069
1731306327.976962,875.8416609390772,820.7806715686967,568.2600890752457,757.3271121719921
1731306327.98064,883.2403032812973,820.3152749312255,568.1349780178012,766.4655150010495
1731306327.9808624,881.9607240181442,818.2008761450084,555.3460917702597,776.6589867998745
1731306327.9823985,875.1545220723177,814.9524575609194,535.7995481782713,784.3385730964238
1731306327.984763,867.9719495479644,811.5151156413154,510.9821627267002,787.8852221789522
1731306327.9886632,863.8755033185402,808.6152889911477,482.63957317118775,788.7137475330869
1731306327.9925635,862.8318639961793,806.3211380884168,465.0782654539832,789.6836218390421
1731306327.9962,862.429392046917,804.2029067520011,485.9277590229944,792.3298173060522
1731306327.996464,860.3575248559156,801.9564848025851,565.8674702266943,795.4787635533828
1731306327.9971435,856.0040428486947,799.9154647066954,692.1148418448892,796.5310685280962
1731306328.0003643,850.4175179891747,798.9528403061864,813.5891677093173,794.2821646061232
1731306328.0012555,845.499900299615,799.833940136051,870.1331926346111,790.7208747150996
1731306328.0042648,843.3537496539678,802.597452554699,835.4723582069803,790.003829696536
1731306328.0081654,845.714509364024,806.4956523447308,736.495575705207,795.1352184453896
1731306328.01176,853.0205027129982,810.4810705473358,631.0404369513341,804.9215315004195
1731306328.0120656,863.48460070659,813.7652946322478,565.3505445178321,813.8610620865352
1731306328.0159662,873.3341602144717,816.0383378727857,549.0769581017347,815.5579688906504
1731306328.0198665,878.7917499163369,817.351210740892,563.0545942548487,807.484947165192
1731306328.020113,878.649597373327,817.9160340405328,582.980047347563,793.5928065202861
1731306328.023767,875.2694874987087,817.9627992156976,595.6119899562873,782.5484853507467
1731306328.02732,872.8760811999845,817.6020097716,600.1149474072981,782.453431188505
1731306328.0276673,874.3536638949275,816.6911643126252,601.3054227697821,795.4895741578837
1731306328.0315678,879.177414781509,814.8745378395612,603.3539480064353,816.1199577340046
1731306328.0319002,884.1716745647707,811.9106155270827,607.5260923906804,834.1102622877543
1731306328.035468,886.3124310197487,808.080685587718,613.0410404258596,840.4444548871494
1731306328.0389702,885.0612465086626,804.2669703853967,618.7239693058087,832.3818738187043
1731306328.0393686,882.2818334591453,801.5119189214334,623.9639956214983,814.5806886113702
1731306328.04288,880.0500352997095,800.3435038107593,628.7740533050079,795.8218674090815
1731306328.043269,878.5155045632728,800.402399917982,633.4270113088268,783.6509791747244
1731306328.0471694,875.7775160074518,800.6952544175945,638.1369064026351,780.4207677836918
1731306328.0510695,869.8006112145797,800.3191454827137,642.9587111908309,783.0429707413307
1731306328.0549705,860.5770710506714,799.1378888713226,647.8446543000634,786.1163413645826
1731306328.0578277,850.6498392707103,797.898086456598,652.7326361789011,785.9215341766807
1731306328.05844,843.6268294398574,797.6620172858367,657.5931854485613,782.5576508091988
1731306328.0588706,841.9155020684109,798.9611969574794,662.4292381731783,779.111824662157
1731306328.062771,845.2793470787067,801.3304873984927,667.2557661327303,778.8097871198555
1731306328.0666566,851.0076612307987,803.5969262547941,672.0834905993712,782.2780264369965
1731306328.0666714,855.4346124140721,804.665039449026,676.9145874375802,786.8634749477176
1731306328.070572,855.9222819440811,804.1328517978882,681.746298682449,788.5644958857843
1731306328.074,852.2618427526379,802.2823774127141,686.5756769119149,785.2148301535489
1731306328.0744724,846.6481856814182,799.5964892924447,691.4016752487204,778.40428053119
1731306328.076685,842.0762433141269,796.348779498804,696.2244800870706,772.4060341481204
1731306328.0783727,840.1036511406683,792.6317833558468,701.0439054224457,770.8611227946415
1731306328.0822732,839.6526283984402,788.6787080051608,705.8587905135787,774.0819388960399
1731306328.0861735,837.9756324013055,785.0501565215554,710.6683564439143,779.4134937515704
1731306328.08956,833.1941961126514,782.4533011055781,715.4747744972834,784.239963268334
1731306328.090074,826.329013378741,781.3538853886165,720.2842520067946,788.617604671837
1731306328.0939744,820.9321164872271,781.7025225340097,725.1032233598208,794.8305695013024
1731306328.0955422,820.3568483187013,782.9480140926993,729.9290410226065,804.2302757411943
1731306328.0978749,824.8006695942504,784.3074910787321,734.7416282681428,814.5562887128393
1731306328.101413,830.6770399919775,785.1793835665763,739.5095339184313,820.7402683117883
1731306328.1017752,833.0978452702756,785.5393012050497,744.22061933954,819.0473052916517
1731306328.10512,829.6367861758266,786.0776317091013,748.9253716566872,811.1300976650404
1731306328.1056757,822.2875516878656,787.8593399687767,753.746600327484,804.143989143329
1731306328.109576,815.8178821211782,791.5547524247827,758.7968332024926,806.0672121257145
1731306328.1134765,813.6508830684234,796.6691742913395,764.0010608483407,819.4292572618084
1731306328.1143994,814.617937683903,801.3584242210047,768.956923254492,838.3826078594499
1731306328.1173768,813.4874365132204,803.1589575541279,773.0851511055884,851.8501031857797
1731306328.12068,805.2014166803281,800.3771595381563,776.2362787277692,850.8803588319308
1731306328.121277,789.5204650367721,793.3015840207372,779.4759393375346,834.8920034038726
1731306328.1251776,772.0716323519116,784.287882951764,785.1410716593405,812.0666229408835
1731306328.129078,760.5557244517962,776.4306165200519,795.1089824016626,793.6227933243871
1731306328.1329784,758.9997382457478,771.6596215549648,807.3965453742983,786.5645449484973
1731306328.133257,764.7955784013968,769.7124262686817,813.7311777567745,790.4891142587621
1731306328.1361694,771.0138997520068,768.8064805763735,802.6462582870882,800.1904166055634
1731306328.13624,772.0212379188779,767.3981837945688,770.1066899766759,810.7558981005395
1731306328.136879,767.687798915765,765.4861765376827,730.9259854652064,820.37111409033
1731306328.1407793,762.7947912552189,764.381007455835,716.7123375058859,829.1287205527974
1731306328.1446798,762.4087846942209,765.2804740909476,753.266198195717,836.2827274219006
1731306328.14858,767.3666613994633,768.0300445119457,832.0111589009462,839.4565163497264
1731306328.1518002,773.701956036155,771.1752993244382,903.7821522212763,836.6682843536033
1731306328.1521142,776.2035365969309,773.1584019354752,909.211573945191,828.807163046494
1731306328.1524806,772.7050183580067,773.5041793696817,827.0209927159044,819.7535084320198
1731306328.156381,765.39702299453,772.9873357660599,700.3545317303025,813.8518586983413
1731306328.1602814,758.4499712039789,772.8051697792865,614.1182090037386,813.0369454314359
1731306328.1641817,754.4928819881461,773.6326432066446,635.5337080620765,815.9953577941006
1731306328.16736,753.0710564008814,775.3537383344952,763.1748398661574,819.643207241637
1731306328.1680822,751.9910876306008,777.4836065920491,926.4391253517218,821.3360846238561
1731306328.170926,749.8526059052971,779.675301583174,1037.6994570209092,820.2303187593616
1731306328.1709714,747.3668218641824,781.7926393791992,1055.8807022940714,817.4169357574809
1731306328.1719823,746.4951779334542,783.606274913228,1010.5176503050986,815.225853486731
1731306328.1758833,748.4443275932731,784.5974385037616,968.6474619290967,816.003121903753
1731306328.179783,752.4347748810679,784.2324075603183,975.0785830767575,820.6135815903781
1731306328.18292,756.3634204630184,782.5475617888387,1017.9317697032284,827.4564791740006
1731306328.183684,758.7731345774184,780.477845775386,1046.9340698203928,833.0640387893819
1731306328.1875842,760.3626124515836,779.4971535582043,1023.7980556548962,834.3895640318535
1731306328.1898289,763.620530834611,780.7383762557487,956.4099845872634,831.2425177896469
1731306328.1914847,770.7565572039557,784.260836527751,886.483700821158,826.7754933081642
1731306328.195385,781.5520467614209,789.030478911318,845.4181861890893,825.3653340110852
1731306328.19848,792.85064534937,793.5732554060994,822.2209079156419,829.4571695092802
1731306328.1992855,800.1665065084778,796.7572830426617,774.6156335843406,837.8655666674244
1731306328.2031858,800.3770700223552,798.1965200446894,673.6383434905862,846.8089729632833
1731306328.205682,793.7578210364139,798.1859042849889,540.8584716892987,852.7156533882661
1731306328.2070863,784.0248164771532,797.3903788763316,442.82400821038436,854.4924455934045
1731306328.208686,776.2331943219357,796.5015296790518,443.9739948776923,853.535505012405
1731306328.2109866,773.7252596245961,795.9486004422332,555.6260331953033,851.7343687639665
1731306328.21404,776.1044891096915,795.740778763307,723.5841953957344,849.4341507294564
1731306328.2148871,779.7627539920301,795.5629642855388,865.2934967729406,845.3046500289395
1731306328.2187874,780.7769428035646,795.140249303621,925.8207141255226,838.254526243077
1731306328.222688,778.1138930614018,794.6353982858413,907.2233918564666,829.4889530184113
1731306328.2265882,774.6553204642987,794.7209908952555,851.696866064657,822.4763494610447
1731306328.2275434,775.1631130435932,796.1773292550383,800.400114060276,820.441094260399
1731306328.2296,782.6946027799972,799.2660080513012,766.996750197432,823.4381478030617
1731306328.2304888,796.1462376840494,803.3528512043774,743.6167181076737,827.7817852789995
1731306328.2343893,810.6797191716411,807.0896818685811,722.8301431168078,828.7106133795476
1731306328.2382896,820.644403329583,809.0557790384646,708.0829796999844,824.1943162923294
1731306328.2404385,822.8996231682704,808.4547720164985,704.2637463600886,816.4915020074013
1731306328.24219,818.291718652271,805.481862427732,704.5165349856334,809.939211157812
1731306328.24516,810.4606643375837,801.2319798258326,692.2445749629122,806.9827374071145
1731306328.2460904,803.104801560545,797.2549064301481,658.1945372012865,806.2364164337813
1731306328.2464008,797.8657036898479,794.9422402487636,614.3862479215002,804.4498118224442
1731306328.2499907,794.2761376774237,794.9340400467224,588.799129114853,800.3582935730373
1731306328.2538912,791.3404130886888,796.7681461627994,603.9101737073182,796.3950569232992
1731306328.2577915,788.9758820877281,799.0058279247066,658.2339582734332,796.2733976750679
1731306328.26072,787.9822536661039,799.9054261005358,727.1328798401964,800.6490947817836
1731306328.261692,788.8985011261472,798.3772020527107,781.0539253150804,805.274198601456
1731306328.265258,791.2106971773458,794.6685999934238,804.4092432343034,803.8863148768958
1731306328.2655923,793.7389632785191,790.287381749817,800.4209807469624,793.4876989469248
1731306328.2694929,795.5928863663981,787.1326145210026,782.127724252968,777.1705628541088
1731306328.2733932,796.6435414385276,786.3784448012531,761.0963573301891,761.8104889347692
1731306328.275195,797.2680686250736,787.8795051560451,743.0969977334076,752.7165546568732
1731306328.27628,797.8705291280678,790.5045789710017,729.9834385432358,750.064200967193
1731306328.2772937,798.6287024071988,793.1071413633778,722.0348244975933,750.1144934480575
1731306328.281194,799.5167493792198,795.3564417189882,718.3960277181243,749.7415894388264
1731306328.2841153,800.4389661422081,797.762935062196,717.2411962241682,749.8471484384754
1731306328.2850945,801.3298840238506,800.8662286288028,716.7058698437559,754.373539135179
1731306328.2889948,802.1780643182354,804.2626529360635,715.7508080993084,765.7210918158553
1731306328.29184,803.0024567938013,806.3801068165556,714.2357335318119,780.8266141304593
1731306328.2928953,803.8232154543333,805.3694178306805,712.4602184651441,791.8755776840883
1731306328.2967956,804.6483913283431,800.4969691812444,710.7145623639508,791.6489641261046
1731306328.300696,805.4757721993353,792.8573165828748,709.10003747605,779.2651132106151
1731306328.3029728,806.3000859076269,784.7211781059054,707.5721763705825,761.4830558697092
1731306328.3045964,807.1180090983518,778.0231461897696,706.0512376400209,748.4464270883861
1731306328.3074,807.9291034111599,773.2336830094431,704.491989961397,747.3419179142971
1731306328.308497,808.7344162272009,769.4422461408473,702.8922335316875,758.7542665578718
1731306328.3099513,809.5349515524405,765.385182423518,701.2696085739249,777.7249349839055
1731306328.3123972,810.3310400187902,760.4686445556376,699.6392451441062,797.7036147771009
1731306328.3162978,811.1224888336428,755.0856121275724,698.0057333632853,814.1241928448239
1731306328.3201983,811.9089741354728,750.2602822104411,696.3662642323827,825.6997574251028
1731306328.32183,812.6902943280837,747.0921414575437,694.7166097656791,833.5833628293501
1731306328.32296,813.4664069749721,746.3361166580805,693.0545889442062,839.4932252141252
1731306328.3240986,814.2373480622683,748.1238440350274,691.3802892242948,843.917626928681
1731306328.327999,815.0031444783367,751.7746933169665,689.694753784248,845.4212478354293
1731306328.3318994,815.7637693393956,755.850323038335,687.9988228929002,841.7049002561527
1731306328.3358,816.5191424176189,758.6639903083898,686.2927562254702,831.889315089779
1731306328.33852,817.2691681199535,759.1430647698173,684.5764252193529,818.1994370748533
1731306328.3397002,818.0138032249889,757.5328072087913,682.849648932415,805.365263969966
1731306328.3406873,818.7531221242518,755.372081327739,681.1124206561649,797.9097886093717
1731306328.3436007,819.4873039471921,754.6057262729539,679.3649756125487,797.3748628448723
1731306328.3447075,820.2164632834488,756.3290523938668,677.607713144244,801.6178461375046
1731306328.347501,820.940358732633,760.0112619431045,675.8409708260374,806.5969995969566
1731306328.3514016,821.6582345098865,763.7997459106192,674.0647061652235,809.163371667737
1731306328.35408,822.3691985905992,765.7615390028683,672.2783315094326,808.7866838389346
1731306328.355302,823.0732995130726,765.1993284860465,670.4811022211401,807.0967340185838
1731306328.3592024,823.7726647387893,763.0896571396685,668.6732337401985,805.797914841871
1731306328.3595448,824.4711284502291,761.358211642307,666.8571140310692,804.7658840219697
1731306328.363103,825.1708860348582,761.5917835813658,665.0369918258122,802.0445625088369
1731306328.3670032,825.8670932546579,764.1445859937787,663.2155751442514,795.8866762526783
1731306328.36964,826.5455317388372,768.176819232328,661.38838174943,787.0287649252214
1731306328.3709035,827.1907934628861,772.4082938801508,659.5410672072904,778.8863766492999
1731306328.374804,827.8070143755452,775.9308539649998,657.6575625820706,775.093537424476
1731306328.378402,828.437583989152,778.5531769942908,655.7415317853767,776.3665049159954
1731306328.3787043,829.1535753099186,780.5963930155082,653.837626037116,779.5516426605558
1731306328.379464,829.9854654124605,782.4228431128206,652.0213684494297,779.9230019007255
1731306328.3826048,830.8198528370191,784.0668874316135,650.3307566798728,774.9311097106721
1731306328.3852,831.3577298920186,785.1885976061205,648.66168798876,766.295818698907
1731306328.3865051,831.2546274322556,785.3385112710675,646.7312012114072,758.7283277944252
1731306328.3904057,830.4124968491102,784.344975080748,644.2518265714791,756.3789375368686
1731306328.394306,829.1006608697729,782.5828003084173,641.3433102287693,759.894515343784
1731306328.3972592,827.591882107533,780.944415247699,638.8970824836208,766.2960218744632
1731306328.3982065,825.6345565049503,780.4786945966686,638.2978950068543,771.489888611407
1731306328.40076,822.5754869429683,781.8532046273957,640.0451229370684,773.2217277014372
1731306328.4021068,818.271390123544,784.9475486993185,641.7893219901378,772.2243524218379
1731306328.4060073,813.7351412732164,788.8601606219294,637.7734443347058,770.9953481242214
1731306328.4099076,810.4869646800827,792.3581984341733,621.9892613279823,771.5245994416549
1731306328.413808,809.0623707993083,794.4872060624309,594.4400134412765,773.8905583697174
1731306328.4142203,808.3099899023556,794.950635025556,564.9802538281097,776.6438573831055
1731306328.4161167,806.4445557987627,794.0598500057623,548.643294817988,778.3175450249096
1731306328.41632,802.9158349031816,792.365526078714,554.056250370233,778.6417144910021
1731306328.4177084,799.1400506451852,790.2663433283894,575.361029058861,778.570315449358
1731306328.4216087,797.2240194599265,787.8600145200837,596.6190629468036,779.3170511171476
1731306328.4255092,797.9097936313326,785.1218163116873,605.472951618441,781.3011522734071
1731306328.4294095,799.8622687419623,782.2697395583066,602.4159891534903,783.8680729948348
1731306328.43188,801.1057343304983,780.0043926722094,595.4541550640034,785.9479150703911
1731306328.43331,801.1789599230989,779.326832144908,585.4319494534107,786.9438110671703
1731306328.434974,801.7408242070753,780.9229399929555,559.4216275715968,787.0180620656546
1731306328.4372106,804.8646847805218,784.5175201891943,503.8481328112125,786.7125603112138
1731306328.4411108,810.6290049356651,788.7700643793406,427.98592017058996,786.4614753835792
1731306328.4450114,816.4252231607832,791.937405017778,372.61589671942835,786.403385266126
1731306328.44744,818.8141410185679,792.8861119446789,387.4748753958444,786.4703609478286
1731306328.4489117,816.3504838184571,791.7016512363742,490.8352703886494,786.5504603430765
1731306328.4489768,810.8924879137004,789.4720607423379,647.0247654871005,786.5835045907328
1731306328.4528122,806.269769356632,787.5062623834194,787.0704606013921,786.5693933468473
1731306328.4538312,805.4297094756737,786.6244609495144,859.3461710443672,786.533976102568
1731306328.4567125,808.3494797488066,786.942921426,866.8036637972449,786.4981167306413
1731306328.460613,812.2683550451599,788.0873992241235,856.7581094857946,786.4674964260241
1731306328.463,813.935980030531,789.5038069580902,872.2322183064244,786.4377138423824
1731306328.4645133,812.1016735610568,790.6485093601191,910.1144539599532,786.4027775371053
1731306328.4684138,808.4262862186993,791.0923033038077,925.3650085057703,786.3597514327339
1731306328.472314,806.251578282887,790.6560411006388,877.3274451234199,786.3088443355684
1731306328.472689,808.1750244597328,789.557816053157,774.713231931998,786.2514849626724
1731306328.4762146,814.1034823735662,788.3949550715031,676.5963381872584,786.1887335158566
1731306328.47856,821.0542016401238,787.8262870756467,646.2327689139878,786.1208306510968
1731306328.4801147,824.8285643684978,788.0709839308358,696.9209913101685,786.0475184791597
1731306328.4837332,822.5165407344141,788.5876561936606,777.6691710204955,785.9684947582757
1731306328.4840157,814.2467437990593,788.2829979573906,813.636990493953,785.8836410153012
1731306328.4879158,803.0336105587011,786.2493591586441,768.9540013449334,785.7930073237114
1731306328.491546,792.8401610643103,782.5735339644291,677.8182542133883,785.6966940438118
1731306328.4918163,786.285515905985,778.587420180464,614.966504598303,785.5947566782294
1731306328.49412,783.7042345566562,776.259098163642,629.8641728220234,785.4871864134614
1731306328.4957166,784.0802494200657,777.0450312096773,703.2047450164516,785.3739621953026
1731306328.499617,786.6598240274433,780.9532048851049,765.669795142561,785.2551365699941
1731306328.5035174,791.4606061166595,786.4503110333254,761.9118603282157,785.1308864817954
1731306328.507418,798.1352496993198,791.2704511674873,700.5783392582906,785.0014421201928
1731306328.50968,804.5218642440071,793.5947983581004,644.7970019340419,784.8668575117059
1731306328.5104032,806.772028237063,792.8953810445734,653.7228616294424,784.7267497146162
1731306328.5113182,801.5410550819519,790.0317387270695,730.0326918177691,784.5803372134017
1731306328.5152187,788.673902263839,786.6597995299813,819.6212729776222,784.4271115626027
1731306328.5184896,772.0771007791229,784.329583121348,859.582951003543,784.2680031623763
1731306328.519119,757.7740397626006,783.7214551141421,828.0510311541854,784.1060026767326
1731306328.5230196,750.3958452895199,784.3837835857594,752.7968184627572,783.9446143275344
1731306328.52524,750.634834419382,785.1316692875772,677.6312388838708,783.7835144163435
1731306328.5269198,755.4275891877896,784.9308619249806,624.2378561238675,783.6140189923462
1731306328.5292606,760.5286404872003,783.7309987642118,586.0970189272684,783.4206960032062
1731306328.5308204,763.4254505209204,782.6213983579988,554.6753700124244,783.1949300252401
1731306328.534721,764.5156439823685,783.0853210155303,544.3726120890584,782.9565798867259
1731306328.5386212,765.9849768304433,785.8386882791258,585.6724710793098,782.7629934850327
1731306328.5408,769.5865981834343,790.1721470734761,691.3502849472676,782.6755421351389
1731306328.5425217,775.1517739255248,794.3937937687535,831.0817879116985,782.6760891571653
1731306328.546422,780.8036564841964,797.0726849944539,943.5203155083918,782.588770109024
1731306328.548118,784.4101171547361,798.0876673173026,978.5382117424624,782.1289531750352
1731306328.5503223,785.063798472734,798.6411413110061,933.2918928660425,781.1803453203523
1731306328.553246,783.6968172117026,800.2633126556116,852.1992020428429,780.210612769157
1731306328.5542228,782.6441193312436,803.6202740347326,793.6875978419382,780.4375390873373
1731306328.55636,784.3784229677208,807.9993204020737,792.4928555622039,783.2731272652707
1731306328.558123,789.8556228067717,811.7407629583298,843.9082215664563,789.0829500515803
1731306328.5620236,797.290683450739,813.2071299496246,914.1342217934764,796.1947123611997
1731306328.5659242,802.427254212606,811.6314899362412,962.598260725259,801.3950692023747
1731306328.566975,800.7368718803372,807.4167139142606,961.1296909001809,802.1700023695704
1731306328.5698245,790.4892857742319,801.8706387493959,904.5566799419919,799.2407200538561
1731306328.5719202,774.4786425059777,796.6386629111087,813.5261190257584,797.026092177808
1731306328.573725,758.7409846113256,793.125676806545,728.6474693584273,800.8030047973755
1731306328.5776253,748.8486124931146,792.0927821613567,693.4903768936931,812.1922009696723
1731306328.5815258,746.529252043905,793.5158050501612,730.5804612032293,826.7209095140431
1731306328.585426,749.3150065641411,796.7166420462411,825.0582725371281,836.087629379979
1731306328.5858326,753.406388781022,800.6704466982501,931.5347833915056,833.8386633931221
1731306328.58748,757.1271740238781,804.3045766243604,1004.0691435584845,820.0436099355251
1731306328.5880024,761.9030559252436,806.6714156530205,1027.9851518778905,801.3164402260215
1731306328.5893266,770.0649769639148,807.071647538065,1026.2417961788904,786.4138457511671
1731306328.593227,781.716312223676,805.2871596196451,1032.498309991889,780.9549290127766
1731306328.5971274,793.6909614838581,801.892445093848,1053.967446443895,784.8412883938657
1731306328.6010275,801.6181003204306,798.3354660425526,1060.4208508770646,793.3744177076769
1731306328.60304,803.2300210335594,796.4760384157776,1014.1255420247078,800.5475142447331
1731306328.6046898,799.960770032608,797.651253911972,915.1716298481493,802.315910556594
1731306328.6049285,795.5040955061622,801.8004675178419,816.5116449216757,798.4489771702729
1731306328.6088283,792.7161404663392,807.2973894359936,786.9659463246877,792.500225455061
1731306328.6127293,791.557969998073,811.7395551438397,849.7834102849183,789.9604294582609
1731306328.6166294,789.6793816111226,813.2857423123369,952.3308389699048,795.2176912024088
1731306328.6186,784.9725207321267,811.7056333486474,999.6004952218311,808.7278581469025
1731306328.62053,777.9535023821907,808.4708160512176,928.8756714940259,826.1048693188058
1731306328.6227586,772.1101915543642,805.8596492777339,764.8530897031103,839.9814625177052
1731306328.6235473,771.9092243631096,805.6656819897969,607.8887637401477,843.8196096012414
1731306328.6244302,779.8398549224923,808.2647960724448,561.5953715370117,835.5235198634027
1731306328.6283307,794.600853526638,812.5069034691048,655.7647994862582,818.6609389052603
1731306328.632231,811.7564374872251,816.4301854243439,826.136325495801,800.4631435072596
1731306328.63416,826.3578332478031,818.3846746999109,967.5035709161825,787.836624846611
1731306328.6361315,835.5720300968051,817.9326612590075,1015.7825899527522,784.0022797881553
1731306328.6400318,839.5202944784899,815.9994245994585,989.9740720021346,787.8532722187146
1731306328.6424046,840.0998493590953,814.2098434449132,960.8605290043926,795.9289422808685
1731306328.6439323,839.0837604494623,813.8912476636143,979.0853419818068,804.9529745423121
1731306328.6478326,837.046590023811,815.4069349346299,1029.9801512414767,812.973171325272
1731306328.64972,833.7007564061477,818.1536802972914,1053.8888670308086,818.9655732906322
1731306328.6517332,829.0268816091826,821.0490415546806,1007.7140180018248,822.2535741096601
1731306328.6556334,824.0575384401162,823.1072559270418,906.9011180941645,822.7476625036101
1731306328.657515,820.5900577910351,823.8380686253663,809.7941158377799,821.5257577140081
1731306328.659534,820.0617577855876,823.4143375309785,762.9878825892688,820.5808691263557
1731306328.6612618,822.5780895745668,822.6133163317712,761.6017551706835,821.5249709677879
1731306328.6634345,827.0118084909142,822.5163532306171,761.0117197089033,824.4593140432464
1731306328.66528,832.1493492285861,824.0250949309305,726.2431771861197,828.2949488397107
1731306328.6673348,837.7986780696494,827.4048272642584,670.3640479086525,832.2911505541473
1731306328.671235,844.6582090868436,832.1194319234261,645.0389669418761,837.1357135080497
1731306328.6751356,852.913956555931,837.0787903364046,692.146157951387,844.200190242097
1731306328.679036,860.9608867738824,841.1715800930285,801.7893525615461,853.4670410353567
1731306328.680119,865.7842455692802,843.7799346225586,915.5671954459732,862.1723254091777
1731306328.68084,865.0229611428134,844.9839399817178,971.628333593972,865.8378769324646
1731306328.6829364,858.9991832854561,845.3644625902633,950.4067034836568,861.3135734053548
1731306328.6868367,850.8225155144796,845.5784060443775,881.8606959803723,849.518143628712
1731306328.6907372,844.3124638955943,846.0145776073671,812.6271172180143,835.5054369040579
1731306328.6922717,841.4131185820439,846.7277001344794,767.3595574490923,825.4709245404624
1731306328.6946375,841.24350119921,847.5954714125103,739.0255949249389,822.7686907141792
1731306328.6964002,841.5141729287476,848.4878285109615,710.5865975376182,825.9035984322107
1731306328.698538,840.95951486392,849.3100559514664,679.8682538126385,830.0359907450623
1731306328.6989765,840.5156095279573,849.9693389869556,660.8904921214639,830.8758937164403
1731306328.7024384,842.1159156105853,850.3922655201234,663.6593915024266,827.9538120440434
1731306328.706339,846.2343184310371,850.6052332918417,677.8483917516804,824.6043852414374
1731306328.7102392,850.5816172070533,850.7371851316284,679.8145683307272,824.5328657873739
1731306328.71196,851.3918251353273,850.8374489208758,655.8576394529341,827.7942093372548
1731306328.7141397,846.3979638611369,850.6376341256341,617.0546558091263,829.9000059933107
1731306328.7178338,837.0364134182267,849.5653658947948,590.1300863188919,825.379821579778
1731306328.71804,827.9519228820767,847.1611725511844,593.5942759313791,813.1173954902963
1731306328.7219405,823.9659417811514,843.621380585073,622.7113004085619,798.7107324853309
1731306328.7258408,826.6546207950272,839.9255447577594,656.8884778413121,791.2086171998318
1731306328.727028,833.1058061317386,837.2789863447392,680.1116518144421,796.3573493004639
1731306328.72752,837.9451710882796,836.244066129273,692.988137674216,811.7745734849782
1731306328.729741,837.3186137050793,836.322069465679,705.7115129640861,828.1953864355761
1731306328.7336416,831.9299524044823,836.4244256792658,722.5316825316925,836.0574640456554
1731306328.736691,826.764231031141,835.8679543920947,736.6828875288539,832.3319538224285
1731306328.7375422,827.5481217476535,834.9928060744353,741.1783715625859,822.314135881255
1731306328.7414424,836.5110840442687,834.7893038365861,741.150904766073,815.163587541942
1731306328.74308,850.5879197988626,835.823905920578,750.5976667322784,816.9210315970923
1731306328.745343,863.3551730924379,837.4477977349322,774.5306235852269,826.5009350116123
1731306328.7492433,869.252176891744,838.0796119973155,796.4175169036033,837.4274904053763
1731306328.7531438,867.1407467382778,836.4232633491195,788.3721998572606,843.2803137776576
1731306328.7555485,860.9093946092349,832.6482276899177,738.6027956922783,842.074981545431
1731306328.757044,856.88060576225,828.5447473482416,670.2882076910137,836.3443247957974
1731306328.75864,859.795560710907,826.4508108655594,629.9683038934123,829.8151648648311
1731306328.7609446,869.971207966506,827.6811206304401,650.3544853891342,824.3012461292956
1731306328.7617843,883.3843146257019,831.5727217339596,718.5478040985494,819.3911001340915
1731306328.764845,894.4127052193277,835.8330934368113,780.6259337945571,814.254154058343
1731306328.7687454,899.1533346248315,837.9446155411,783.6371612007473,809.0383535964767
1731306328.7726457,897.0718400109969,836.6360303596952,720.752733149636,804.5469753223362
1731306328.7742,890.3218706534074,832.4501341280701,638.3611415306826,801.2178710693826
1731306328.7744057,881.8910861837371,827.1671403579471,595.8105968797958,798.9463064430294
1731306328.7765462,874.1546891943393,822.6435324519716,612.4700748842565,797.6959700537818
1731306328.7804463,868.4262884161584,819.8847157070766,650.9551188715989,797.6001032783114
1731306328.7843473,865.0812568770231,818.8231712692548,653.5564450782349,798.1306236732181
1731306328.788247,863.7574200496117,818.7093070217757,598.9953326558983,797.5827943489326
1731306328.78976,863.5814335119362,818.6611737410032,526.0471892868316,794.0907713310838
1731306328.792148,863.5041846898664,817.966965362712,500.4207654704695,787.4988826599986
1731306328.793263,862.6421356301555,816.1074954444755,554.29669484694,780.0835994447845
1731306328.7960482,860.4941983143547,812.8031180296781,654.105725449814,775.1150017524976
1731306328.7965405,857.0645410326608,808.3049219144493,726.9023852746936,774.4627048689883
1731306328.7999487,852.900079717325,803.6804920227183,722.5214218269502,777.421066321337
1731306328.803849,848.83667876467,800.5471800820172,656.0288776829597,781.6964034223938
1731306328.80532,845.2922845807333,800.0802351056875,592.2151323179887,785.4307594087238
1731306328.8077495,841.447432844164,801.9317434897218,585.9553123001089,788.2852959210062
1731306328.81165,835.111317217347,804.0772493684443,632.6785129014435,790.7056525512513
1731306328.8121204,823.7841660203752,803.9921949254829,674.581339638427,792.3737255262212
1731306328.8155503,806.4062079762067,800.3834234027217,657.005005616612,791.623183894608
1731306328.8194509,784.4693319860841,794.0599052687068,582.3585819652503,786.5262788508916
1731306328.82088,761.5161635317863,787.13079497206,510.8804544354972,776.6310583697089
1731306328.8233511,741.3824936671912,781.1622057394991,507.41706156878183,763.7439962444291
1731306328.8272517,726.5477018272359,775.9485245625492,583.7177137091833,751.1515641971616
1731306328.8309777,717.6168946716064,770.1115440355518,688.5282228635657,741.9988413755615
1731306328.831152,713.742914180971,763.0377366132826,752.0953234786658,737.884191428986
1731306328.8312967,713.1389309421679,756.2171902558727,743.005194680788,738.1735814136841
1731306328.8350525,713.3740968661076,752.4019964677645,688.31019751505,740.0927509333844
1731306328.83644,711.9601589577642,753.0867228508155,644.3684534422235,739.7211837597771
1731306328.8389528,707.5470200446624,756.6856241478727,648.4039360067554,733.9224065607339
1731306328.8428533,700.9372177477096,759.408411052384,692.4084998846316,722.4285468571471
1731306328.8467536,694.659665167724,758.3203673852374,736.6967556478967,708.4586793066371
1731306328.849835,691.1008304175052,753.8280116682365,745.7636666741793,696.851841935073
1731306328.850654,690.8688434940618,749.2051129534937,714.0103056333312,690.8947907989589
1731306328.852,692.8323215819274,747.522296417629,662.8093381996447,690.5340810472389
1731306328.8545544,695.3957235897064,748.7911174658444,617.4457053217822,693.3029836838294
1731306328.8584547,697.5843752039885,749.9112315274334,587.7579207837398,696.5814679337241
1731306328.8623552,699.2421092497659,747.4036342779215,568.0308939527969,699.0539856573957
1731306328.866053,700.6435391766365,740.4326368874491,550.7153745324376,700.7010824351402
1731306328.8662558,702.0708386332035,731.4813379563972,536.7019727481567,702.0444982657591
1731306328.86756,703.6312052218068,724.2104824783048,532.6190479493164,703.5035721161737
1731306328.8686924,705.2890671467159,720.4675501217833,541.7783558486808,705.1887822031388
1731306328.870156,706.9695695135979,719.019133295234,560.875303050897,707.0080050511191
1731306328.8740566,708.6277448351948,716.9396465716208,584.7229298858132,708.8394372442624
1731306328.8779569,710.2596189937437,712.2204123616364,610.243108009789,710.6246821477503
1731306328.8818574,711.8813895411191,705.1862791838864,632.9735062242995,712.3692146550923
1731306328.88312,713.5078808375572,697.5886765985705,641.3317139940706,714.102697794522
1731306328.8857577,715.1441470446483,690.542697908616,619.781442802401,715.8468229293009
1731306328.8875496,716.7879719752443,683.5329364803499,563.0398713856418,717.6064730936488
1731306328.8896582,718.435490200563,675.4676889569324,488.81466086112914,719.3764306558226
1731306328.8935585,720.0846372936259,666.4931476772346,433.25422802121625,721.1505744122642
1731306328.897459,721.7355112752564,658.3741010031438,427.22126643095874,722.9264001734559
1731306328.89868,723.389181046951,652.7504016578816,470.6751017923044,724.7047074841903
1731306328.9008098,725.0465723345136,649.0163662274822,528.293276219431,726.4874051719199
1731306328.901359,726.7080828147945,644.3210814413166,554.2746252514933,728.2758787883936
1731306328.9052598,728.3737494518814,636.175149021834,529.0643379539415,730.0706162616826
1731306328.9064069,730.0435458957863,625.2158570915379,477.23627908514106,731.8716033308956
1731306328.90916,731.7175486595601,615.0130198114106,448.48725913675275,733.6788011657817
1731306328.913061,733.3959468470066,608.5811390697299,475.31983674480625,735.4923690962552
1731306328.91424,735.0789885197754,604.9397583823048,544.3042231427216,737.3126574784815
1731306328.916961,736.7669430231784,599.5529609242498,608.3211751448821,739.140122151234
1731306328.9208615,738.4600884745364,588.7103047832306,629.7479379562377,740.975244304783
1731306328.9247618,740.1586853486057,573.6213884194822,614.2134440581807,742.8184385213057
1731306328.9252644,741.8629116200827,559.9627303123591,602.8784226398587,744.669925943325
1731306328.9286623,743.572805650709,553.1264304736598,631.2948623311811,746.5296573875804
1731306328.9298,745.2883313273978,553.6913853726066,694.7813150449375,748.3974817977712
1731306328.9325626,747.0096484895541,557.2087288590105,752.7229164969509,750.2736771422558
1731306328.9355662,748.737470977769,558.031024654899,766.2067290951268,752.1595743643318
1731306328.936463,750.4731035779921,553.3486035654537,732.4274054890478,754.0574920733977
1731306328.9403634,752.2176729511127,544.1514277580038,683.6689456181285,755.9691539582802
1731306328.9441216,753.9705987063342,533.324097783311,652.7646130376709,757.8928688949452
1731306328.944264,755.7285190382236,523.6854864658227,638.8078557505585,759.8219286155386
1731306328.94536,757.4868363410737,518.0697611697353,607.3821859330782,761.7481678833444
1731306328.9481642,759.2451116709129,520.5561687453483,527.6134416798617,763.672361313403
1731306328.9520648,761.0135713448294,535.976032171312,412.2988605759933,765.6154125012009
1731306328.955965,762.8127415576245,566.2312429070785,321.0388462319413,767.6151202972194
1731306328.9598656,764.6576254957379,605.7610866518002,318.08570380405996,769.6940897000986
1731306328.96092,766.5289193017419,640.8646544630544,418.989643910609,771.8071569909876
1731306328.9629788,768.3559171843018,655.4483082915485,572.9501076469047,773.8175829748737
1731306328.963766,770.051465475413,640.342815031354,697.3674553605695,775.5747895756788
1731306328.9676664,771.6172084180516,599.6253097954099,735.4843140833774,777.1153541855351
1731306328.9703226,773.2594087614415,549.2860692045903,689.9028374310983,778.8586425512751
1731306328.971567,775.3611087632943,509.47631487396086,609.1682799330296,781.5057616791563
1731306328.9754672,778.1608572689161,495.70140714446575,545.7620728841551,785.3957352812107
1731306328.97648,781.2167883853937,513.1854290048318,523.2273255851906,789.536558785923
1731306328.9793675,783.1534667176967,554.9734927471666,534.1106160412044,791.2937736618134
1731306328.9818363,782.4441098799779,603.2256308479842,559.5679565169628,788.0780351381488
1731306328.983268,779.4937723166569,634.8461703634753,586.3548229528601,781.2810687796396
1731306328.9871683,778.8108791518629,632.1611237983473,607.8068573867012,779.8773954417113
1731306328.9910688,788.504217557972,594.4008087610999,616.2187447720241,798.4940602791443
1731306328.9920402,815.1398034868035,541.4327486692589,602.0863729671353,846.8969694394208
1731306328.9949691,856.6746047467848,504.45032178797277,564.7232593583808,917.1328475019234
1731306328.9988697,900.5431279125864,508.1748164543494,522.718445140049,982.2640250689666
1731306329.0006936,930.6692467216909,556.4696543666091,509.53551677859593,1012.6946673870893
1731306329.00277,938.0229969075397,630.9564009412184,553.0192209759917,997.3464349304802
1731306329.0050788,925.6188046912562,702.6545971694022,654.1972238519534,950.8656705148169
1731306329.0066705,904.8801078420445,748.2528794583698,783.6366561838844,902.3893097361448
1731306329.0076,888.0935570652222,761.1081986226543,899.2916774415418,877.5938516374374
1731306329.0105708,883.1618925142054,751.80801774422,971.7500978816904,887.1500795085018
1731306329.0144713,892.4823717418574,739.7974290977385,997.8707445371083,925.1210418699343
1731306329.0183716,913.6170314818387,742.1309115156442,995.397809042541,973.5631204937558
1731306329.0195508,939.7422644776685,765.8792123871665,986.9238045046982,1009.9386564513129
1731306329.022272,960.7857204158427,807.4514850874746,987.1566812461588,1016.3441232879254
1731306329.02316,966.8885173192267,857.4496762612808,1000.2887787618376,988.2576654943933
1731306329.0261724,953.2126860397705,906.7758043616712,1023.8206324213245,937.7839680706388
1731306329.0300727,922.776549603757,950.233713635423,1051.604173700646,887.9351496805465
1731306329.0339732,885.1327605459023,986.6758591069787,1073.557793696666,860.4624636870993
1731306329.0378735,852.0426610181777,1017.1574709336144,1075.97410352909,864.4031504559177
1731306329.0384085,833.1990727282151,1043.0477249852156,1047.4863373846708,891.8195070147667
1731306329.03872,833.9565412168783,1065.2157226772756,989.794739615863,922.7946189606705
1731306329.0398352,854.750818214362,1084.392733737723,924.2161078915863,937.0386894370554
1731306329.041774,891.0293445103028,1101.9220445777269,883.9855794862656,925.9525124472043
1731306329.0456746,933.5713248143821,1119.5848966906892,893.0307764271715,897.7612828499765
1731306329.0495749,970.2596396820325,1137.9134609615774,947.1900286079697,871.6025897923814
1731306329.0534754,989.9418132591302,1154.421596958528,1016.5817782261504,864.2051677178197
1731306329.05428,987.2413647629924,1164.3545319259736,1069.9758257537817,879.2643137313711
1731306329.0572655,965.7021196849848,1164.5952138910977,1098.9432587204951,907.5901774324625
1731306329.057376,936.7575895910679,1157.5223733134085,1117.4104753578079,936.1414213844913
1731306329.0612762,914.0265345340636,1150.3916358154343,1137.1088467370541,956.2000127979255
1731306329.0651767,905.658002055564,1149.6519655789814,1146.2406885211894,963.8871088818979
1731306329.069077,909.768665649032,1155.0391104887767,1117.3277547120983,956.2659339843249
1731306329.06984,916.7555825962697,1159.243878999305,1039.7316277448172,931.1476767558045
1731306329.0729775,917.2527334647527,1153.9383793447419,943.6438993734369,892.6364906151442
1731306329.0745916,909.6138864567363,1137.0315029458202,886.2132145556055,855.2494137359179
1731306329.0761228,900.747582001127,1115.0736656076851,905.7120503277193,838.6724882977388
1731306329.0768778,899.4928041242746,1099.1190937146969,983.4629178549727,854.3949971206507
1731306329.0807784,908.0972080493406,1097.4860355931075,1051.9191646287036,894.9676613843819
1731306329.0846786,919.2635315016935,1110.5417786664257,1048.1476137126053,936.450226728623
1731306329.0854,921.772530064017,1130.547709745816,968.6106234887834,954.174453325983
1731306329.0885792,910.2484443307083,1146.163670760569,875.383885166619,940.2498880483315
1731306329.0924797,890.5062653150471,1148.7826015858393,845.4384573122403,908.7236589209876
1731306329.0949802,875.2285819559797,1137.253169419811,906.7908239452757,883.7683284992384
1731306329.09638,873.2102509633204,1118.4443039878927,1017.8379953771421,880.2092142918115
1731306329.1002803,881.5662138133415,1103.0801154388332,1105.9127027866818,892.3286634742739
1731306329.10096,888.0313184245717,1098.915346133346,1127.2404913309128,900.0868980798602
1731306329.1041808,881.420572685294,1105.4877788300987,1094.8950255536647,887.0092955426635
1731306329.108081,860.8794207435994,1114.415387651255,1055.8582118500174,853.9669969405484
1731306329.109348,835.8943319051232,1115.5579350685248,1045.5285848817293,817.1921781092992
1731306329.1119816,817.810022992682,1104.5351699868081,1062.6927856527795,793.546159561364
1731306329.1138377,811.1882557140596,1085.4769596352005,1081.6054566909875,787.4319603878293
1731306329.115882,812.5316001809014,1066.7143459398421,1081.4854726112198,790.8819340185538
1731306329.1165202,816.0670959423526,1053.3580844443043,1062.3196216044303,794.458357079561
1731306329.1197824,819.6649885965085,1043.4249185717504,1035.1604417549038,796.1497039992447
1731306329.1236827,824.9639928552093,1030.6254632209634,1002.1614194412505,799.2168520320027
1731306329.1275833,832.6183214031157,1010.6649213163048,950.4521867231911,803.3540713843262
1731306329.1314836,838.7511794758736,985.1063804723747,868.3166520560148,801.3297923455422
1731306329.13208,837.0646460643096,959.8360578987025,767.8186268976035,786.5121442867342
1731306329.1326947,824.8371981925854,940.3639765443716,688.270532574439,763.1287070161628
1731306329.135384,806.812262419517,928.43140269928,670.7086540433326,746.5444860219505
1731306329.1392844,792.7751278053901,922.2756777114203,722.2451475617002,750.9108095938365
1731306329.143185,790.4166067214587,919.3010139722741,803.2513116476805,775.3287935053778
1731306329.1441045,799.3691325594193,918.2368521281521,853.0474086465658,802.2041051671346
1731306329.1470852,811.339166469663,918.9802812754157,834.8954320640946,810.1368145056664
1731306329.14764,816.1894643310067,920.6794479898676,762.2131946713354,790.3013190379786
1731306329.1509857,809.1746534593439,920.2228992566585,684.4308735547648,752.7836808468164
1731306329.1515522,793.968501208288,913.0385169804955,646.9881377688457,718.8661533550583
1731306329.154886,779.5760458633273,896.1465832484067,660.7781523164706,706.6491635038236
1731306329.1587863,773.6750491761878,871.1947054748272,703.5652575908991,720.7554702410656
1731306329.1626868,777.2126985948736,844.6851205342822,744.7506575927514,751.4434252142669
1731306329.1632,783.9477513464784,824.5819891153174,766.6963386509108,781.0997787878285
1731306329.1665874,785.0885288422131,815.4599110440774,766.1547470943855,792.96336667804
1731306329.1704094,775.6735567229379,815.698866494267,743.6272847306376,778.275106638544
1731306329.1704876,758.2506419214918,818.7596555610223,699.0090678862493,740.1623474124842
1731306329.1743882,741.4400955649467,817.6098283193584,638.3715999137361,693.1567175983648
1731306329.1782885,734.5495737099122,809.2526712880018,578.4193176971414,657.5074916122566
1731306329.17876,741.8969564076172,796.3618857358886,537.7367822866802,649.436882452025
1731306329.178861,760.331998272573,784.9705579501572,523.3917458056914,671.8222606887399
1731306329.182189,781.1757641509963,779.7689396540732,528.1842500127378,711.4801896609919
1731306329.1860893,795.1202306905752,780.2947819551381,539.4841517453594,746.3527716642773
1731306329.1892667,796.9945948461095,780.8755300298748,548.5976459659809,759.0144048122824
1731306329.1899898,787.5239364171022,774.5114991911735,553.4276795229608,747.1724647279075
1731306329.19389,771.3540576269111,757.7816931311316,555.8512145439563,723.2263176288194
1731306329.19432,753.3782309170779,733.0126776912236,558.2244127229201,703.6343499151152
1731306329.1977906,736.4152471730185,706.331249841219,561.618629133638,697.2186241657192
1731306329.201691,721.4990197810761,683.6327760245496,565.8771949743319,701.5153277512876
1731306329.2055914,709.3554743322076,667.7202533076493,570.4110953373649,708.2506216248426
1731306329.2081242,700.9665385110545,658.1281483921767,574.8123973447516,711.3775582444975
1731306329.2094915,696.8695215677916,652.6820492876801,579.005183078522,710.7575714349769
1731306329.20988,696.5917126843307,649.0712805630337,583.1031011660239,710.1497630923302
1731306329.2133925,699.2816155483198,645.6808516566184,587.2297314676026,713.1345644497693
1731306329.213617,704.824395760398,641.935969538514,591.4351784911764,720.8189834609783
1731306329.2172923,713.8317051151882,638.3662477632266,595.7061309342539,732.1020420244657
1731306329.2211933,726.0488098771445,636.109855484907,600.0098048628037,744.8412867228242
1731306329.2250934,738.7208621903528,635.7834635408228,604.3249920668304,756.441183584295
1731306329.22544,747.0643861394867,636.5113315412455,608.6481689675288,764.0367274626516
1731306329.2269814,747.2690714605505,636.211227149127,612.985077562309,765.2953018009625
1731306329.228994,739.847466861643,633.2107719043568,617.3413316360052,759.9793950315801
1731306329.2328942,730.2277219864945,627.8224001059228,621.7184712673853,750.9582551130568
1731306329.2367947,725.4870498437599,622.3126533677772,626.1147993066586,743.2077102111351
1731306329.240695,729.5167620077314,619.1698330616633,630.5277095565315,740.9918376628874
1731306329.241,740.5372641210936,619.2224358055774,634.9551836050995,745.2759119805226
1731306329.2445955,752.9854706268953,621.2621048237901,639.3960578572097,753.4348750193575
1731306329.2458386,761.9903040061131,623.3349893057642,643.8497547543296,761.3516755073717
1731306329.2483735,766.5099061153768,624.370899434321,648.3161050926235,766.0308936399593
1731306329.2484958,768.7116120219446,624.7368664265465,652.7952371001417,766.7800094118618
1731306329.2523963,770.7740565626,625.4943528714186,657.287050810355,764.6278631711176
1731306329.2562966,772.5101786467449,627.3000295519687,661.7900770069903,761.1183144519812
1731306329.25656,772.0675858598587,629.9780918053445,666.3005440949357,757.6190638943405
1731306329.2601972,768.7607114615233,632.9532149806053,670.8134486550174,755.2865314696938
1731306329.2640977,765.0087461808504,635.9279610516598,675.3268716113374,755.1713301192473
1731306329.264696,765.3037995504167,639.1206590154047,679.8476141523362,758.1369125748128
1731306329.267998,772.9850449001817,642.9124253606823,684.3916861231178,764.6351327997037
1731306329.2718985,787.5263281836778,647.2793322555428,688.9720703895741,774.3806378505757
1731306329.27212,804.4459420354456,651.511429270051,693.574652058887,785.9364582275681
1731306329.2757988,817.7435560819193,654.4699628124334,698.1416069861588,796.5664130188194
1731306329.279699,823.0682603068866,655.2402580682835,702.5963070050931,802.9505443430288
1731306329.28313,819.7567213103152,653.7489844411907,706.9286329117388,802.8100471818236
1731306329.2835534,810.9415884271482,650.9175374116206,711.2968562957374,796.4848092299495
1731306329.2835996,801.9808768126109,648.2302332965688,716.0201006920003,787.1892362659249
1731306329.2875,797.9523157150938,646.9888878854871,721.3276116861829,779.5385999898613
1731306329.28768,801.1449317138132,647.715539381817,726.908017502683,777.2085013724035
1731306329.2914004,809.6803624343412,650.0331339592088,731.6524936269267,781.1366319296429
1731306329.295301,818.3018218044248,653.0221278450946,734.2347041169417,789.1969533580681
1731306329.2992013,821.3752338085269,655.7645914063193,734.832288893592,797.3601658430649
1731306329.3024106,816.481210608409,657.7391976684918,737.1180053390306,801.6664114445449
1731306329.3031018,806.0647000576937,658.924205413874,748.3415650846805,800.0711164070146
1731306329.30324,795.7152687447917,659.7011512469786,775.7417178746853,793.3068184886729
1731306329.307002,790.2045752078186,660.7043201396998,820.6976153061885,784.3391509570391
1731306329.3109026,790.2611165027904,662.632941156618,875.0785606116863,776.7470695841367
1731306329.314803,792.5625552695924,665.9731078745075,922.8267256317467,773.0236023756785
1731306329.3178864,792.9416724857276,670.7117425173027,945.4689840852132,773.7945074670496
1731306329.3187034,790.2734237208782,676.2774260144387,928.9939315924423,778.1914132860608
1731306329.3188,787.8637466651139,681.8317697011578,871.273174344907,784.7437443989454
1731306329.321268,790.9981198273981,686.7170092245726,788.014661186244,791.9599888533846
1731306329.3226037,802.4346339878919,690.7105395636274,711.1063397013183,798.3568916166889
1731306329.3265042,819.5961092079718,693.9446899079364,674.2992410026876,802.3895637340627
1731306329.3304043,836.0644759073303,696.6819535834571,691.6994732481585,802.8005525753007
1731306329.334305,846.2836552770107,699.2192720102898,745.7448807427504,799.3003975073959
1731306329.33436,849.3960578552898,701.9620630451097,798.7703121123336,792.9141232760932
1731306329.338205,848.9165183284034,705.4418336193187,822.8289745212064,785.4798050787119
1731306329.340125,848.9160508469798,710.0628489631364,822.4102632251977,778.5781613090699
1731306329.342106,850.5882213765765,715.6798281876689,826.4060854232538,772.7769240475708
1731306329.3460062,852.2908370669504,721.4171802036674,853.0784765252337,767.8232021279645
1731306329.3499067,852.39130287821,726.0622872157513,881.0706862195029,763.5253305083713
1731306329.34992,851.5190388982581,728.8744446364886,859.4946167456065,760.3868865966216
1731306329.3526428,851.8084377561997,730.1925795538984,755.123413680911,759.2511252387328
1731306329.353807,854.0647881451711,731.294475138747,595.2101744103649,760.1681139670701
1731306329.3577075,855.9260612282926,733.5562559266567,460.71353031640086,761.5875398858102
1731306329.3589826,853.0540777946463,737.5508844709873,426.4105305576243,760.9336134307986
1731306329.3616078,842.4950387010824,742.7714699031526,496.2531352805762,756.510524425885
1731306329.36548,825.4163221139324,748.1367916282398,593.8886000981843,749.3805473486912
1731306329.3655083,806.9628494638301,752.8079926271857,623.0779078236101,743.5208741797097
1731306329.3694086,793.262240609035,756.6548208166257,549.0584370649135,743.6462423535556
1731306329.3733091,787.7658799330139,760.0892818799374,429.62670607642076,751.8730574169372
1731306329.3772094,789.5577673941092,763.5598848656676,367.3985737568167,765.5314295783515
1731306329.37784,794.6717553227196,767.236728265482,424.4054205017908,777.9200734296053
1731306329.38104,799.1097328365773,771.121466668941,572.8222411584172,781.8741794412006
1731306329.38111,801.1679187503023,775.3174485874059,722.1460150256289,774.0373657211284
1731306329.3850102,801.6995541642689,780.0213685872992,795.63142533009,757.1336536967681
1731306329.3873992,802.7900781317416,785.138381895318,788.265315742789,738.7313362797845
1731306329.3889108,806.103693580203,789.9256971509568,758.9263745855027,727.1631666778933
1731306329.3928113,811.6117665754879,793.1812137039716,769.4675201602372,727.0574098151222
1731306329.3966,816.8979085426043,794.0249121960684,828.6361951375375,737.2337877645992
1731306329.3966973,817.5552958746636,792.6848583323564,890.1926401377671,752.2098054892816
1731306329.3967116,809.3381576372982,790.5485217824662,902.648985273499,766.0654596764266
1731306329.400612,791.4658469308632,789.312835284494,861.0907803269173,775.7252716291821
1731306329.4045124,768.6418430136041,789.8871142107006,811.6311521805565,781.3836927550992
1731306329.4084127,749.3780061910886,791.9727988301074,804.7488716955663,784.4247189655309
1731306329.4121602,740.9955304076054,794.6294103195204,842.3361631958812,785.3178537038692
1731306329.4123132,744.8249322201672,797.1981775376503,869.8183901177981,783.5113579142647
1731306329.4155543,755.3737756615262,799.6636433274838,823.262233556944,778.9833056309968
1731306329.4162135,764.1370561084963,802.2195450081235,690.3362726303417,773.5373755979506
1731306329.420114,765.1406757510017,804.7023140609325,530.2150637060599,770.5595954029042
1731306329.4221554,758.2705315694868,806.6255231865023,433.22405602714076,773.5111812354509
1731306329.4240143,748.4300046785,807.7308414865006,453.3993184926935,784.1154046324817
1731306329.42772,741.6703734438881,808.2940226667777,569.4039040665507,801.0016310336379
1731306329.4279149,741.3042992987645,808.741207944509,703.2917438139764,819.5214908367658
1731306329.4318151,746.5390911117275,809.0397716777748,777.784607622464,833.4470883410374
1731306329.434412,753.9967733033199,808.6708780423047,764.4199986842167,838.2628992627194
1731306329.4357157,760.3910684456644,807.3103263805132,688.7744915112509,834.0272832455285
