timestamps,eeg_1,eeg_2,eeg_3,eeg_4
1731015703.450034,807.1094698280905,804.550426661597,805.7002141874406,803.5601920300123
1731015703.4656663,807.4039674049003,804.4325146273734,805.6469345599763,803.6306186053453
1731015703.4812994,807.774799380052,804.3232718976892,805.5668522678957,803.7329023154269
1731015703.496932,808.2411690869316,804.2178872571897,805.453057618262,803.8586673976398
1731015703.512565,808.7497267232742,804.1075331324087,805.324289094671,803.9818261948548
1731015703.5281975,809.2171000491787,804.0037390000393,805.2168314092123,804.1135216365259
1731015703.5438304,809.5956735282348,803.9408782553388,805.1686948189334,804.2970297611977
1731015703.559463,809.91105992857,803.9319672576911,805.1930050580402,804.5189951217869
1731015703.575096,810.2515976307137,803.911551112052,805.2393377122316,804.6480551192984
1731015703.5907283,810.7247716705838,803.7475340818102,805.1746260728863,804.5349209392857
1731015703.6063612,811.3886847557836,803.3675019463419,804.8482797625571,804.2420896652735
1731015703.621994,812.1552977168562,802.9226100544532,804.2711909342903,804.1668064861666
1731015703.6295776,812.7064346221465,802.8103355772405,803.8128162898223,804.8251363081954
1731015703.6376266,812.5313265716785,803.4325510090155,804.2005249449203,806.3536017730185
1731015703.644039,811.1703797732334,804.7957647694105,806.15639462042,808.1315442156101
1731015703.6479218,808.5839269126712,806.2896162685752,809.785335515267,808.9688962889343
1731015703.6483943,805.3741843894261,806.9494225834569,814.148337414762,807.8898817280352
1731015703.6518047,802.5774525300318,806.1410988100829,817.4904224903472,804.9631734108434
1731015703.6532595,801.013838485752,804.1740500239691,818.1866395563154,801.4418937988199
1731015703.6556876,800.5986618800829,802.2877861293118,815.8577058659413,798.9836582182555
1731015703.6595702,800.235855587182,801.9207355043893,811.808440533881,798.5523226160037
1731015703.663453,798.6063907990889,803.775443720806,808.3230092187451,799.9474149471035
1731015703.6672113,795.4074346398473,807.3707615798859,807.2122840811164,802.3255914786856
1731015703.667336,792.0035965966883,811.3568511725728,808.648436968417,805.0909183134356
1731015703.668892,790.719546946085,814.280791133453,811.145953844926,808.181676949599
1731015703.6712189,793.1261106468498,815.2594130281558,812.6676649304314,811.4945939011545
1731015703.6751018,798.6912443701693,814.244430347721,811.9935128895332,814.2069588668501
1731015703.6789846,805.0019369853052,811.9169886905304,809.3768369464634,814.9379329143014
1731015703.6793363,809.4100142961645,809.3901872671568,806.1579006346302,812.7988947187272
1731015703.6828675,810.6822107734534,807.826718771118,803.8072270288061,808.379781357317
1731015703.684525,809.3244421922855,808.0166538700222,803.166665873396,803.6791755601699
1731015703.6860278,806.5875766209815,810.0284369899869,804.2912493904303,800.9342085049348
1731015703.6867504,803.3417624163955,813.131926608838,806.7165011465083,801.2730332917479
1731015703.6906333,799.8763721459989,816.1195365330829,809.7483298284633,804.2080844257622
1731015703.694516,796.5337078981714,817.9096653367524,812.6090738300671,808.2243592418537
1731015703.6983988,794.2067711343801,818.0941915956389,814.5817624300863,811.8510672385711
1731015703.7001576,793.9876930059141,817.0945467754777,815.2811212200844,814.3716195858414
1731015703.7022817,796.2589298962802,815.837585369676,814.903946185041,815.8152986840207
1731015703.7048447,800.1660979635953,815.1677581270601,814.1675850758623,816.5304520087275
1731015703.7061646,804.0551695639417,815.3609358401079,813.8583208532666,816.8474050565799
1731015703.7100475,806.5208309410611,816.0190538130261,814.2771155409831,817.0206815232873
1731015703.7139304,807.1669220097634,816.3784095854421,815.0066905326694,817.2578397429943
1731015703.714327,806.5211784557277,815.8140006299504,815.1876287557495,817.6249891344094
1731015703.7157905,805.3524126501114,814.2231014696648,814.0979484126825,817.892268130079
1731015703.717813,804.0886784247741,812.0804507469348,811.6174746461891,817.5450790183098
1731015703.721696,802.7701429087114,810.1738845215209,808.2764157451204,816.0439578476487
1731015703.7236614,801.3748708334657,809.1826538608437,804.9082566140255,813.1689265910171
1731015703.7255788,800.0621235330485,809.2861729778654,802.1892899335134,809.2101439802678
1731015703.7294617,799.1003988652,809.9641370231581,800.372926856841,804.8934490919789
1731015703.7314231,798.6391685296215,810.1280921220805,799.3346778519776,801.094884836098
1731015703.7333446,798.6010815296623,808.638096084462,798.8059104839075,798.4912103412561
1731015703.7372274,798.7729966635093,805.028550898586,798.5762501185735,797.3153392133964
1731015703.7411103,798.9642344905085,800.0126386571011,798.5413839188794,797.3412006912974
1731015703.742478,799.0904782058119,795.3322365068153,798.64696594606,798.0866020898121
1731015703.7449932,799.1579882866769,792.9028624408536,798.8482393405133,799.0522674507391
1731015703.7470558,799.2054998610029,793.7346376041072,799.1156152950131,799.790474511454
1731015703.748876,799.2606739219414,797.3424988382594,799.4107691064506,799.8173145623792
1731015703.749318,799.3288570775138,802.0512219980404,799.5958992231823,798.6376480600643
1731015703.7527587,799.4023752176867,805.9703048851394,799.3783642569687,796.0788271307606
1731015703.7566416,799.4727238471185,807.960636024637,798.4313606167285,792.7072025643162
1731015703.7605245,799.5363468149401,807.9922557282839,796.6766225498511,789.8144573929786
1731015703.7612948,799.5940355364387,806.8086438257998,794.5209157002819,788.7530574073783
1731015703.7626886,799.6479573262492,805.3138061420632,792.8179407302847,790.0491927506307
1731015703.7644074,799.6995200540327,804.1680481765804,792.5065535116173,793.0204583543675
1731015703.7682903,799.7489300067086,803.7224514345407,794.0964348268686,796.2170081721899
1731015703.7721732,799.7957536477512,804.0574944610993,797.2839673835704,798.3040263617598
1731015703.776056,799.8395599464095,804.9050630583178,800.9456075775175,798.7003705349615
1731015703.7783213,799.8801962094851,805.5602620994825,803.5947540026029,797.6055262412162
1731015703.7799387,799.9177341837512,805.0923499187758,804.1406730760757,795.5979930951705
1731015703.7801116,799.9523078478974,802.9381481033463,802.5520777802584,793.2506473110016
1731015703.7838216,799.9840051549519,799.4954376574576,799.9726185848366,791.0175451792469
1731015703.7843091,800.0128496207224,796.1332481627857,798.0945894378739,789.2785842049922
1731015703.7877045,800.0388321536796,794.4040189920003,798.0969791338856,788.29189730031
1731015703.7915874,800.0619471014761,794.9380273038951,799.8563954710908,788.025974593052
1731015703.793954,800.0822120013214,796.8989168521472,802.0532868819736,788.1257095192697
1731015703.7954702,800.0996704031903,798.534263557526,803.1644651399569,788.2051051826253
1731015703.7989285,800.1143798999403,798.4735919564346,802.6134159271803,788.251646636786
1731015703.7993531,800.1263848647216,796.7609022399567,801.1824664832393,788.6617038450458
1731015703.803236,800.1356822811443,794.7846920213321,800.380610304666,789.7336494904572
1731015703.807119,800.1422115971528,794.1701544422481,801.3123041403493,791.0948884820647
1731015703.8095868,800.1459122030914,795.5461617205302,803.9510477634567,791.7775910870241
1731015703.8110015,800.14685635434,798.1625758754286,807.3027202728566,791.0711693876399
1731015703.8148844,800.1453670110069,800.5886967643424,810.1825281224552,789.393211137972
1731015703.8177452,800.1419306550334,801.847603971616,811.9121533336631,788.2270111456475
1731015703.8187673,800.136759806576,802.0707504599042,812.4617331076001,789.0126286462324
1731015703.8193,800.1291758694349,802.2438185618623,812.1218544810033,791.9533266632675
1731015703.8226502,800.1174705857524,803.35944286693,811.1574614414791,795.8663739530041
1731015703.8252196,800.1000822063613,805.6660551787171,809.7743408285742,799.2205815012092
1731015703.8265333,800.0781206165507,808.5013898358228,808.3018290595754,801.3395955638116
1731015703.830416,800.0573600505653,810.7166022044947,807.2328533219944,802.6157520449474
1731015703.8342988,800.0460959338664,811.3429520825306,806.951294740439,803.6306616624167
1731015703.836562,800.0464936144994,810.0991304151098,807.3989806169117,804.2238933806703
1731015703.8381815,800.0433679566853,807.5007699277729,808.0829765902664,803.5782784829158
1731015703.8408525,800.00328439406,804.56908476206,808.4882995337886,801.2618395249667
1731015703.8420644,799.8989420969939,802.3382570384103,808.5101507723994,798.0868270591577
1731015703.8459473,799.7568147257954,801.4413281515332,808.4817342458225,795.7807342837059
1731015703.8498302,799.689287524883,801.9575320177281,808.798418441942,795.6744571728183
1731015703.853713,799.8429053636949,803.5042465526371,809.5391050228352,797.6166491639215
1731015703.854291,800.2232921858599,805.4320245364806,810.4303915805906,800.099449120282
1731015703.8553786,800.4772292229367,807.0222661072005,811.1047510566684,801.4302963798557
1731015703.856485,799.8597781273356,807.6874211966596,811.339914952608,800.9007350538667
1731015703.857596,797.6042788183654,807.176495210652,811.082992810399,799.0613634960694
1731015703.8614788,793.606508117625,805.6977121058989,810.3523293510092,797.0890827671857
1731015703.8653617,788.9186739089704,803.8347085516797,809.2156866201476,795.9275508975038
1731015703.8692443,785.4890015539783,802.2413637417307,807.875212478441,795.8560334875383
1731015703.8721178,785.1001181858214,801.2691223656535,806.6862541620114,796.6081093805036
1731015703.8731272,788.1763452653637,800.7590618752363,805.9659594849464,797.7175281374825
1731015703.874195,793.3868859541792,800.155229692145,805.7011501846131,798.764353048101
1731015703.87701,798.4536647897753,798.9101178196074,805.4604825693777,799.4616663378013
1731015703.880893,801.626927189264,796.9536209274216,804.6939053188875,799.6844073896265
1731015703.884776,802.7046124416647,794.9065425415946,803.2292030151073,799.483679607457
1731015703.8877504,802.8199383887279,793.8432437082502,801.5251035981729,799.0503214584097
1731015703.8886588,803.2736486234271,794.7111002437484,800.4165249159137,798.6390606267955
1731015703.8892815,804.4919061214325,797.7762207960452,800.5541790222347,798.5278032797354
1731015703.8925416,805.9673573675807,802.453335539928,802.0183929290099,799.016022755327
1731015703.893012,807.0281150854725,807.5976322230886,804.3792595567255,800.3497687000307
1731015703.8964243,807.5330015549224,812.0378287039064,807.0254405215373,802.5145464629478
1731015703.9003072,807.8443557209597,815.0423662806635,809.3971454348168,805.0579646085145
1731015703.9033833,808.2983429947762,816.5256604011687,811.003203772389,807.2070143899209
1731015703.90419,808.8707526897124,816.9558460760032,811.4273390421673,808.3280992392716
1731015703.9080727,809.3726045529023,817.0289313050141,810.5188983732842,808.4262113209793
1731015703.9118288,809.8483371732792,817.2588327390893,808.6469078325188,808.2668582224143
1731015703.9119558,810.6744732231518,817.7028979303496,806.6885530446939,808.9541489620983
1731015703.9158387,812.2679933330616,818.0008744178441,805.6072135339551,811.1873202130148
1731015703.919016,814.7411242100206,817.6999993947063,805.8748473402273,814.6643876392585
1731015703.9197216,817.8228227929852,816.6149820395229,807.1920739630218,818.0747386305709
1731015703.9236045,821.0398603764023,814.9542290424658,808.7487207107672,819.805625343808
1731015703.9242728,823.931932614149,813.1595318403761,809.8290289503152,818.9857288310719
1731015703.9274871,826.1370164459105,811.6311620289333,810.2743317987799,816.1302686303661
1731015703.9306457,827.3628113665713,810.5401601967309,810.4237407633112,812.8284093930223
1731015703.93137,827.3622268440735,809.8061335364856,810.5957656280812,810.6304553288801
1731015703.9346488,826.01465262199,809.2104704884117,810.5977643550251,809.9872555339057
1731015703.935253,823.5150612470013,808.5763567664452,809.7665979060329,810.1016530377033
1731015703.9391358,820.5272751119254,807.9199271333868,807.5783241736997,809.7900254500732
1731015703.943019,818.0704746769122,807.4634756070558,804.3035767774052,808.5764644370539
1731015703.9469016,817.0362738480749,807.4770980952006,801.0749719623094,807.0524339456566
1731015703.9494624,817.573635708095,808.060664044007,799.227702326761,806.2108549177306
1731015703.9502814,818.8372686246698,809.0456024015223,799.4212482344093,806.3947867393902
1731015703.9507844,819.4347689679207,810.0970027192169,801.2309334143246,806.8575469436882
1731015703.954667,818.3586656811779,810.927960957603,803.4743539423407,806.3957514162993
1731015703.95855,815.7184298758314,811.4586205896844,804.9549673725154,804.5339675015499
1731015703.9592636,812.6721328737889,811.8043261561775,805.0785083027138,802.1601847386138
1731015703.9624329,810.5857493019623,812.093423914647,804.0213945653356,800.9137594966431
1731015703.9659142,810.0810952606188,812.2338229788116,802.5018588941688,801.7586121265025
1731015703.9663155,810.7035973000877,811.8262155022832,801.39840122449,804.0230979017101
1731015703.9682791,811.3974314991307,810.376726462587,801.4030693595723,805.8613846523472
1731015703.9701986,811.3226214489172,807.7345114982023,802.7537775395317,805.7846339836551
1731015703.9740815,810.3521582176511,804.4121449161355,805.057028656342,803.8665838730146
1731015703.9779644,808.9578291159661,801.4425765981094,807.3119510468067,801.5230170503061
1731015703.9815469,807.7365543453208,799.7961602377254,808.2898236820278,800.1384286009381
1731015703.9818473,807.0508389680127,799.800171362853,807.2196699891734,799.884927124817
1731015703.98573,807.0145430185903,801.0196656034292,804.3757195423656,799.7956393647619
1731015703.9870958,807.6544888877764,802.6425025866524,801.0457639908325,798.8880895244666
1731015703.9896128,808.9489586041357,804.0078585603634,798.7540548947353,797.1990392201608
1731015703.9934957,810.6926824754219,804.9053525746623,798.2636872538998,795.8233720380173
1731015703.9942546,812.4355387968849,805.5507433422563,799.1573071821359,796.0463757754468
1731015703.9971795,813.7026542160506,806.3572478399376,800.3380580972482,798.3961928765715
1731015703.9973786,814.3516067843735,807.6296459642663,800.98148895179,802.3475590676354
1731015704.0012617,814.6844120448485,809.2725577809497,801.0881420977885,806.7544766289805
1731015704.0051444,815.1289980316706,810.6589555748734,801.2214717245416,810.542895072593
1731015704.0059123,815.7531949492364,810.8359507414315,801.8178001922483,813.1505449184124
1731015704.0090272,816.0849323831575,809.0707716181064,802.7912205508945,814.5409796695433
1731015704.0128124,815.4491988318599,805.4262454629823,803.7233181340196,814.9567440441502
1731015704.01291,813.5614490856142,800.9178043398216,804.2938328914485,814.6660418666534
1731015704.0167928,810.8884846201815,797.0568116114528,804.4881279731251,813.8540279444816
1731015704.0206757,808.4755183492283,795.0534551121063,804.4913355236027,812.6828334216488
1731015704.0245583,807.3443176939722,795.220658262628,804.4875901154093,811.4460296144496
1731015704.0247293,807.8719323632147,796.9545486143077,804.5557426169938,810.654223476885
1731015704.0284414,809.567950364025,799.2317679885075,804.6834371512136,810.8844711944982
1731015704.028445,811.3927200530991,801.2254812980503,804.8279131503455,812.4077879525493
1731015704.0292454,812.3914078878614,802.6303157893203,804.9604100001011,814.870208625998
1731015704.0323243,812.2178905184647,803.557959018687,805.0762691139295,817.3538983249715
1731015704.0362072,811.2272079797642,804.1949129980043,805.1841394037984,818.8531029523309
1731015704.04009,810.1292579109678,804.5606738545896,805.292997523376,818.8139727163083
1731015704.0435462,809.4770827206552,804.5631405416316,805.4063558770926,817.3133192225532
1731015704.0439727,809.3269450523376,804.2437025343136,805.523184613051,814.7943956325023
1731015704.044078,809.2503925916595,803.9188465183935,805.6411451485016,811.6845355883637
1731015704.0478556,808.6407469782883,804.0379372884141,805.7587974142373,808.2596050120247
1731015704.0517385,807.1039927905008,804.8664958872024,805.8759869766609,804.7899373481913
1731015704.0556214,804.7327061387837,806.2681774867075,805.9932079393348,801.7095760236335
1731015704.0595045,802.1664245144564,807.7488309775281,806.110923663424,799.5878806363603
1731015704.0597105,800.4165614006398,808.7015991796237,806.2292938558959,798.9072104102843
1731015704.062363,800.4576409864364,808.6967637355159,806.3482470578241,799.7791762814812
1731015704.0633872,802.6784031231238,807.7164736678938,806.4676565547638,801.741379075333
1731015704.0642364,806.4892410424459,806.2655581159048,806.5874508132673,803.8012222090467
1731015704.06727,810.4736120647138,805.2333924313416,806.7076261532679,804.8748823912532
1731015704.0711527,813.1728648828957,805.425853783698,806.8282083499083,804.5158316826563
1731015704.0750356,814.0221898589189,806.9684988643037,806.9492155910403,803.4346788667531
1731015704.0753434,813.6687076285672,809.061257609497,807.0706465068034,803.2357262637802
1731015704.0789185,813.3267731464982,810.4213243953689,807.1924905634311,805.3192228446471
1731015704.0811796,813.6810012884483,810.1667015130326,807.3147461389844,809.6643535142935
1731015704.082801,814.3206410544921,808.4256616304766,807.4374295928518,814.4815933561143
1731015704.0866842,814.2457676038466,806.1526627801314,807.5605622784005,817.1493377448742
1731015704.090567,812.9778619084459,804.349290640573,807.6841351005427,815.8562013570086
1731015704.090976,811.198603270351,803.4116384932718,807.8080751935448,810.7863062845895
1731015704.09445,810.2641213045199,803.1395544305436,807.932263966662,803.9988287521816
1731015704.098333,811.0197751468983,803.2695450628589,808.0566455898587,798.116746522964
1731015704.0992272,813.0214699169273,803.9087646637042,808.1813867648874,794.794389441239
1731015704.0999963,814.8851814098884,805.3961123296962,808.3069236301181,794.0103247901894
1731015704.1022155,815.4167014670019,807.7288242856091,808.4336785652921,794.490257516071
1731015704.1060984,814.4512747807921,810.1789710495055,808.5614211982884,794.6681607310553
1731015704.1066089,812.6470134636102,811.6011365924713,808.6887306668064,793.3586032897168
1731015704.1099813,810.5297502239446,811.2732350170704,808.8134750658688,789.9001849868139
1731015704.1138642,807.8465353969607,809.5320118295518,808.9349603720887,784.2201708829804
1731015704.1177473,803.9477763932346,807.5689096917296,809.0568397500322,777.222423618924
1731015704.118813,798.7850095643053,806.5060814891594,809.1875633876034,771.1522215257038
1731015704.12163,793.3958596137425,806.5619552379054,809.3344545539877,769.1058018358349
1731015704.1222415,789.2856883627705,807.0370200714921,809.4915750697924,773.4236759509349
1731015704.1255128,787.3243477158763,807.0605576557358,809.630801815456,783.9284173733573
1731015704.1293955,787.2487969331914,806.338950712599,809.7134082525859,797.5229874917418
1731015704.1332784,788.1072330042482,805.2452745571039,809.7327075437245,809.7536702377431
1731015704.1342182,789.0320350430882,804.328079544928,809.7675620680568,817.2901952058926
1731015704.1371613,789.6499149383762,803.8459825147688,809.9852042286335,819.4926642978785
1731015704.1376295,790.0060039319598,803.7223937180744,810.5276162684049,818.0872571961959
1731015704.137874,790.2882023135907,803.7698386028301,811.3093672800484,815.5538320730977
1731015704.141044,790.6254795134785,803.8603687933717,811.9201286344137,813.6195936498497
1731015704.144927,791.0399468923275,803.9479181768166,811.8438616218529,812.7574575705987
1731015704.14881,791.4936584377438,804.0291956453319,810.9007556616473,812.5925683603253
1731015704.1526928,791.9464581742106,804.1115811974375,809.4836901745167,812.5743672892215
1731015704.153507,792.382292002749,804.1992523901984,808.2970211558109,812.3921146270794
1731015704.1564465,792.8054792164717,804.2913652428514,807.8179484048977,812.0209756822791
1731015704.1565757,793.2263869985869,804.3851065171664,807.9773102479012,811.5708306166506
1731015704.1604583,793.6514963564016,804.4784624503974,808.3148384553785,811.1395997685762
1731015704.1643412,794.0815611933963,804.5709827681563,808.4177143853066,810.7584799033557
1731015704.168224,794.5143957912796,804.6631559526735,808.2323911615819,810.4103589915887
1731015704.1691396,794.9479098381363,804.755561794345,807.9885971357373,810.0680015164462
1731015704.169209,795.3813534366215,804.8484524786661,807.8344571973214,809.7168146141423
1731015704.172107,795.8150147937245,804.9417779215564,807.5649906388068,809.3567429437992
1731015704.1752634,796.249441735214,805.0353856849616,806.7794817272752,808.9940025207571
1731015704.17599,796.6849449794153,805.1291708470638,805.399797968019,808.6336100791069
1731015704.1798728,797.1215328961476,805.2231106401939,804.0435143762951,808.276921621783
1731015704.1837556,797.5590724999194,805.3172278393383,803.7419938394709,807.9228618233352
1731015704.1847725,797.9974470964573,805.4115463331004,805.0582538247738,807.5699716123346
1731015704.1876383,798.4366139935645,805.5060711110965,807.3267999178387,807.2175280114784
1731015704.1915212,798.8765832016791,805.6007914299302,808.8118325003206,806.8655654948284
1731015704.19408,799.3173754838641,805.6956922591216,807.8587942987883,806.514411846299
1731015704.195404,799.7589977392246,805.7907622694148,804.1923322888802,806.1643053522083
1731015704.1992867,800.2014412135944,805.8859949091903,799.2692426312861,805.8152861484444
1731015704.2004051,800.6446906383911,805.981384709147,795.3249257430375,805.4672733032802
1731015704.2031698,801.0887323633777,806.0769227423779,793.8403758783846,805.1201735790904
1731015704.2042,801.5335569905997,806.1725951180008,794.6361040724597,804.7739358590787
1731015704.2070527,801.9791580085856,806.2683873335093,796.2562415306269,804.4285482109932
1731015704.2109356,802.4255295393264,806.3642938907673,797.2418220638166,804.0840121214038
1731015704.2128968,802.8726650442816,806.4603259937064,797.2262604361686,803.7403230129187
1731015704.2148185,803.3205571688229,806.5565043201883,797.0303590416821,803.3974656572319
1731015704.216038,803.7691981689818,806.6528282410852,797.8044340045836,803.0554189163898
1731015704.2187014,804.2185804977886,806.7492352119383,800.0013885489244,802.7141616023466
1731015704.222584,804.6686974248903,806.8455962265408,802.9995592884272,802.3736751616265
1731015704.226467,805.1195434850871,806.941801597808,805.5850468893217,802.0339431735123
1731015704.2303498,805.5711141714253,807.0379320895346,806.8147909871946,801.6949495195288
1731015704.2316706,806.0234042639865,807.1343798455048,806.5723918264074,801.3566769617993
1731015704.2317135,806.4764052348182,807.2316767703419,805.4896812019214,801.0191071238436
1731015704.234233,806.9301041442554,807.3298918090927,804.4424607413715,800.6822221117056
1731015704.2381155,807.3844875722641,807.4279014527071,804.0690799656905,800.3460069709972
1731015704.2391908,807.8395515638625,807.5234258032666,804.5873407318152,800.0104507343565
1731015704.2419984,808.2953111277243,807.6147934506891,805.8629474940471,799.67554311964
1731015704.2458813,808.751794886153,807.7041633444449,807.532914370818,799.3412661895915
1731015704.2473035,809.209012938181,807.7994541802507,809.0870218874546,799.0075864532574
1731015704.249764,809.6669090960002,807.9104662778444,809.980155270592,798.6744593968579
1731015704.2505302,810.1253461797223,808.0371427144021,809.8631729329904,798.3418562712689
1731015704.2536469,810.5841895871215,808.1566469277278,808.8315769722531,798.0098037007358
1731015704.2575295,811.0434980093216,808.2265951874053,807.425128094051,797.6783955643305
1731015704.2614126,811.503686175068,808.2215538592027,806.276456559434,797.3477231280971
1731015704.262936,811.9653859306036,808.1950383185763,805.7001258115666,797.0177165701541
1731015704.2652955,812.4288074270105,808.3143012657087,805.5963654601791,796.6880107370924
1731015704.2691784,812.8928659212892,808.7922758085351,805.6755485181767,796.3580624215374
1731015704.269347,813.3550326247966,809.7131194405457,805.7145924902248,796.0276823229628
1731015704.2730613,813.8130868757562,810.9145271263687,805.6477362088693,795.6977584734511
1731015704.2741818,814.2687446354073,812.1280601586652,805.5144583495734,795.3703734743156
1731015704.2769442,814.7303774377976,813.279984056829,805.3736748852488,795.0473409922638
1731015704.2785687,815.209662239373,814.5487304072616,805.2554750126674,794.7271921184276
1731015704.2808268,815.7089798680926,816.0066705752361,805.1586354853293,794.4029362770976
1731015704.2847097,816.2056038593349,817.23860995657,805.0691978183131,794.0648793917836
1731015704.288164,816.6513921051999,817.4469538539088,804.9764369344967,793.711112101534
1731015704.2885926,817.0089499572878,816.0323116476527,804.8777132315837,793.360598817831
1731015704.2924757,817.3199380578574,813.1212194420474,804.7755090059592,793.0532990770151
1731015704.2942016,817.7484449407199,809.5726941221649,804.6729553756693,792.8199698671165
1731015704.2963583,818.5019970028576,806.4879507351573,804.5715046801039,792.6254115555853
1731015704.3002412,819.5787171486531,804.629285766239,804.4709792380747,792.3326899890847
1731015704.304124,820.4652677106844,804.1355820861008,804.370611072981,791.7689627756207
1731015704.3069806,820.1215557326682,804.6375176595288,804.2698580123143,790.9344374189737
1731015704.3080068,817.5384455975635,805.594556541892,804.1686137473122,790.2480680874893
1731015704.3091726,812.6155570373156,806.5670108712386,804.06702591877,790.5446262036028
1731015704.3098342,806.5331911730101,807.244732889492,803.965258930196,792.5685561852405
1731015704.3118896,801.0868517185338,807.3028914765794,803.8633808788529,796.1598098846825
1731015704.3157723,797.5094393247863,806.3433405142765,803.7613749371051,799.8885342071741
1731015704.3196554,795.8554993474634,804.1091297181639,803.6591987181837,801.7694895974173
1731015704.3235383,795.4315856500875,800.853305826031,803.5568291221753,800.6873626028
1731015704.325467,795.7459917802988,797.4906852172869,803.4542728348241,797.3367027354735
1731015704.325797,797.0049769616377,795.2554805772075,803.3515508059241,793.8498334675289
1731015704.3274212,799.6636028779723,794.9976239999162,803.2486726387461,792.4738885122069
1731015704.331304,803.5068621679013,796.6096995914431,803.1456174567197,794.3716899902801
1731015704.335187,807.2639805702369,799.0368562501245,803.0423398026802,799.2218186092886
1731015704.3390696,809.2918440559212,800.9031828012312,802.9388139556096,805.4615112639697
1731015704.3410995,808.8468102442649,801.3456224515828,802.835101818115,810.7892797817966
1731015704.3429525,806.8842850441788,800.5211673694637,802.73138066621,812.9505661115589
1731015704.3441637,805.6738837627686,799.4903856412628,802.6278407543956,810.9328530719977
1731015704.344614,807.406868453935,799.5716542625307,802.52443026168,806.0316186112551
1731015704.3468354,812.6854373372847,801.5587085738782,802.4206153229585,801.6550881520558
1731015704.3507185,819.8974968448424,805.250166017006,802.3155230223678,801.3483078885843
1731015704.3546011,825.9644424542591,809.5368241418197,802.2087669180039,806.1564597486695
1731015704.3567326,828.061416264223,812.9631177489133,802.1016603786753,813.498404722974
1731015704.358484,825.1994478210293,814.4409298887819,801.9975685226376,818.818507568508
1731015704.362367,818.6338051389082,813.7657460784724,801.8997445468425,818.9671037536488
1731015704.3634307,810.9684324576904,811.6986868731524,801.8064584706012,814.6409530601479
1731015704.3662498,804.7766285834141,809.5416567504793,801.7069069671579,809.8770874386722
1731015704.3701324,801.659202324181,808.3682950410697,801.5848834907885,808.9848851504734
1731015704.3723652,801.9505940223033,808.3464239369765,801.4351593739977,813.3288570146648
1731015704.374015,804.7149364881401,808.6452408468728,801.2855986827311,820.393839620727
1731015704.3778982,807.9000572792604,808.0580192976834,801.2003857709483,825.7015822422653
1731015704.3791544,809.0079870966543,805.9158227237828,801.2343764101253,825.9805907434268
1731015704.381781,806.4162010194526,802.6254942762422,801.3393494103686,821.1937058529112
1731015704.3822474,800.577901799517,799.4531554111494,801.292338699614,814.1080123966252
1731015704.385664,793.9385192564848,797.7139410421493,800.7724570572299,808.0702980945471
1731015704.387998,789.3469865660837,797.9122926581948,799.6497863862189,804.8938566044972
1731015704.3895469,788.2003184972256,799.4152413900488,798.3195180100955,804.3226032221353
1731015704.3934298,789.8907772550714,800.9276002590202,797.7155949890712,804.9870113119293
1731015704.3973124,792.8385875187071,801.480194488795,798.8026173781324,805.6622599759103
1731015704.4010644,795.8708822752916,801.1779035274135,801.8311875942951,805.859283597986
1731015704.4011953,798.6271631541448,801.0498584858484,805.9479774458757,805.6810175488968
1731015704.4036307,800.9991545034393,802.073887526428,809.5329332030519,805.4108364680098
1731015704.4050782,802.6723844449346,804.204723071744,811.0870531300708,805.2294539107884
1731015704.4089613,803.4170832740145,806.2685771409646,810.0799428227458,805.1595117721624
1731015704.412844,803.5901667693829,806.825739815717,807.211035212996,805.1412229883292
1731015704.4141457,803.9616948862086,805.2641235587699,803.9832091260656,805.1166134271318
1731015704.4167268,804.8804810423013,802.2326017244181,801.932834257125,805.0646711543181
1731015704.4192634,805.7388032202944,799.1340022142658,801.9543313350425,804.9933827845656
1731015704.419881,805.4646842797894,797.1745263936764,803.960649111181,804.9181988085534
1731015704.4206097,803.6049312328865,796.7429560583859,806.9523379687927,804.848116238019
1731015704.4244926,800.8211809538225,797.5099235165462,809.5169362581264,804.7837298566473
1731015704.4283752,798.2018928929983,798.9980835675201,810.6274541382959,804.721645016566
1731015704.432258,796.1217128292981,801.0342830947266,810.3039073896987,804.6588670386784
1731015704.4348962,793.9821210483456,803.6963707898568,809.6104263495341,804.5944371524114
1731015704.436141,791.2580132062783,806.8797595132479,809.8803452436819,804.5288621164727
1731015704.4386978,788.7383516011374,809.9634696864083,811.702727210892,804.4629524101547
1731015704.440024,788.417237879773,811.9553539805422,814.4447300365044,804.397134535902
1731015704.4439068,791.8088588349997,812.060448514056,816.6736438601354,804.3314000866419
1731015704.4477897,798.2107382556754,810.2507798242555,817.1416986247425,804.2655609395736
1731015704.4491365,804.7126520889692,807.4246698857141,815.5854487430005,804.1994700763006
1731015704.4505289,808.1592658891003,805.0556573346709,812.769928784617,804.1330760784043
1731015704.4516726,807.4037084048414,804.5253398500148,809.8112674807314,804.0663617934284
1731015704.4555552,803.8927590139907,806.4318391003117,807.3665906662765,803.9992838600904
1731015704.4575143,800.1687499657521,810.1670142472348,805.357088564238,803.9317974139169
1731015704.459438,797.7662431917112,814.0502119000594,803.4257689939376,803.8639613805766
1731015704.463321,796.4376072509663,816.1408643724084,801.6873371099155,803.7960144926499
1731015704.4661615,795.2469175839108,815.4011956370952,801.0293538206723,803.7282565242054
1731015704.467204,794.2047136509298,812.4409104243381,802.5601812065448,803.6606633859951
1731015704.4710867,794.6494819955941,809.1871184846998,806.5567877328217,803.5924611057873
1731015704.4749696,797.9599963743719,807.5934627380382,811.8178543541311,803.5222322051005
1731015704.4763312,803.9169050124432,808.315044158845,816.1193107472751,803.449105161895
1731015704.4788525,810.3346496062576,810.3490702972483,817.5792993178634,803.3747301064928
1731015704.4817944,814.3086863434271,811.8608538940421,815.9303960445584,803.3042084358638
1731015704.4827354,814.0213255208399,811.4832162136183,812.7229007919708,803.2432366106577
1731015704.4841273,809.7937245385301,809.1082650754995,810.316127009177,803.1905948609849
1731015704.486618,803.8396087941608,805.726927544614,810.3915092649797,803.1307252367386
1731015704.4905007,799.0353467780739,802.6386520949698,812.9539446036995,803.0373055491016
1731015704.4943838,797.4266426952337,800.6993020561243,816.3621449890219,802.8972050941763
1731015704.495148,799.2335134136096,800.0513156267236,818.3013968613733,802.7470192408589
1731015704.4974272,802.9108224759588,800.327301770562,817.1578647547348,802.6857111224386
1731015704.4982667,806.2683435200028,801.0340253767317,813.0693059384023,802.8131414094554
1731015704.5021496,807.8972032806643,801.8342512872603,808.0266730022425,803.0850804648818
1731015704.5060325,807.8415826374337,802.619845216631,804.8320796424701,803.1832893919207
1731015704.5099154,807.0920606781553,803.4277064475341,805.3904507128987,802.6052381498605
1731015704.51306,806.5681477281769,804.3015062233278,809.3479874419513,801.1212166478861
1731015704.5137982,806.643696937223,805.1725970414719,814.0395628674339,799.3811606351869
1731015704.513965,807.4882816007408,805.8004240521412,815.9643902276127,798.963996852626
1731015704.517681,809.4710786724123,805.8155332732099,812.9881973480339,801.2907010353172
1731015704.519118,812.8533595670832,804.902139718468,805.8563637412719,806.0082999126628
1731015704.5215638,817.0117027534233,803.0762333927381,797.9056196725948,810.5349850226114
1731015704.525447,820.2291971116209,800.8879042819341,793.0249925829404,811.7405557550238
1731015704.5286925,820.641787252435,799.3365150070373,793.2038123678655,808.599357726035
1731015704.5293295,817.6723546356546,799.432479536327,797.4049851985562,803.3938870371842
1731015704.5327816,812.6278586745083,801.6025078003178,802.5582976877492,800.1243807948289
1731015704.5332124,807.8402160652118,805.3188271905328,805.8362809171133,801.2761737077707
1731015704.5370953,805.0820109475288,809.2625835222154,806.4066091740922,805.6907390349603
1731015704.5409782,804.5968403177213,811.9973090916146,805.4114468735968,809.4246938303016
1731015704.5443254,805.396746828875,812.739773465546,804.5088949327818,808.8874803075914
1731015704.5448608,806.2984661839075,811.6975532019129,804.4610587887204,803.6043709497527
1731015704.5487435,806.7020731160856,809.7527223296037,804.9334534086439,796.3997272703052
1731015704.5515983,806.649689160712,807.7785237789262,805.3183066569084,791.0883465517065
1731015704.5526266,806.446154839173,806.128956527151,805.4548425007333,789.7434001289956
1731015704.554109,806.318954450074,804.6249906503471,805.4994730573584,791.6548923489706
1731015704.5565095,806.3187831972683,802.920992603618,805.3246557965675,794.4515942001145
1731015704.559958,806.3882166945269,800.8896535026028,804.3649647418586,796.1207893184296
1731015704.5603924,806.4590903014354,798.7673316989358,802.2216058937768,796.2210278636176
1731015704.5642753,806.5011656057073,797.0576249152629,799.3637801164931,795.5721674278487
1731015704.568158,806.5193831871181,796.3347013955997,797.0729354924555,795.0832264351876
1731015704.570415,806.5307111850071,797.0511203178961,796.5602953978671,794.9364999434978
1731015704.572041,806.5466822865765,799.3590394849217,798.0560875723609,794.7486017838315
1731015704.5755908,806.5692848733867,802.9374437620378,800.7095592374584,794.301334666153
1731015704.5759237,806.5951607091391,806.9061749953927,803.3686029503837,793.9823143504792
1731015704.5798066,806.6207498958216,809.9939238004603,805.5141127962601,794.5097626264647
1731015704.5836897,806.6446281630513,811.0543649071908,807.5170561824108,796.2663821003669
1731015704.5875723,806.667176858403,809.7451654741898,810.0161864216441,798.8736037294354
1731015704.5891,806.6893125772763,806.8994723388091,813.0194997426864,801.3219516906746
1731015704.5892315,806.7116063409962,804.1719762653358,815.6067824494125,802.4954776704272
1731015704.5912237,806.7341207160151,803.0476327355061,816.5769655051732,801.7633402091103
1731015704.5914552,806.7566576151315,803.8944147949447,815.4869595256581,799.4217217942507
1731015704.595338,806.7790280593276,805.8265884928967,813.1066899725741,796.8056002169177
1731015704.599221,806.801162585996,807.5126641579249,810.8213024849534,795.8196216735339
1731015704.6031036,806.8230830924887,808.2281350601992,809.5055626640863,797.8481105999607
1731015704.6068563,806.8448312323972,808.2361820258329,808.9086780092116,802.6238153716362
1731015704.6069863,806.8664226216439,808.2359620855932,808.0976625673285,808.0477040032704
1731015704.6080484,806.8878437180701,808.4990798948074,806.5005273151495,811.4237271194103
1731015704.6108694,806.9090751414271,808.5419068678654,804.5546377217239,811.3329340922035
1731015704.6147523,806.9301163993433,807.5918897333095,803.3737828285826,808.6295367430649
1731015704.6186352,806.9509900998662,805.3576444236511,803.7539142806153,805.67817793488
1731015704.622489,806.9717133672093,802.408579760517,805.4043401064106,804.4441584611693
1731015704.622518,806.9922462268446,799.8801569353507,807.0681166044022,804.9899543225043
1731015704.624091,807.0124618260237,798.7751978843091,807.4265171833312,805.5183195523351
1731015704.6264007,807.0322060175678,799.3771662108858,806.0313786026496,803.8386340854956
1731015704.6268651,807.0514742625774,801.142389532045,803.5180503344176,799.1280618531005
1731015704.6302838,807.0706031530632,803.0910680290469,801.0044668399009,792.7669424121598
1731015704.6341665,807.0902183036376,804.4102882299266,799.2851686292216,787.7279831084671
1731015704.6380494,807.1106922990167,804.8774003545541,798.522785184121,786.9364352607532
1731015704.6381218,807.131251322193,804.8648415200238,798.5580008636811,791.6151021008408
1731015704.6419322,807.1495631001729,804.9992749345063,799.3332630978564,800.5727043714865
1731015704.645682,807.1630434062909,805.7751947035824,800.9091321127288,810.799141785389
1731015704.6458151,807.1722614344491,807.370296078525,803.1036858286471,819.0004371078105
1731015704.649698,807.1842779896347,809.6555499701615,805.2554387324998,823.2145161458253
1731015704.653581,807.2109751325962,812.2325392948779,806.4955833854573,823.5953347232156
1731015704.6537545,807.2581627895781,814.4343642780495,806.3688492251421,821.8981330313493
1731015704.6574638,807.3090672413091,815.42586105656,805.2376792025522,819.9980086452716
1731015704.6590817,807.3187635462472,814.5356167250605,804.0382754559646,818.4771966007163
1731015704.661347,807.24219988606,811.6983174539625,803.5158396873992,816.3727510313104
1731015704.6644988,807.0997495161711,807.6616329289075,803.5647780660054,812.3831028798559
1731015704.665229,807.0351291917082,803.7088393706634,803.2830903849461,806.6217354103687
1731015704.6691122,807.2724379315032,801.028533987627,801.7695451000881,801.3132744668437
1731015704.669387,807.9042571641631,800.1701004210172,799.0087858722227,799.4626430729901
1731015704.672995,808.6049259622076,800.9457382918145,796.0464424856111,802.2921548497978
1731015704.676878,808.5892433520959,802.7484640996439,794.263376028706,807.661188516521
1731015704.6807609,807.1207182644499,804.9439408242866,794.3759306927284,811.1865887097994
1731015704.6833155,804.3711852605788,807.0514158454927,796.0074306089352,809.4867253520412
1731015704.6846435,801.8309904450304,808.7319294430612,798.0953088892719,802.941243544646
1731015704.68502,801.5873151115602,809.7864108922738,799.6642710349252,795.6122062718513
1731015704.6885266,804.7883103311751,810.2539545151286,800.3351723198958,792.3498981196518
1731015704.6924093,810.5515667610189,810.4698892645031,800.3452873937689,795.4192353226857
1731015704.6940727,816.3875194800165,810.8944036351014,800.2536712221787,803.2125340442725
1731015704.6962922,819.9072788937277,811.7409660208825,800.5650114722582,811.7431305927778
1731015704.700175,820.3808495972634,812.7005439670822,801.4299357606795,817.4137575439794
1731015704.7006526,818.8371624203631,813.0703958525047,802.5846372073572,818.8553906173238
1731015704.7021322,816.7682918619302,812.280080972514,803.6193694383228,816.7861348285692
1731015704.704058,814.7428829251376,810.418283276215,804.3663988100102,812.6109315324409
1731015704.7079408,812.1615283395638,808.2779607644788,804.9908927183722,807.297176734616
1731015704.7118237,808.2181515853077,806.8005865870226,805.657520659,801.3890646160531
1731015704.7157066,803.0778973357945,806.3449395885809,806.1872150775519,795.7016232228358
1731015704.7162857,798.2108230002897,806.4283314405803,806.182549428816,791.5792991654383
1731015704.7195897,795.5990910477532,806.2108836468932,805.509205617557,790.1956629353597
1731015704.7209487,796.4425453121021,805.308967618803,804.5314622369226,791.5547784011587
1731015704.723472,800.3642398445568,804.190583068116,803.7975163977386,794.3307133542987
1731015704.727355,805.7112006619036,803.7856320260942,803.5738092520429,796.8267938596581
1731015704.7290635,810.6580031802064,804.6768906057897,803.7909309749184,798.1105642855347
1731015704.731238,814.1921558005831,806.5904932042496,804.3848981215971,798.304065260027
1731015704.731918,816.268802826492,808.5607330591176,805.4932934524247,798.0476367998267
1731015704.7351208,817.2463555477218,809.5229816412902,807.1910727743438,797.8671347543177
1731015704.7390037,817.3112286795347,808.8340350215017,809.1124616144976,797.931069715046
1731015704.7397656,816.4218223497243,806.4759171581908,810.5255928119734,798.1557146567047
1731015704.7428863,814.6520437287612,803.0371774281192,810.8936093927698,798.4034076713019
1731015704.7467694,812.4131720709336,799.5851022445612,810.327399221947,798.6000308160185
1731015704.747551,810.2327688665142,797.3594871797332,809.4350191878859,798.7453275420577
1731015704.750652,808.3002437779276,797.2339922744151,808.7808143520896,798.8710325191284
1731015704.754535,806.310788675917,799.1903743789243,808.5372720336867,799.0028357002594
1731015704.7584178,803.9290927438753,802.252468533529,808.5550839597181,799.1477942805096
1731015704.7585826,801.5901451148804,805.0618345591478,808.6174323041464,799.3005591602595
1731015704.7623007,800.8620173836906,806.7014474483734,808.6066484104655,799.4538014073845
1731015704.7631836,803.7218653798393,807.1071025683905,808.5188291335428,799.6039303509092
1731015704.7640543,810.9236063588812,806.814657906257,808.4006388885491,799.7512154329683
1731015704.7661836,820.6141012304964,806.4128043201843,808.2910708663284,799.8974266462926
1731015704.7700665,828.5722399111808,806.1980738062693,808.2013773922658,800.0438827685778
1731015704.7739494,830.4048193511675,806.1733598565905,808.1238320613517,800.1908944138576
1731015704.7773993,824.3721175364492,806.2191369535623,808.0473724084488,800.338154610038
1731015704.7778325,812.714669160212,806.2397689971322,807.966413861856,800.4852925981726
1731015704.7788165,800.3335585764081,806.2102413611572,807.8812173745271,800.6321517530855
1731015704.781715,791.7195365074551,806.1517216089687,807.7943956316267,800.7787752665395
1731015704.7855978,788.3676102525175,806.0920688775184,807.7079421366598,800.9252751603215
1731015704.7894807,788.4449158702383,806.0446363997836,807.622341224844,801.0717329910493
1731015704.7933636,788.7018399743822,806.0082101737343,807.5371285559679,801.2181762137825
1731015704.794449,787.022276545251,805.9760800155108,807.4517248338259,801.3646018282312
1731015704.796216,783.7486363325456,805.9433710471404,807.3658660288537,801.5110055668674
1731015704.7972465,781.0004729224166,805.9090475164452,807.2795913399358,801.6573952206626
1731015704.799045,780.7069199221523,805.8743749494702,807.1930485514081,801.8037888130509
1731015704.801129,782.9298624915818,805.8408210257973,807.1063424787293,801.950207394043
1731015704.8050122,785.7552294966702,805.8090268046619,807.0194966201125,802.0966700157373
1731015704.808895,786.829843470987,805.7788807293115,806.9324875022919,802.2431927768746
1731015704.8100815,785.3559112367775,805.7500202671888,806.8452889707468,802.3897902072479
1731015704.8127778,782.9530088046251,805.7222039196345,806.7578932015906,802.5364767884781
1731015704.8150327,782.6205372464411,805.6953953638548,806.6703084321484,802.6832675773684
1731015704.8166606,786.5027804696227,805.6696718296106,806.5825475422054,802.8301780411089
1731015704.8205435,794.1353861564027,805.6451145020592,806.4946191262902,802.9772236335982
1731015704.8244264,802.546634391381,805.6217590216048,806.4065251842392,803.1244194994803
1731015704.8257146,808.2011390147622,805.599600751172,806.3182646938885,803.2717804107789
1731015704.8283093,809.3636516046269,805.5786180833315,806.2298405350722,803.4193208765959
1731015704.8321922,807.1351664994351,805.5587894315258,806.1412655383914,803.5670553252395
1731015704.8338494,804.4380918875358,805.540102947771,806.0525610336819,803.7149982374646
1731015704.8340364,803.770290677364,805.5225672342236,805.9637421381436,803.8631640707611
1731015704.8360753,805.3897126478233,805.5062207775035,805.8747938218112,804.0115668534792
1731015704.8399577,807.1736892125257,805.4911205635434,805.7856596088903,804.160219582491
1731015704.8413472,806.1794106270696,805.4772903224268,805.6962754325424,804.3091339920018
1731015704.8438406,800.8256652252159,805.4646450287305,805.6066590876584,804.4583214788966
1731015704.8477235,792.2550585540927,805.4529694811702,805.5169990918719,804.6077953467409
1731015704.8516064,783.9452195371475,805.4420556589309,805.427613170804,804.7575728399921
1731015704.852666,779.7324063161088,805.4320114487023,805.338663870822,804.9076737197995
1731015704.8554893,781.4780753418243,805.4235198134571,805.2497225369756,805.0581128481439
1731015704.85698,787.9173856158859,805.417605630786,805.1596143090496,805.208889593764
1731015704.859372,795.4653876415564,805.4145955976692,805.067142209424,805.3599852247412
1731015704.863255,800.4269731489559,805.4127125228933,804.9728038579522,805.511382653961
1731015704.867138,801.1445996990832,805.4078625392997,804.8803220067834,805.6631094682215
1731015704.8690271,798.7491264345639,805.3965073419341,804.7955170360933,805.8152725604168
1731015704.8710206,796.1574828046525,805.3815392936644,804.720634588477,805.9680228662398
1731015704.871483,796.0608119060564,805.3766044571582,804.6463456402846,806.121408734118
1731015704.8726127,799.2056167993552,805.4005371766532,804.5499618849943,806.2751833378336
1731015704.8749034,804.020492851256,805.4569004203329,804.4107087000966,806.4287851178466
1731015704.8787863,807.7412508448637,805.50868143076,804.2424906968145,806.5817492001952
1731015704.8826692,808.1781517241641,805.478701427006,804.1197532785699,806.7345234119838
1731015704.886552,804.8811929729841,805.3098715770943,804.1497792744773,806.8890393597953
1731015704.8882456,799.0629537268895,805.0789884752893,804.3609208377242,807.0478834757566
1731015704.8902998,792.7104221679084,805.0755087441195,804.5586011347523,807.2114158888841
1731015704.890435,787.7901091250554,805.7023021028816,804.3020622949372,807.3743031469114
1731015704.894318,785.906847471485,807.1617866501978,803.1245877623504,807.5257276998768
1731015704.8982005,788.0338370544322,809.1792219659686,800.8999652526785,807.6578472896612
1731015704.9020834,794.0203241484629,811.131072167212,798.081068956613,807.7811516612034
1731015704.9038782,802.3272727762414,812.5285744725802,795.6307701932516,807.9335452366008
1731015704.9040182,810.6448058319763,813.3130856048872,794.6809285485257,808.1616390085246
1731015704.9059663,817.1796888846262,813.644958056977,796.046301579551,808.4646110047482
1731015704.9091165,821.4893646209565,813.5472013407423,799.7381371706851,808.73267988841
1731015704.9098492,824.0808789237152,812.9055575526372,804.7075091920124,808.7627600380813
1731015704.913732,825.3419903091639,811.7676074257868,809.0962805814219,808.4317662508846
1731015704.9176147,825.0866527448026,810.4481596389069,811.0587206791457,807.9873539291481
1731015704.9195108,823.1388946884508,809.2200874752091,809.7736838884806,808.197197915231
1731015704.9214978,820.0147915418047,807.9712890865525,805.9869168635621,809.9766631240195
1731015704.9253807,816.6445488743817,806.3417719289636,801.6648458986333,813.4195953048451
1731015704.9279332,813.3718517844397,804.30570184796,798.9677153409472,816.9439716966864
1731015704.9292634,809.5325854564445,802.5572522798788,799.1976335797422,817.7277393109886
1731015704.9331462,804.3849330572153,802.1301921457273,802.2708765609201,813.6915342299882
1731015704.9351437,798.6066345056073,803.4423000401337,806.8288298028492,805.5523282887107
1731015704.9370291,794.7436677272871,805.6592920434526,810.818398781277,796.9914001895794
1731015704.939009,795.8144969298826,807.1483390636489,812.3508996072593,792.5058552754102
1731015704.940912,802.965032877523,806.8255240475902,810.6046504303532,794.4730704769744
1731015704.944795,814.0609637010556,805.2435068806499,806.3557932688288,801.5755525475922
1731015704.94675,824.5144274353329,804.3025787159179,801.7120425279224,809.7116191180627
1731015704.9486778,829.9522518061248,805.6433796555601,799.0470928551841,814.7345077646136
1731015704.9507763,828.8969269227181,809.0862631216071,799.720041706242,815.0241726663828
1731015704.952561,823.5690393088819,812.6076625266423,803.3613206709377,812.0048983087337
1731015704.9564435,818.2775097787337,814.0005139207962,808.1273885158665,808.4419106643
1731015704.9603262,816.6108188209711,812.7546513388536,811.7221265651359,806.2588756800269
1731015704.9642093,819.4368968025791,810.4265630180762,812.5983932986078,805.6971188758458
1731015704.9655666,824.9463593498926,809.1937660930718,810.7318948203856,805.9608542481683
1731015704.9664092,830.3210527460977,810.0102949258574,807.6001152654126,806.2293076941123
1731015704.968092,833.5218777732784,812.0605666688035,805.3732796646863,806.1589573772957
1731015704.9719748,833.9930158230699,813.8243709538787,805.7152681385729,805.8179768072215
1731015704.974,832.2229186659675,814.5146549606076,808.8336389284905,805.4062679120742
1731015704.9758575,828.9153303201641,814.4927820814213,813.3396883883084,805.0545884074894
1731015704.9797406,824.4903475815071,814.4962410113151,817.0512428462919,804.7819913808892
1731015704.9820418,819.1431125173551,814.7167602111975,818.2927139267122,804.5475155608135
1731015704.9836235,813.2663197361588,814.7301794841114,816.883299802863,804.309962667502
1731015704.9843836,807.8349689473898,814.2135845672536,814.1526927374265,804.053758932576
1731015704.9875062,804.3386831795013,813.5290483538728,811.9568391871654,803.7840663898078
1731015704.991389,804.1289268077942,813.467549713563,811.3795802130736,803.5117273139673
1731015704.995272,807.5854086274202,814.3871086023101,812.068287895285,803.2432444375454
1731015704.9976747,813.8145138450274,815.6238844992954,812.7014822859579,802.9791856848504
1731015704.9991548,821.1794817353427,815.8113400813635,812.199605595338,802.7172063431733
1731015705.0030377,828.1216940410966,813.9149786396507,810.6690117225932,802.4551675473022
1731015705.0032003,833.4502959848292,810.1421265809686,809.290834286365,802.1923482526464
1731015705.0069206,836.019495822423,805.9504486703166,809.2852331376454,801.929081601829
1731015705.0089908,834.6316236953078,803.0915276271066,810.8699849614034,801.6659419398208
1731015705.0108037,828.8417420932219,802.4037683627841,813.0752650191517,801.4032452824896
1731015705.013307,820.0784083137362,803.262517826094,814.4902189536739,801.1409924932009
1731015705.0146863,811.6134813299486,804.0541478140741,814.271717682025,800.8790337188788
1731015705.018569,806.712734997798,803.2700210613845,812.6451108215193,800.6172263514289
1731015705.022017,806.2034297969939,800.4712409177423,810.6081184091621,800.3555042498937
1731015705.022452,807.6655095542069,796.6047399019121,809.1330862424705,800.0938867288531
1731015705.0263348,807.2363435141282,793.5665049020587,808.4635831870933,799.8324660354242
1731015705.0289402,802.676942730196,793.1844788389672,808.0060382283133,799.5713629030266
1731015705.0302176,795.1973761071268,796.0301750162502,806.8903597781639,799.3106157870086
1731015705.0341003,788.6667345321904,800.7624055778618,804.748540000564,799.0500312605891
1731015705.0379834,787.0273578384288,804.6854711345167,802.0506587094388,798.7891492094627
1731015705.0408337,791.9243538824782,805.4543244960597,799.7196179343015,798.5275353833546
1731015705.0418663,801.9511071524665,802.7827148704116,798.4255311485177,798.2654233670866
1731015705.0439818,813.4774796893032,798.7126213017996,798.2374129382194,798.0042426469175
1731015705.0445728,822.1913197359329,796.0663784296881,798.8666586542646,797.7461135526839
1731015705.0457487,824.6481207787828,796.3261000082889,800.0806375990811,797.4916696941311
1731015705.0496318,819.5744825317157,798.7759645114942,801.7558783680876,797.237152523984
1731015705.0535147,808.6737528098221,801.5180447921493,803.5756946088446,796.9740357875676
1731015705.0573976,796.3794015007077,803.14132820175,804.8739579327448,796.695082989426
1731015705.0596504,788.1272025947137,803.4706169806449,804.9644423939397,796.4065684312154
1731015705.0602057,787.5923275496856,803.1310680053889,803.6821880101293,796.1370786650073
1731015705.0612805,794.3717704134393,802.7739981938078,801.5659953585744,795.9255819391477
1731015705.0651634,803.7849117750253,802.6786498655584,799.4835816810394,795.7786638380474
1731015705.0690465,809.3403671572967,802.7975365813114,798.0700252563718,795.6183676714039
1731015705.0729291,806.5934829875711,802.9748941853305,797.4620954816831,795.2845374009468
1731015705.0758383,795.9811044517396,803.1065446879609,797.432211176589,794.662208280076
1731015705.0768118,782.76281198561,803.175828706783,797.669623754658,793.9198191459736
1731015705.0784671,774.049375375202,803.2141876583509,797.9606537359773,793.674597506323
1731015705.0789726,774.6803292824984,803.2541084634274,798.2204271516825,794.7961732838834
1731015705.080695,784.3303791730523,803.3082262600259,798.4468879184803,797.7513507635376
1731015705.0845776,797.5358225590035,803.3727404718891,798.6648068184223,801.8819532777145
1731015705.0884604,806.7631059322293,803.4391510093191,798.8917407543488,805.337915630779
1731015705.091471,806.8473703890113,803.5022388565686,799.1301151816617,806.0546391412604
1731015705.092343,798.0918359923762,803.5614463219499,799.3739928343905,803.2784495369798
1731015705.0962262,785.9750077570513,803.618558027706,799.6174415678956,798.4725317289453
1731015705.0972838,777.6298591641812,803.6752409122747,799.8582036935533,794.7153197887616
1731015705.100109,777.4976745394936,803.7320607376788,800.0970019244322,794.8573911420275
1731015705.103992,785.0460321941214,803.7887477607978,800.3353868770222,799.7338040798522
1731015705.1071038,795.7875627546131,803.8448333304553,800.5742972324746,807.6569361689475
1731015705.1078746,804.4254555547467,803.9000481547896,800.8138240899787,815.3673854367472
1731015705.1117575,807.7067875608493,803.9543692816517,801.0536395622099,819.6710359915296
1731015705.1139636,805.2919203995871,804.0078867352087,801.2934429269798,818.8730374144905
1731015705.1156404,798.7616810778278,804.0606759684241,801.5331356035584,813.5087190718709
1731015705.1161008,790.1577440504544,804.1127525130014,801.7727703463412,806.1311579940142
1731015705.1195233,781.2965764043689,804.1640902974709,802.0124351142937,800.0894322846751
1731015705.1227365,773.9734877941869,804.214655886853,802.2521811005945,797.7513895196487
1731015705.1234062,770.2404410146925,804.2644281726518,802.4920141473417,799.258700514803
1731015705.1272893,771.9627318888837,804.3133995067011,802.7319184589471,802.760989155281
1731015705.131172,779.6757064101864,804.3615681509599,802.9718801129064,805.9099702404077
1731015705.1349175,791.6009965513261,804.4089317122998,803.2118978814725,807.2922287481335
1731015705.1350546,803.8344984669783,804.4554851025323,803.4519840429524,806.6975346068082
1731015705.138369,812.0186033586467,804.5012217175637,803.6921596510676,804.4431430000011
1731015705.1389377,813.7015755501548,804.5461352625964,803.9324438706969,800.866569619048
1731015705.1428204,809.8594100907465,804.5902207134686,804.1728369374945,796.5707845676473
1731015705.1467032,804.3661495281639,804.633474304651,804.4133065136149,792.8141429911334
1731015705.1489544,801.5260452793077,804.6758931047676,804.6537999775204,791.1154140284043
1731015705.150586,803.2499931578053,804.7174746782011,804.8943005390045,792.1245853955942
1731015705.1537342,807.8934682886893,804.7582169930508,805.1349055983685,794.9153266519871
1731015705.154002,811.669210604827,804.7981184901699,805.3758438526033,797.6821875965614
1731015705.154469,811.6125754099487,804.8371781757626,805.6173249499061,799.3976669667496
1731015705.158352,807.8071998445339,804.875395663488,805.859217658792,800.8160196889273
1731015705.1622348,803.1104621252011,804.9127711655871,806.100796568604,803.6764956316454
1731015705.1661174,800.6659287888476,804.9493054644655,806.3410163604389,808.7166065257471
1731015705.1696348,801.3522830918204,804.9849998902608,806.5796148467016,814.3765263680533
1731015705.1700003,803.3001160291731,805.0198563114325,806.8185407580144,817.5396194629296
1731015705.172551,803.706322545005,805.0538771330758,807.0620614861259,815.8268262847846
1731015705.1738832,801.18899465993,805.0870652956771,807.3136429117098,809.5666459880725
1731015705.177766,796.6744260195538,805.1194242707247,807.5698546745541,801.8043383772804
1731015705.181649,792.3411153918428,805.1509580534319,807.8162135217324,796.3155623885883
1731015705.1839454,789.8475802019874,805.1816711543206,808.0335739873137,795.1844715942506
1731015705.1852674,789.411164172768,805.2115685909687,808.2197549236854,797.7791810015923
1731015705.185532,790.2557795232389,805.240655880225,808.4151350970185,801.7083958970151
1731015705.1894147,791.7037331115548,805.2689390305803,808.7001538429664,804.7146436951787
1731015705.1913676,793.8174432581337,805.2964245343187,809.1307090700211,805.9269648482068
1731015705.1932974,797.0811814244987,805.3231193592834,809.6218381401247,805.7897850937632
1731015705.1971805,801.5015955741806,805.3490309402932,809.8766480792568,805.2045276745662
1731015705.2009,806.0078946616361,805.3741671703118,809.5130008736697,804.7919035391282
1731015705.2010632,808.8155266896405,805.3985363914409,808.4319291892754,804.6956725553867
1731015705.204946,808.6227369624348,805.4221473857573,807.1603141964788,804.7750199419279
1731015705.2088287,805.7310555998317,805.4450093659813,806.6935571379296,804.8581350965334
1731015705.2101843,802.1163274515839,805.467131965963,807.7167447848195,804.868323418596
1731015705.2127118,800.2850072101651,805.488525230984,809.816540084112,804.8180493984593
1731015705.2165327,801.7554459734691,805.509199607885,811.530444580673,804.7504290324609
1731015705.2165947,806.2720992631613,805.5291659350277,811.3883894058628,804.6948525519687
1731015705.2189362,812.1635568469358,805.5484354321021,809.1508793920603,804.6564611899365
1731015705.2204776,817.3321013455399,805.5670196897853,806.1878083317802,804.6267674238242
1731015705.2243602,820.1124605023994,805.5849306592564,804.6090536566132,804.596732826762
1731015705.228243,819.7291472722186,805.6021806415715,805.7616084699873,804.5627325820335
1731015705.2290013,816.5397058439877,805.6187822769037,809.2229274829708,804.5257362720197
1731015705.232126,812.079462420642,805.6347485336529,813.0614538536438,804.4880849130224
1731015705.2321656,808.5292936304127,805.6500926974273,815.1953397130187,804.4512486676392
1731015705.236009,807.4875268345074,805.6648283599059,814.8466907769935,804.4154071442483
1731015705.2398918,808.8275119006585,805.6789694075891,812.979165093611,804.3800753322339
1731015705.243775,810.7833422771469,805.6925300104482,811.3778258399286,804.3447878696966
1731015705.2476575,811.4073999505147,805.7055246104778,811.1535511795289,804.3093808278426
1731015705.2477984,810.1114520909002,805.717967910142,811.9613606015429,804.2739244266115
1731015705.247818,807.8736447459896,805.7298748606938,812.5583605731007,804.2385477497908
1731015705.2515404,806.1186635205232,805.7412606503602,812.0633511371132,804.2033265588186
1731015705.2539272,805.553650432927,805.7521406924249,810.6682617551505,804.1682683218623
1731015705.2554233,805.9512266174139,805.7625306132983,809.2063915099789,804.1333483792149
1731015705.259306,806.6916451484587,805.772446240678,808.1857700403142,804.0985454877224
1731015705.2631888,807.3203980588436,805.7819035917738,807.3728467673482,804.0638548858989
1731015705.2634313,807.7211102515403,805.7909188613335,806.313867889285,804.0292835304675
1731015705.2666347,807.9899823593473,805.7995084090298,805.1304670410314,803.9948406433256
1731015705.2670715,808.2527060714142,805.8076887460032,804.6581699182136,803.9605321466307
1731015705.2709546,808.5685474897325,805.8154765212089,805.7288924633527,803.9263602434461
1731015705.2748375,808.9310157237131,805.8228885092627,808.2901560533078,803.8923254693289
1731015705.2787204,809.3093639285931,805.8299416014554,811.1994777622784,803.8584285216334
1731015705.279064,809.6816239430169,805.8366527991203,812.8850541055391,803.8246708485163
1731015705.282603,810.043332795368,805.8430392039583,812.3344971478745,803.791054335829
1731015705.2854514,810.4003493004006,805.8491179971005,809.6986999839108,803.7575808008914
1731015705.286486,810.759317690023,805.8549064040864,806.1754381552068,803.7242517168338
1731015705.2889185,811.1230776044757,805.8604216595859,803.3294381524537,803.6910682025533
1731015705.2903688,811.491067840878,805.8656810043486,802.2692062117885,803.6580311259185
1731015705.2942517,811.8616240642106,805.8707017430299,803.0947336034536,803.6251411883209
1731015705.2946966,812.2336546272384,805.8755013409981,804.8590282716511,803.5923989572221
1731015705.2981346,812.6070017247167,805.8800974524486,806.0516520142834,803.5598048767274
1731015705.3020177,812.9820119069174,805.8845077291279,805.3978007957014,803.5273592779812
1731015705.304268,813.3590358568293,805.8887493779307,802.6250030508942,803.4950623622686
1731015705.3059003,813.7382114739416,805.892838758554,798.7973156724859,803.4629141050378
1731015705.3097832,814.1195046920647,805.8967916403745,795.9157857534062,803.4309140861316
1731015705.3103294,814.5028336760263,805.9006246007127,795.8441323769375,803.3990613867725
1731015705.313666,814.8881467065873,805.9043570269865,799.1498775417367,803.3673547955439
1731015705.3175488,815.2754273884021,805.9080115943406,804.6967898407844,803.3357934387221
1731015705.3214316,815.6646682564174,805.9116104830815,810.3590971119781,803.3043774819977
1731015705.3230848,816.0558622595966,805.9151671642732,814.3092416048443,803.2731079746603
1731015705.323909,816.4490285627685,805.9186797966577,815.8467213058952,803.2419849204518
1731015705.3253143,816.8442420735902,805.9221379521344,815.2406597396546,803.2110040230698
1731015705.325962,817.2416060893456,805.9255505546832,813.0328749764394,803.1801550763838
1731015705.3291974,817.6411307676294,805.928982539319,809.6295364449445,803.149426519026
1731015705.3330803,818.0425776046285,805.932558488474,805.4489505860579,803.1188177074141
1731015705.3369632,818.445458414363,805.9363841348793,801.16000179883,803.0883513022942
1731015705.3408458,818.8493976735302,805.9403908696117,797.5401380893925,803.0580679104731
1731015705.3415947,819.2548122626303,805.9442271374686,795.1050498642189,803.0279872291684
1731015705.3419018,819.6633394807225,805.9474167760362,794.0111372852407,802.9980477390015
1731015705.3447287,820.07705614217,805.9499082131339,794.3375907810672,802.9680841548377
1731015705.3486116,820.4960203210657,805.9527346270648,796.2885948673519,802.937925498347
1731015705.3524945,820.9154847548733,805.9579725798542,799.914765072227,802.9076312308734
1731015705.3563774,821.3263976538409,805.9671286513604,804.5886027279754,802.8777053206461
1731015705.3572276,821.7228239301652,805.9782141205463,808.8864736366099,802.84894778237
1731015705.3589,822.1146788555546,805.9840199540237,811.2100070157582,802.8216785965255
1731015705.3602602,822.534310510379,805.975692318023,810.7563842684842,802.7946296280362
1731015705.3607185,823.0192027438961,805.9534432973142,808.0573558923513,802.7646749391188
1731015705.3641431,823.5642674180502,805.9382951054819,804.6182872068673,802.7289036876101
1731015705.368026,824.072740867899,805.9691664251834,801.9143889154343,802.6891297498292
1731015705.371909,824.3752245469033,806.0701235625698,800.5103669435498,802.6555147970199
1731015705.3728602,824.3796168216761,806.1959220679968,799.9318363695589,802.6428617694645
1731015705.3757915,824.3077066786348,806.2065023555446,799.2717563786872,802.6552433854318
1731015705.3795352,824.7897436796976,805.9468345573407,797.95231859064,802.6658354684057
1731015705.3796744,826.4919979940178,805.4585952974215,796.0628166543819,802.6149051329605
1731015705.383557,829.2019535623031,805.1994665589516,794.1670379951828,802.4529456185088
1731015705.3874402,830.9899256753556,805.9879036284867,792.8991155606486,802.2260928980604
1731015705.3884933,828.6694652858682,808.4711003034017,792.677113398247,802.1355931568717
1731015705.391323,820.0892194732677,812.388662090864,793.5990159380993,802.4499911255558
1731015705.3938909,806.6667010226994,816.3574686241288,795.4352732787038,803.2009041526841
1731015705.395206,793.4566501156676,818.5973146683255,797.7196891740076,803.8131976788785
1731015705.398352,786.0543597947169,818.0994737671336,800.0083403551231,803.1067586327464
1731015705.3990889,786.8223245288302,815.2899223002294,802.200296897766,800.1190155580313
1731015705.4029715,793.6176377036888,811.7210796025339,804.588789385474,795.5144857425452
1731015705.4041257,801.8074521601231,809.1033952829661,807.446056331297,792.1868381626757
1731015705.4068544,807.5591807372124,808.3635566923292,810.4638760805235,793.5952385979482
1731015705.4107373,809.7418582718411,809.2598131199554,812.7094335087994,800.6083477947452
1731015705.4146202,809.4335579747142,810.6548369378113,813.3604621784183,809.9472406849792
1731015705.4171686,808.1209718916704,811.1827473442953,812.6076976997996,816.2574900378253
1731015705.418503,806.3578366546661,809.9388641610017,811.7307420119326,816.2046553190934
1731015705.4197586,803.7331431476333,806.9218411134347,812.0664213468674,811.0049151981023
1731015705.422386,799.7081666742531,803.104403575438,813.7641307194151,805.3545722365594
1731015705.4262688,794.3689922505938,800.1033896249396,815.5658069102135,803.8136750111765
1731015705.428882,788.5337037674045,799.4990595366504,815.8869045737578,807.5333824994259
1731015705.4301517,783.324282988125,802.0022192523784,814.182622055598,813.6847383646141
1731015705.4340343,779.6763668639109,806.8672119393643,811.324635443058,817.8073712542857
1731015705.4353912,778.1600968460132,812.0098035497437,808.728933296583,817.2047092940095
1731015705.435985,779.1082447174997,814.9890960642712,807.1679793654243,812.8927447104752
1731015705.4379172,782.7238756879605,814.3990709959833,806.3828828571919,808.779423712146
1731015705.4418,788.8557635894152,810.7531421132696,805.7189723087889,808.7651520274268
1731015705.445683,796.5112194590761,806.1704991060143,805.01306157099,813.8668639356074
1731015705.449566,803.6072789936733,803.0532888290809,804.7977157204659,821.367801444641
1731015705.4510238,807.5064291523046,802.7235325155742,805.6193189565632,826.5301458497493
1731015705.4534488,806.3577001945657,804.9226174574991,807.1670417485755,825.627401224332
1731015705.4548025,800.4687158691321,808.2771563398875,808.1618717108132,818.2162728837717
1731015705.4573317,792.5572641994004,811.146701282508,807.3026541185815,807.2263616043118
1731015705.4612143,786.3322531935728,812.2830460097026,804.5257657499435,797.013986394917
1731015705.463873,784.1888416613114,811.186699351964,801.3546373548428,790.8169700457702
1731015705.4650972,785.7396189713346,808.2901727635308,799.7923009917565,789.2454480532393
1731015705.4666567,788.4028848455864,804.9216074800344,800.5912918643847,790.5677695867419
1731015705.46898,789.588256679304,802.8231472619552,802.5025549705607,792.264018007858
1731015705.472863,788.6719605222577,803.2434333558172,803.3201120536444,792.5419485497451
1731015705.473619,787.2210564101557,806.1179970183488,801.8122884407227,790.8677220603406
1731015705.4767458,787.5141747983647,809.9851303592163,798.7234589702196,787.7049963379594
1731015705.4806287,790.7637941327797,812.7817695767259,795.9738649835883,784.3061032923692
1731015705.4822893,796.3827121340184,812.9781412565475,795.001748287193,782.7529343714847
1731015705.4845116,802.4745800857091,810.3074652956441,795.9192801663844,785.4220752094756
1731015705.4883945,806.777770213727,805.7429087999069,798.0923924027588,793.3260601929549
1731015705.4922771,807.3789439396813,800.9017088385187,801.2026670611126,804.4139271835098
1731015705.4924357,803.2172836309451,797.2905026003896,805.4891541392097,813.8547309145664
1731015705.49616,794.7188225335196,795.7394839565335,810.917434619411,816.9423064543821
1731015705.4979222,784.4129896797093,796.2023870698223,816.2556374831565,812.6405168563824
1731015705.4988637,776.6914153082544,797.9296701396399,819.2333560520549,804.7279966255404
1731015705.500043,775.986171959157,799.8803277173982,817.988555332888,799.3182332156506
1731015705.5039258,783.9069323332358,801.171231869276,812.7450240752692,800.571085180865
1731015705.5078087,797.3190087833291,801.3942875160764,806.2170717779439,807.8433302896323
1731015705.5112524,809.363004471993,800.7096081623798,802.1006927568081,816.2335536156244
1731015705.5116916,813.4318559573926,799.7010419332526,802.585559933036,819.8932840743753
1731015705.5135548,807.5604573560806,799.0690099277288,806.7819895209725,815.7672838223922
1731015705.5155745,795.9097913307114,799.3190517109217,811.3618305706183,805.4616599672742
1731015705.519457,786.0371284752267,800.5986118439519,812.9604829262023,794.222299205814
1731015705.52334,783.8994075559317,802.711985129879,810.4761492249179,787.7367358851736
1731015705.5272229,790.2597893445164,805.2262936379037,805.5728368544783,788.8394102041211
1731015705.5291877,800.911569075285,807.5983061019498,801.2367416558401,796.2502302422024
1731015705.530069,810.1051719125492,809.3414552782363,799.7135164881763,805.9228503448361
1731015705.5311058,814.3650577712077,810.2391355020648,801.3409877858061,813.6449334409608
1731015705.5338545,814.0708175060154,810.4775268335322,804.7897004627736,816.9500847485913
1731015705.5349886,812.1727940810297,810.5246289769078,808.1260167460914,815.474646939535
1731015705.5388715,811.4787087045607,810.7725075631334,809.8011691671235,810.2736060002991
1731015705.5427544,812.6997274592352,811.2260853355228,809.1161015299211,803.0119027369489
1731015705.5448203,814.5627387638872,811.5355149916857,806.2810938570652,795.4457107925755
1731015705.5466373,815.5205186747551,811.3486350664069,802.3471052779565,789.1185172719582
1731015705.5488858,815.3152044458291,810.6325852007503,799.0183484324548,785.1886587936768
1731015705.55052,814.9628385309618,809.6576268638198,798.0971567400952,784.4258529602791
1731015705.5544028,815.3525429138117,808.7072773177366,800.5042174653436,787.2635385850781
1731015705.5582857,816.0178497281959,807.8465856778166,805.400314271968,793.6163572457294
1731015705.5604532,815.3842315344405,806.9624623534299,810.2696045986473,802.4563322769773
1731015705.5621686,812.2337758560761,805.978604808276,812.3109424930972,811.7080029242251
1731015705.5660515,806.9012072025391,805.0059804965573,810.3599644721183,819.0433827866385
1731015705.5677023,801.0411217040485,804.2957370355383,805.872575002551,823.2877448137881
1731015705.5688455,796.2494317422021,804.02663248659,802.0535741342857,825.2299834283167
1731015705.5699344,792.883929353879,804.06393800368,801.6624355174915,826.8301634402902
1731015705.5738173,790.1363175432515,803.8903148596219,805.1215632307933,829.1839027615291
1731015705.5760858,787.174261625829,802.8811704852791,810.332269969399,830.8996051851225
1731015705.5777,784.2206310797187,800.855900997223,814.2705891024324,828.4984230049351
1731015705.5815828,782.5879090960326,798.4817771846166,815.1045336135654,818.9664894955764
1731015705.5854657,783.6883806105832,797.0396905706665,813.2772646619485,802.7891397359347
1731015705.5865197,787.9139067266685,797.5436860466689,810.8757843035147,785.0734804598277
1731015705.5893486,794.2540126788829,799.8903186163883,809.9045717176753,773.3946732732451
1731015705.5917184,800.7554882933454,802.8572350209593,810.8302216454078,773.2644806354501
1731015705.5932314,805.2954386415549,805.0700140911825,812.4530337610697,784.1286492402616
1731015705.5971143,806.2403025070711,806.1223936904012,813.0763794241777,798.9479150047728
1731015705.6009972,803.0328632662474,806.8279784435565,811.9460886524156,808.1898286947809
1731015705.6038363,796.7808210204548,808.3686001854684,809.8149023952465,805.8067616024007
1731015705.60488,790.3968421245862,811.128712874279,808.2942008736476,793.041996488124
1731015705.6053362,787.5979084557342,814.2690870535183,808.6242401921323,777.3300817505738
1731015705.6073513,790.8364721949984,816.3805905506142,810.8095877417079,767.2014577646962
1731015705.6087627,799.4936962302064,816.5920124329242,813.6272759036848,767.0516310580115
1731015705.6126456,809.973061660407,815.1704590510768,815.3644097361639,775.4639633773929
1731015705.6165285,817.9559008088443,813.184401942673,814.7817753629496,787.651355872605
1731015705.6204114,821.1383935723995,811.648441880991,811.7946460872807,799.2580547568075
1731015705.622984,820.2770109953713,810.9307378246277,807.541572964718,808.2386152400904
1731015705.624153,817.9504028504253,810.7966987773599,803.7837768856351,814.1039002118339
1731015705.6242943,816.4715820242982,810.8261294225397,801.9190741173835,816.575208725644
1731015705.6281772,816.7984181696318,810.7509132081321,802.1701397200106,815.6330105367384
1731015705.63206,818.9073379835453,810.5258440572628,803.4749552877806,812.530092507706
1731015705.6359427,822.5812343887403,810.2265224473734,804.1823394334282,809.800889148739
1731015705.6386168,827.4303507222855,809.9321734758623,803.1120085425348,809.5451231411929
1731015705.638827,832.1254056517786,809.67372599229,800.3104624290102,811.5704369369204
1731015705.6398256,833.9722396957421,809.4419041789782,797.0716297817237,813.3998588846737
1731015705.6429696,829.9187189176407,809.2159019622052,795.2359554844247,812.2467179359764
1731015705.6437085,818.7969853030928,808.9829369911915,796.1186813681605,807.1521352134074
1731015705.6475914,803.176141245972,808.7416499945471,799.5856175542835,799.5598171540457
1731015705.6514742,789.012948013427,808.4964311094359,803.835934072131,792.1783196955638
1731015705.6542494,782.7361700659824,808.2513897601526,806.2423936852347,787.2496528837672
1731015705.6553571,787.4077668567329,808.0079385778055,804.9909133771649,785.4485831935353
1731015705.65924,800.5274295594496,807.765440187234,800.5163600660711,785.9583762790127
1731015705.6617863,815.117413431953,807.5227663000142,795.5557501540934,787.3950551485711
1731015705.663123,823.6103806688949,807.2792747530027,793.4897375081733,788.7365723048399
1731015705.6670055,822.2156236477476,807.0349258799904,796.0125530472558,789.6523627276467
1731015705.6698823,813.0523246138089,806.7899562397055,801.8614461277509,790.2822525188477
1731015705.6708884,802.6806301847807,806.5445659580148,807.6244074835408,790.8700462675048
1731015705.673818,797.9487827537387,806.2988072907791,810.0611418541293,791.5483897055027
1731015705.6747713,801.8591402173442,806.0526293153439,808.221897506966,792.318135074403
1731015705.6786542,812.1650791886648,805.8059618088856,803.8419599713683,793.1225945751215
1731015705.680603,823.4860789999136,805.5587635547656,799.8441038858158,793.9156606914638
1731015705.6825373,831.1720665667295,805.3110251670018,798.2276624428686,794.6845567989574
1731015705.6855147,833.9369565639464,805.0627506074121,799.0102119506067,795.4388162464599
1731015705.68642,833.4691857647443,804.813941136417,800.8897471297614,796.1916138024596
1731015705.6903028,831.8609638770743,804.5645904138527,802.7784157541221,796.9494687172979
1731015705.6941855,829.4744808413994,804.3146875048802,804.6996443346089,797.7119780784614
1731015705.6980684,825.1887243538699,804.064221335094,807.3122221381119,798.476027733187
1731015705.69942,818.5191845943868,803.8131827431351,810.704466467851,799.2392970211656
1731015705.7011478,811.2391927990841,803.5615639387195,813.7394856446637,800.0012703559958
1731015705.7019513,806.6444857462409,803.309357232233,814.6268659722911,800.7625443842563
1731015705.7058342,806.9656764676192,803.056554993912,812.2499469084867,801.5238333521708
1731015705.7088091,811.3276828032491,802.8031514658163,807.1470078187025,802.2854639719229
1731015705.709717,816.231101348893,802.5491449358062,801.3732753905132,803.0473969411819
1731015705.7136,818.2015675686877,802.2945370011079,797.3690871144655,803.8094678158138
1731015705.7167804,816.282668101944,802.0393262259636,796.6584298667858,804.5715822279741
1731015705.7174828,812.3102043448463,801.7834983134074,799.1988044869532,805.3337743212975
1731015705.7182367,809.032786357182,801.5270226896191,803.6282684894117,806.0961543127255
1731015705.7213657,807.9664192477863,801.2698690216862,808.0696654297111,806.8588007849519
1731015705.7252483,808.7019919084742,801.0120460410537,810.9739207510761,807.6216571115167
1731015705.7291312,809.7053451328761,800.7536357589944,811.6582434941323,808.3845144988487
1731015705.7324133,809.4018485912474,800.4947671964519,810.4207772979452,809.1471722241746
1731015705.733014,806.689698090401,800.2354875882853,808.2485610275642,809.9097693779588
1731015705.736897,801.1711890827191,799.9755823044064,806.2494660531753,810.6730481210768
1731015705.7370534,793.7000096265606,799.7145372468767,805.0663679389818,811.4380901428389
1731015705.74078,786.9203113282341,799.4518873820467,804.5700203096126,812.2052165240394
1731015705.7438,784.6389888948607,799.1879569602971,803.9937834476851,812.9725387025715
1731015705.7446628,789.528844196584,798.9244349475138,802.4393325508461,813.7358001758266
1731015705.748046,800.4976567903167,798.6637305646944,799.4900309508403,814.4914487961253
1731015705.7485456,812.1646253969624,798.4064275640822,795.6002699454418,815.2427586396875
1731015705.7524283,817.7121027643027,798.1480159052414,792.0048142603385,816.004148073569
1731015705.75587,813.5499916166342,797.8786936087628,790.117038695611,816.795024033955
1731015705.7563112,802.2490146350134,797.5906001492164,790.704390971104,817.6182049221105
1731015705.760194,791.1417820104596,797.2918263996293,793.3580508228052,818.4338236022181
1731015705.7636786,787.3487181025062,797.0158303588263,796.6782140623424,819.1606272016993
1731015705.7640767,792.9238602985055,796.8064954101815,799.136147943037,819.7390520145826
1731015705.7679598,803.7441316870844,796.6682984319513,800.0472735568081,820.2460983802717
1731015705.7718427,812.7550351663973,796.5079224034249,799.9455616124912,820.9630185148964
1731015705.7746868,814.8652311683255,796.1413873103543,800.0722475624377,822.2326445910388
1731015705.7757256,809.8823239307566,795.4449240183557,801.3695703720506,824.0280019003004
1731015705.778791,801.8346223499019,794.6261105986663,803.743874928787,825.4556881186832
1731015705.7793114,795.8478661271669,794.3965400470846,806.1347667159591,824.76594454273
1731015705.7796085,795.100382895315,795.7239617551105,807.3095894657985,820.3316592625782
1731015705.7834911,799.6060749364569,799.111718845665,806.7802467601074,812.1303394140349
1731015705.787374,806.8643891195438,803.9210554671872,805.1646386892764,802.3397952328974
1731015705.791257,813.3513122734207,808.4565801085321,803.7156013681097,794.2264357892319
1731015705.7935035,815.9547603306305,810.9349352077622,803.3587295687363,790.2056509039782
1731015705.794944,813.1130736484422,810.6244230353645,803.9901488314327,790.6544581541118
1731015705.7951398,805.6412067360811,808.2800785515469,804.6178670818374,794.1263382962975
1731015705.799023,796.852030145838,805.6037847738141,804.2337594314607,798.4855268451081
1731015705.8029056,791.3707122383197,804.184370844474,802.6618172363255,802.1241544475297
1731015705.8067884,792.7320419813201,804.6385691201299,800.6713277128309,804.6210279918532
1731015705.810577,801.0655881451748,806.4203411968235,799.3374431659979,806.5757733009643
1731015705.810671,812.6282501021522,808.3009569698511,799.2622135819016,808.8016993156655
1731015705.8123205,821.8625607602214,809.1628977673984,800.2511603223295,811.4393613612117
1731015705.8137815,824.7584374832406,808.6406444067931,801.5433653000508,813.6183426775233
1731015705.814554,821.1813269513962,807.2730345848362,802.305016558315,813.9599534264908
1731015705.8184369,814.5103844434742,806.114656854613,802.0803396871968,811.6562974204733
1731015705.8223195,808.9394968084401,806.0515557246213,801.0396414242725,807.404503712693
1731015705.8262026,806.5554801582706,807.2319506862858,799.9454264643148,803.4354587868265
1731015705.8262095,806.3819798956997,808.9580252789563,799.8102102802033,802.3973649933515
1731015705.8300855,805.8922847641567,810.1125764021901,801.3494494770935,805.6954888320751
1731015705.8311372,803.4988471177826,809.8699662113925,804.5010640849516,812.4279475118209
1731015705.8339684,799.922775163166,808.2614040419139,808.3510345787308,819.745407107213
1731015705.8378513,797.5197677779569,806.2378993144991,811.6261105259472,824.4272095592042
1731015705.8417342,798.3910708162227,805.1608809288514,813.4683425522546,824.5527542998369
1731015705.8418424,802.8956196109461,805.99523116751,813.8735138742261,820.1729737731855
1731015705.8456168,809.5355613535502,808.6829846059067,813.462575557742,812.8043457863976
1731015705.8487728,815.9620025908254,812.0964395084927,812.9086338043287,804.4727155243421
1731015705.8494997,820.1884739273297,814.63076695624,812.5569910636848,797.0947705359615
1731015705.849954,821.3251413407322,815.1014653233484,812.4191721911402,792.3003625368377
1731015705.8533826,819.6842424796614,813.4123312311357,812.3634773148815,791.2313961694321
1731015705.8572657,816.3856690138199,810.5858680500842,812.2813601558709,794.0349023291362
1731015705.857475,812.6639902774881,808.1365190054021,812.1428432570397,799.4121890712265
1731015705.8611484,809.229976956878,807.189681452571,811.9707141348601,804.8645901165927
1731015705.8650312,806.1326813758544,807.9194788976379,811.7962923951778,807.7917360492446
1731015705.8687706,803.2284362134652,809.639856651777,811.6350300277768,806.8182546687583
1731015705.868914,800.7486978226306,811.3914735797284,811.4859199853925,802.4370890766307
1731015705.8727968,799.2969881853825,812.523951554733,811.3415199445578,796.5407114371149
1731015705.8731077,799.2264284664556,812.8708662606477,811.1962795365448,791.2226438379279
1731015705.8766797,800.0891742150415,812.528676312533,811.0489365309846,787.6995181886173
1731015705.8805623,800.8152761827462,811.5698635846616,810.9008669084436,786.0126027742932
1731015705.8837636,800.4949469892362,809.9812154714734,810.7537268687101,785.5287856701008
1731015705.8844454,799.0051199809783,807.8331308651738,810.6082638767226,785.6814543894653
1731015705.8875873,796.9073358023345,805.4570528711804,810.4643730879741,786.3066923246773
1731015705.8883283,794.7869689034538,803.4169777105346,810.3216538049245,787.3988839084983
1731015705.8887403,792.728953883361,802.2607025358589,810.1798331580203,788.7198811864624
1731015705.8922112,790.4647973922129,802.2424458592988,810.038867978076,789.8457611815471
1731015705.896094,788.064248116142,803.2405186796971,809.8988446858373,790.7162220183379
1731015705.899977,786.4811138223754,804.9142290824274,809.759854908798,792.0728916285635
1731015705.9038596,787.308732623556,806.9219664926859,809.6219383764995,795.1136274425263
1731015705.9043732,791.752099047302,808.9927235566038,809.4850904081856,800.4300169127863
1731015705.906404,799.5313209064162,810.8407112708724,809.3492924793818,807.125614264271
1731015705.9077425,808.5791469870277,812.1074576775186,809.2145336037736,813.0406386904144
1731015705.9116254,815.8598439135305,812.4814310147622,809.080814401972,816.1023165644534
1731015705.9155085,818.859150310486,811.9267828876183,808.9481411821624,815.7735118888963
1731015705.9187546,816.853455713134,810.7981776111601,808.8165194239326,813.3653429323247
1731015705.9193912,811.2230526706064,809.6916762676577,808.6859510770377,810.8702079685216
1731015705.920006,804.6622341923011,809.1087780645506,808.5564351882608,809.2408629484946
1731015705.923274,799.762437049512,809.181897713078,808.4279695643198,807.5919967457652
1731015705.925221,797.7614140008948,809.6740102929435,808.3005518316176,804.0950897728841
1731015705.9271567,798.1291614765283,810.2456349094364,808.1741795611,797.8907401175414
1731015705.9310396,799.1772656354167,810.7530204834231,808.0488499085031,790.3688943974174
1731015705.9349225,799.2758725775856,811.3008537541386,807.9245592927955,784.591236853963
1731015705.935639,797.8906688071611,811.9835475943704,807.8013033436464,783.196325696802
1731015705.938805,795.7849075858095,812.5553332756976,807.6790770443051,786.4737697012511
1731015705.9426882,794.3177594889843,812.3916563835954,807.5578748381693,792.1628915304161
1731015705.9440377,794.3985964352128,810.8845946352297,807.43769048773,797.0456188269515
1731015705.946571,795.860570145882,808.0068669998911,807.3185166800873,798.9698849826015
1731015705.950454,797.6550345899383,804.5580397692539,807.2003447176061,797.816272663024
1731015705.9512715,798.633833894185,801.8189791775817,807.0831648909342,795.0162856074284
1731015705.9537454,798.2751030034634,800.8270921218887,806.9669678857184,792.3809453089625
1731015705.954337,796.8356584721136,801.8045321616833,806.8517465297182,791.2307573330118
1731015705.9582198,794.9464377641679,804.1315636090442,806.7374957863398,792.1905018324684
1731015705.9621024,793.1133193674052,806.8000667763567,806.6242086870586,795.3174960455502
1731015705.9628544,791.5424378891578,808.9368554825154,806.511868744325,800.1093888344224
1731015705.9659853,790.2843727259911,810.0486915180319,806.400445220458,805.3492396439595
1731015705.9669042,789.38687286394,809.9922390251594,806.2899019305025,809.1705874322788
1731015705.9698682,788.869868791688,808.9139278920211,806.1802247456425,809.6991946592009
1731015705.9737513,788.649991757196,807.2919553067893,806.0714526326982,806.1277546422185
1731015705.977634,788.6067047222091,805.9292656517435,805.9636718098469,799.5345659206621
1731015705.9815168,788.7470701924976,805.6778234262903,805.856932599199,792.7070655049536
1731015705.981671,789.2480799616184,806.935782784397,805.751107314866,788.8390190258729
1731015705.9825368,790.2774105954668,809.2645486044985,805.645817568512,789.8076806750596
1731015705.9853995,791.7454373391856,811.4825302211864,805.5406287658986,795.1234962039094
1731015705.9887364,793.2210892411813,812.271981447644,805.4355835079194,802.2462188074009
1731015705.9892826,794.0994912929294,810.9465294689999,805.331748077991,808.0612956736611
1731015705.9931653,793.9245576596047,807.8733566123072,805.2309949683873,810.5563240929778
1731015705.997048,792.6918131115277,804.2540123057914,805.1343241923893,809.6573598957311
1731015705.9981697,790.9740180324335,801.4130244304141,805.0392253840964,806.8190844411881
1731015706.0004878,789.7712280102381,800.0994078499879,804.9386430964413,803.824484325286
1731015706.000931,790.0983062085762,800.2758106863474,804.825176538181,801.6969563864061
1731015706.004814,792.4884787864901,801.4535206490776,804.7013534981152,800.3890533477978
1731015706.0086968,796.7001920115295,803.180273017069,804.5891046500944,799.2677760400018
1731015706.0125797,801.8257860331463,805.2176166600974,804.5236161709553,797.886618209069
1731015706.0138023,806.7394009913775,807.326936737493,804.5198093793264,796.447506839256
1731015706.0164626,810.5958476725148,809.0294800941926,804.5239721712545,795.6727762047385
1731015706.0193045,813.0809506733945,809.7383872185236,804.4014897796005,796.2399368736424
1731015706.0203452,814.3036459607473,809.231544495277,804.0274161605636,798.1931832572193
1731015706.0237272,814.461832650929,807.9986923004934,803.4877781286115,800.7368430823774
1731015706.024228,813.5584309519719,807.0281649231525,803.2555082468173,802.599890417505
1731015706.028111,811.4042674711603,807.092091235468,804.0855140837526,802.8229806659529
1731015706.0294352,807.9274944278154,808.082593235531,806.4946684322068,801.480800180784
1731015706.031994,803.551484844241,808.9848930007925,810.1144116792925,799.7658219425992
1731015706.0358768,799.3085713842721,808.5904809068373,813.5465265182943,799.2413153582904
1731015706.0381212,796.5216639281714,806.4374909806713,815.0886999319007,800.7339410603897
1731015706.0397596,796.1912118515262,803.2331569545071,813.8926264720847,803.7033986631827
1731015706.0436423,798.4443649916856,800.3988926759472,810.5792977457779,806.6011802944234
1731015706.0450678,802.3959630154312,799.0944898211995,806.7406053746752,807.9546813671843
1731015706.0475254,806.5521037755033,799.5021607287372,803.7743046079569,807.348726070533
1731015706.051408,809.5702417873546,800.8878750623292,802.0781442942965,805.5853094738766
1731015706.0552907,810.9423807280149,802.2625805409376,801.1932843546676,803.9707521442531
1731015706.0569382,811.1700544080344,803.0168234662586,800.5689387372196,803.3503004563736
1731015706.0587182,811.3109784388129,803.0859288340095,800.159503939635,803.6434907680147
1731015706.0591738,812.2100231983231,802.7257945350439,800.3779926493867,804.1508009204823
1731015706.060701,813.9482802167437,802.2573586208221,801.5675981658643,804.2524175031565
1731015706.0630567,815.8699408940228,801.9706272163544,803.5300810873591,803.8717395861689
1731015706.0669396,817.1195353709913,802.0966702011829,805.5386037918736,803.3972200854106
1731015706.0708225,817.2751754878309,802.7278999656542,806.8284786445302,803.2830139883024
1731015706.0747054,816.635895910105,803.7485382694504,807.1625456559038,803.7660370644284
1731015706.075755,815.9981036275477,804.9077651622302,807.0148791047885,804.8898686269231
1731015706.0763333,816.1224891020318,806.01022189628,807.2291234558464,806.6510374198793
1731015706.078588,817.293053594653,807.0416479068612,808.406577879553,809.0074981520881
1731015706.082471,819.2641130956084,808.1134497867967,810.4515666580813,811.7442571288024
1731015706.0863538,821.5581463170621,809.3050612313091,812.5721220673213,814.4175761528741
1731015706.090237,823.7926216383793,810.5577572075987,813.7490047940014,816.5149683739106
1731015706.0919662,825.7401736377223,811.6700380822891,813.414400467878,817.7002380635722
1731015706.093709,827.1478259797963,812.3344780569001,811.9214832824407,817.9052011921557
1731015706.0941195,827.6303820348423,812.1779613204797,810.427180568744,817.2154597397385
1731015706.0945716,826.8823904834773,810.8569325556986,810.1351240092918,815.7528849124865
1731015706.0980024,825.0617393935069,808.2584993752214,811.3534613673003,813.7649978761629
1731015706.1018853,822.9047351447824,804.724605678395,813.1162185947785,811.8401152249402
1731015706.1057682,821.3096219476964,801.0882379473157,813.7913189016346,810.8836615763063
1731015706.1075988,820.6544176738253,798.369510424284,812.2786782807101,811.5982978700825
1731015706.1096509,820.4540374139915,797.2428431424582,808.829394713489,813.7369051061651
1731015706.1133883,819.7212769549946,797.6361105479781,804.8229564958023,815.8599186871921
1731015706.1135335,817.77928715646,798.7878521982198,801.7671656588601,816.125699072808
1731015706.1174166,814.862997907439,799.7425650473194,800.4032676947463,813.7444725323434
1731015706.1212995,812.0133158150896,799.9071434394656,800.5354141067252,809.9179281629832
1731015706.1232314,810.3499079202917,799.2704385227414,801.4527044253022,807.2835003168977
1731015706.1251824,810.3071674017485,798.2205486550711,802.4022997924989,808.0896959323588
1731015706.1287,811.4264216261645,797.2334293851386,802.8109608182613,812.4719969674171
1731015706.1290653,812.8207608331771,796.714851849531,802.3833345874598,818.1853463419753
1731015706.132205,813.8797449340085,796.9992164769785,801.2632572901585,821.996407411976
1731015706.1329482,814.6251746220125,798.3012586784287,800.1373892282843,821.6913624358241
1731015706.136831,815.4671966329043,800.527925228632,799.9842296738046,817.305305653041
1731015706.1388645,816.6143149177279,803.1368511026734,801.4448482210643,810.8536752857839
1731015706.1407137,817.6469530244184,805.3062508990267,804.2489716749574,804.9196494562714
1731015706.1445966,817.624135584064,806.4119311905692,807.227058705629,801.155667769727
1731015706.1484797,815.7074715276807,806.4575618474123,808.9891794640662,799.6685784237617
1731015706.1510217,811.9175904283488,806.0702583708916,808.7669714960314,799.5074260707429
1731015706.1523623,807.5011204872073,806.0328368649225,806.7792662930872,799.6638076532194
1731015706.154497,804.5705330603469,806.733316163861,803.9228023593057,799.7565065824888
1731015706.1562452,805.0985468240257,807.9678165742879,801.1494308941851,800.0129535145068
1731015706.160128,809.7706900045462,809.1968035615606,799.0369705570973,800.7910887440173
1731015706.1636908,817.3696157516343,809.9751214524427,797.7426029551239,802.1438179300916
1731015706.164011,825.1426485098076,810.2006552889326,797.1655465320457,803.709455889155
1731015706.1678936,830.0598191123996,810.0592603888447,797.0963463529511,804.8562525166875
1731015706.169839,830.3062229971588,809.8086364346415,797.3022356781089,804.877046343117
1731015706.1701298,826.1573087344311,809.6093743743432,797.5918807510021,803.1624498236908
1731015706.1717763,819.7329928296921,809.4923620180608,797.8597147799247,799.4337062230737
1731015706.1756594,813.8013764253907,809.4174613431636,798.0830722762995,794.0585802249138
1731015706.1795423,810.3547112571506,809.3403926395523,798.2826034260446,788.2471195663132
1731015706.1834252,809.7622180799552,809.2431880002355,798.4825651032589,783.8148539934991
1731015706.1857624,810.9002555592258,809.130553633311,798.692920485009,782.4363788324955
1731015706.187308,812.0596567941169,809.0140456175565,798.91103838339,784.7731934028888
1731015706.1886554,812.0082331436793,808.9009580421141,799.1304435159393,790.1173386274039
1731015706.191191,810.5666605394507,808.7922001510955,799.34702866975,796.8988175067818
1731015706.1950738,808.4190410494286,808.6853702535441,799.5602614324624,803.7063177703345
1731015706.1986818,806.4089908711488,808.5781448073026,799.7714747633296,809.9887422885641
1731015706.1989565,804.9293881498,808.469686061863,799.9819687728258,815.8659845040421
1731015706.2013953,803.8952776975956,808.3603187140103,800.1922163233352,821.3044184327118
1731015706.2028394,803.2219990702486,808.2506646498283,800.4020391004332,825.5087364690363
1731015706.2067225,803.2070319155995,808.1410854206154,800.6110906612423,827.1477597675542
1731015706.207472,804.2993243958591,808.0316053536054,800.8191694798202,825.2279854544358
1731015706.2106051,806.4189840774035,807.9220892934418,801.0262631971665,819.874431333198
1731015706.214488,808.5617247923769,807.812418729603,801.2324496798567,812.443509554682
1731015706.217028,809.2266496322926,807.7025571779077,801.4377986041798,804.9723366312213
1731015706.218371,807.4026358857986,807.592527106332,801.642335240847,799.3624882932793
1731015706.2222538,803.2812963003017,807.4823632561913,801.8460539184678,796.6884942196875
1731015706.2261364,798.1229905518394,807.3720849824159,802.0489438956148,796.8564518297582
1731015706.2262888,793.4795474026051,807.261694050146,802.2510026685194,798.7471581371705
1731015706.230019,790.4550061025556,807.1511847488597,802.4522335535329,800.8671737036694
1731015706.2326608,789.4565693230836,807.0405529804967,802.6526382827658,802.2315309298901
1731015706.2336726,790.3360784950419,806.9297992274269,802.8522172431652,802.8860280884694
1731015706.2339022,792.583628309659,806.8189270348048,803.0509819011545,803.5814867529746
1731015706.237785,795.4524628218591,806.7079405127273,803.2489696372567,804.7663989845856
1731015706.241668,798.1551305560312,806.5968429776507,803.4462385291929,805.7598883682832
1731015706.2451055,800.2064029207025,806.4856369327889,803.642823150986,804.9771455385471
1731015706.2455509,801.7168031703793,806.3743246373141,803.838665746056,801.2293983914087
1731015706.2482934,803.3423635448461,806.2629085740217,804.0335915777356,795.0765394364831
1731015706.2494338,805.8230843147104,806.1513915809367,804.2274232427197,788.9511107692455
1731015706.2533166,809.3878447529952,806.0397767538255,804.420251771662,785.6844959453548
1731015706.2571993,813.4602492824192,805.9280673076048,804.612677970156,786.4731720469526
1731015706.2610822,816.9215706872269,805.8162665062413,804.8056334742545,789.9630282986724
1731015706.2639222,818.7792045674491,805.7043776739904,804.9994841369279,793.3082075671771
1731015706.263926,818.7613432771733,805.5924042514446,805.1927672398181,794.4137615839064
1731015706.2649653,817.4030106983107,805.480349849295,805.3819126221232,793.556508203333
1731015706.2686636,815.5873957152832,805.3682182541993,805.5636585480861,793.105429824247
1731015706.268848,813.9107479978317,805.256013354771,805.7402257271885,795.6503366420625
1731015706.2727308,812.3187768426475,805.1437390068915,805.9233890101373,802.1014482009481
1731015706.2766137,810.2214608257656,805.0313989510862,806.130072293587,811.1947102541654
1731015706.279559,806.9810926561636,804.9189969619293,806.3646465329089,820.5291945420375
1731015706.2804966,802.4724494322147,804.8065373140356,806.5960899720372,828.0125220436139
1731015706.2827392,797.3620632394665,804.6940253063916,806.7565960219583,832.5004901498942
1731015706.2843795,792.8652436734133,804.5814671620701,806.7927153248024,833.421997279545
1731015706.288262,790.0581132473982,804.4688686220883,806.7662575971539,830.2106728753613
1731015706.292145,789.2060952641461,804.3562325451588,806.9300708708079,822.4599348438928
1731015706.2951915,789.649824519753,804.2435576823011,807.6530239429709,810.8643138512717
1731015706.296028,790.3606369619806,804.1308419638558,809.1430686211149,798.0267690501842
1731015706.2999108,790.6792826773664,804.0180915038575,811.1346635383333,788.024655666413
1731015706.301556,790.5979896653566,803.9053298135995,812.8608903762455,784.5182731000517
1731015706.3036544,790.428966462254,803.7925941049012,813.4560136970389,788.4966841017772
1731015706.3037937,790.3230002405494,803.6799069271193,812.51289405111,797.3489338478079
1731015706.3076766,790.1995974748426,803.5672316436834,810.3113778872813,806.1861967521072
1731015706.3108244,790.1276243093359,803.454455028775,807.5345614252959,810.70852432387
1731015706.3115594,790.6317615506608,803.3414582528701,804.8055921554459,809.6812413867187
1731015706.315442,792.4285206878941,803.2282903099381,802.5153721621913,805.2894829209417
1731015706.319325,795.7037286950989,803.1153276613128,800.9971378192027,801.1863676877401
1731015706.3203726,799.5781678789964,803.003169731555,800.650051365085,799.7457334927516
1731015706.323208,802.3098571107556,802.8920717661723,801.7035395279703,800.5391002633306
1731015706.326457,802.1830324373965,802.7811257980519,803.8344199620259,801.0272337754405
1731015706.3270907,798.5216556039878,802.6680462284941,806.1276190661717,798.7666106547412
1731015706.3309736,792.2068420152988,802.550673863211,807.550827206049,793.3852408826737
1731015706.3348565,785.3885413791994,802.4302919154479,807.5779237453238,786.8894019675663
1731015706.3386457,780.5173872730387,802.314338203549,806.4465014418913,782.1972119365173
1731015706.3387394,779.1967587805897,802.2137731071948,804.8857111546228,781.1095388606865
1731015706.3391893,781.4894170279379,802.1318501348131,803.5962097642403,783.2436051901045
1731015706.34209,786.0672554013115,802.0492392788708,802.8945650514792,786.6011749576082
1731015706.3426225,791.0672689780305,801.9223857380248,802.7155401741871,789.1686732234018
1731015706.3465047,795.0771371710323,801.715338308123,802.8565807945665,790.2595962414536
1731015706.3503878,797.6498511123744,801.464073316609,803.2028254444696,790.6621800702111
1731015706.3542707,799.1327490604091,801.325669494945,803.7539857851428,791.6590701172726
1731015706.3577223,800.0741820666588,801.5292318812576,804.4807402394973,793.810346952894
1731015706.358006,800.7006750687966,802.1956572152866,805.1967942896375,796.4508524498019
1731015706.3581536,800.8294872745715,803.15764016809,805.6170679466061,798.2144834165501
1731015706.3620365,800.231337388912,804.0235572075661,805.5872454177627,798.115630751027
1731015706.3659194,799.1144782507511,804.5369036437364,805.2724351000409,796.3399877985704
1731015706.3698022,798.2693957134463,804.8949026494515,805.0866743826662,794.1363104511782
1731015706.3733554,798.6236056062605,805.6077736461757,805.3772521007514,792.891110305165
1731015706.3736362,800.4509660095382,806.9250714473058,806.1367323154994,793.1389240248066
1731015706.373685,802.9030076469045,808.3817716066669,807.0158710519697,794.354656933815
1731015706.3768227,804.4147317154212,809.0099905076261,807.621701232292,795.7007398558683
1731015706.3775678,803.8171325293193,808.1472450161494,807.8082612489736,796.9761695628795
1731015706.381451,801.2670595967018,806.1383540714451,807.7087910685997,798.7477605932371
1731015706.3853335,798.16011996992,804.2486050345334,807.549731008913,801.4451058826227
1731015706.388988,796.0835176502497,803.8098491012224,807.4707819369336,804.367528463639
1731015706.3892164,795.7303360724652,805.315422173734,807.4852573633214,805.8124803026484
1731015706.3930993,796.6557925628508,808.1774075780927,807.5417046254212,804.4381930289014
1731015706.3956397,797.9043527285841,811.2192841433969,807.5922973974912,800.5830992229618
1731015706.3969822,798.7974556768421,813.3896740321809,807.6204339086966,796.1542835659931
1731015706.4008653,799.231709011675,814.1747580701399,807.6332409224264,793.1506532357956
1731015706.4046206,799.4550832257131,813.6082264359035,807.6435745220007,792.3006834749336
1731015706.4047475,799.7180613847218,812.1008686550804,807.6587194998674,792.9868914163712
1731015706.4086273,800.1091832335965,810.2648866164712,807.6790181010822,794.142877749869
1731015706.4086306,800.5879804526331,808.7115510372032,807.7016199129894,795.0679737764226
1731015706.4125135,801.0825041340908,807.8068953602644,807.7240887405081,795.6215319265502
1731015706.4144564,801.551812754573,807.5393370982365,807.7456939383459,795.9801352787877
1731015706.4163964,801.9937487437211,807.6317373187736,807.7668994726606,796.3427019749585
1731015706.4202535,802.4241426956077,807.7881795505309,807.7883975275561,796.7922721333309
1731015706.4202793,802.8566663054867,807.8572229449263,807.810550159839,797.3098162173446
1731015706.424162,803.2955318303265,807.8336366169193,807.8333552038105,797.8442103964095
1731015706.428045,803.7382681084136,807.7748868653512,807.8566588072276,798.3624529713019
1731015706.431928,804.1810909526962,807.7283735432859,807.8803411692361,798.8599532402262
1731015706.4332733,804.6220323363523,807.7071943146767,807.9043746986819,799.3472109307833
1731015706.4358106,805.0611507854712,807.7014043673269,807.9287909909534,799.8346647400327
1731015706.435886,805.4993556433606,807.6973329196403,807.9536292422732,800.3262190097104
1731015706.4396937,805.9373701145672,807.6882396537579,807.9789089143846,800.8205444699466
1731015706.4435763,806.375401815281,807.6745729659594,808.0046298995653,801.3149073813205
1731015706.443618,806.8133232193185,807.6595918193831,808.0307843983769,801.8076927661548
1731015706.4474592,807.2509585137236,807.6457285515166,808.0573664029383,802.2987899044036
1731015706.451342,807.688237030992,807.633542220436,808.0843742167765,802.7888185255711
1731015706.451519,808.1251935793202,807.6224392067426,808.1118084027884,803.2783405132143
1731015706.4520898,808.5619027587209,807.6117030386332,808.1396690561719,803.7675575028147
1731015706.455225,808.9984256315254,807.6010135326778,808.1679545123606,804.2564047166633
1731015706.459108,809.4347944011815,807.5904220021088,808.1966614972312,804.7447545275038
1731015706.4629903,809.871022519713,807.5801083225033,808.2257857855204,805.2325399402706
1731015706.4668734,810.30711992,807.5701964404827,808.2553225886433,805.7197709100385
1731015706.4671516,810.7431029703158,807.560710671356,808.2852664786748,806.206502759323
1731015706.4707563,811.1789985300044,807.5516195923009,808.3156111433266,806.6928090951836
1731015706.4709065,811.6148430088177,807.5428888250434,808.3463494339248,807.1787641389708
1731015706.4746392,812.0506739427466,807.5345026844475,808.3774739477993,807.6644099687786
1731015706.478522,812.4865123172242,807.5264583282953,808.4089778042683,808.1497031762466
1731015706.478609,812.9223445435451,807.5187552344623,808.4408546145917,808.6344914366944
1731015706.4824047,813.3581279177021,807.5113971589965,808.4730966067135,809.1186081458992
1731015706.4827845,813.7938431478117,807.5044049371317,808.5056912304109,809.6021156332132
1731015706.4862878,814.229581120336,807.4978200882812,808.5386192098051,810.0855434937339
1731015706.4897232,814.6655838830811,807.4916756563259,808.5718588167211,810.5697665762581
1731015706.4901707,815.1021195964818,807.4859350781904,808.6053984075763,811.0552186456584
1731015706.4940534,815.5391527190727,807.4804496775957,808.6392499591204,811.5407019676958
1731015706.4979362,815.9760169886083,807.475023818663,808.6734452551287,812.0229875153572
1731015706.4984171,816.4115702025225,807.4696360874627,808.7079972643585,812.498836889909
1731015706.5018191,816.8452450095402,807.4647010782961,808.7428366944537,812.9697208576202
1731015706.505702,817.2786570901809,807.4610442835844,808.777783038958,813.4459558694983
1731015706.50854,817.7161732018586,807.4592457447233,808.8126379781753,813.9434836117999
1731015706.509585,818.1622362034819,807.4584693819834,808.8474276801951,814.4682480151431
1731015706.5134678,818.6150418589601,807.4557978032949,808.882639309283,814.9945277771266
1731015706.5136,819.0609451556231,807.4477103572988,808.9191002672733,815.4610101548692
1731015706.5140498,819.4787730603889,807.4343992371097,808.9572018137242,815.8147896460896
1731015706.517351,819.8611545773241,807.4244151185355,808.9957260215739,816.1058019081671
1731015706.521233,820.245170208491,807.4333293092827,809.0314552144996,816.5702308290536
1731015706.5251162,820.7223908166692,807.4704297737568,809.0611698606423,817.5944284002535
1731015706.5273569,821.393331645757,807.5169477544533,809.0862996205362,819.5086644161138
1731015706.528999,822.2802068060233,807.5163250029138,809.1169878129991,822.3196814747696
1731015706.5296826,823.2984203567854,807.4069288660356,809.1688886718845,825.5968081729726
1731015706.532882,824.3657375366721,807.2068473898224,809.2477313415136,828.6362643568584
1731015706.5367649,825.5160569891867,807.0992955135403,809.3279183566019,830.7942874490958
1731015706.5406475,826.7681719751444,807.4036291065166,809.3485297401551,831.7224329225037
1731015706.5445306,827.7888401586596,808.3480164516403,809.2561638942567,831.354765251831
1731015706.5453153,827.7830462713479,809.750761768305,809.0961086414321,829.7959645442297
1731015706.5461736,825.9545940136334,810.9175542664893,809.088465188365,827.3644882853704
1731015706.5484135,822.2989388861586,810.9740390812677,809.5741263497366,824.7637338643726
1731015706.548591,818.0297718064047,809.4672255362218,810.7693944651155,823.0263577905944
1731015706.5522962,815.1128384166822,806.7736262940604,812.4550095677184,822.9936718852225
1731015706.556179,815.0812498592004,803.9578402209321,813.8951208662124,824.6230827577834
1731015706.560062,817.9412597797037,802.1457638454408,814.1970455361147,826.7621234718042
1731015706.560948,821.9955008415529,801.8613698887776,812.9485239942823,827.7233383864699
1731015706.5639448,824.771446185174,802.7939124487727,810.625984767707,826.2951445920881
1731015706.5649903,824.4422986871139,804.0944193056491,808.3589000155459,822.4269190357367
1731015706.5678277,820.786082439787,804.9023422746682,807.1655680850407,817.1013128383121
1731015706.5717106,815.0971714893511,804.7351182784047,807.2599422770537,811.564596509117
1731015706.5755937,809.2369110232155,803.6019088327605,807.9877505275234,806.5493290689809
1731015706.5765808,804.5713670598761,801.9104603836258,808.4127140688017,802.0528523397141
1731015706.5794764,801.4772421584657,800.2589476717253,808.0347176784231,797.7389724230129
1731015706.583359,799.54570731014,799.171971718249,807.0541655744328,793.5358219612003
1731015706.5835817,798.122194520295,798.8829374998243,806.031087275967,789.9083844069777
1731015706.583807,796.759408250565,799.2974546471374,805.3168479909789,787.6156283412902
1731015706.587242,795.3996921572142,800.1589744103017,804.7988740331986,787.1756744697574
1731015706.5911248,794.3009381368448,801.2511832993744,804.1768257176329,788.4256332994702
1731015706.5922136,793.7823784325758,802.4356606428491,803.4786746550601,790.4532791071748
1731015706.5950077,793.9286005811026,803.5161703233559,803.2658125952546,791.9625257750603
1731015706.5988903,794.465033972973,804.139050666053,804.205763217561,791.9117520526505
1731015706.6026237,794.9310502583845,803.9192691454092,806.2718939039322,790.071040337007
1731015706.6027734,795.0055269807605,802.72889729487,808.3003786880176,787.1192145077048
1731015706.6066563,794.6788138242915,800.8880139408836,808.5028273673831,784.191888325069
1731015706.6078465,794.1515800303234,799.0793801681998,805.7458886495384,782.2413958158461
1731015706.610539,793.6568937819884,798.0504925817434,800.6030987087819,781.7175321006374
1731015706.6144218,793.4250990967305,798.2935422995126,795.2089328810378,782.6950547458858
1731015706.6183047,793.7268859638128,799.8387394918533,791.9231325712664,785.0784218564963
1731015706.6185727,794.7747029110013,802.2217218626569,791.8475460294967,788.5330570141389
1731015706.6214404,796.4835057016724,804.6692483313902,794.3197107943922,792.3028332977026
1731015706.6221876,798.3740169532427,806.4706894440285,797.6189347857305,795.3582923464553
1731015706.6234791,799.8238581756108,807.3275467305235,800.1743587039475,796.9367609603001
1731015706.6260705,800.5043938321512,807.4211177520501,801.3565142034845,796.9771832776171
1731015706.6299534,800.6341480188712,807.1694054925654,801.4562387133294,796.0038636210264
1731015706.6338365,800.8564173532195,806.9173660144639,801.1313374412089,794.646904862807
1731015706.6377192,801.8623023519643,806.7971805497184,800.87671591393,793.3624991426567
1731015706.6391118,803.9985114689674,806.7780879491036,800.8434899217348,792.53922948534
1731015706.6402574,807.0194395459306,806.7821203414666,800.9521039699752,792.604791278822
1731015706.6416018,810.0806805995398,806.7609090460329,801.077300811708,793.8008303241589
1731015706.6454847,812.061587096811,806.709411192665,801.1536521960523,795.8693862555251
1731015706.6493676,812.1637697202448,806.6444810654525,801.1827134339685,798.1219519772167
1731015706.6532505,810.4445177439203,806.5818939334466,801.1939781790023,799.8876999267683
1731015706.6535635,807.8353180788689,806.5271174446835,801.2105525772791,800.8399796627547
1731015706.6547444,805.5340495805458,806.477776736375,801.2383644772111,800.8854285226765
1731015706.657133,804.2086515617922,806.4296114793754,801.2722500971671,799.8897894609992
1731015706.659074,803.6525439198642,806.380213644616,801.3054981059669,797.6909932663544
1731015706.6610162,803.1456149967416,806.3294765336233,801.3349183430917,794.4164820481153
1731015706.664899,802.1658656402398,806.2783498350998,801.3608204202993,790.6982071756617
1731015706.6687818,800.8398485157094,806.2276444283234,801.3848179692566,787.4915679397478
1731015706.6703773,799.7995382633105,806.1776052878503,801.4080703354264,785.6391302782206
1731015706.6726646,799.6101145506962,806.1280814204887,801.4308111480939,785.5238626466775
1731015706.6765475,800.2318140979636,806.0788464922073,801.4527249668464,786.9786730033263
1731015706.6778908,800.9343812294137,806.0297843174751,801.4734533970459,789.3874658177745
1731015706.6804304,800.7834330575655,805.9809005766471,801.4928402849773,791.8979752328207
1731015706.6843133,799.4126475242715,805.9322519123743,801.5109102796232,793.7461396734366
1731015706.68601,797.5024775102671,805.8838821743334,801.527744569713,794.6208448001562
1731015706.6881962,796.4905181049662,805.8357999051977,801.5433900207206,794.8253093142478
1731015706.6885543,797.6053186164798,805.7879883102089,801.5578431133032,795.0217467638562
1731015706.6920793,800.9288453718351,805.7404281235457,801.5710830556667,795.6917564149825
1731015706.695962,805.2444766514288,805.6931197895769,801.5831098868441,796.7776077707108
1731015706.6967075,808.7851567460292,805.6460945622127,801.593953172987,797.8596307658429
1731015706.6998446,810.2511204926926,805.5994009019424,801.6036375526493,798.7013712653014
1731015706.7016428,809.3426021231774,805.5530572457709,801.6121223116088,799.5954308897894
1731015706.7037275,806.6054767527459,805.5069910691759,801.6192716692875,801.124329057832
1731015706.7076104,802.9663919645878,805.461029558864,801.624931898092,803.5501141425008
1731015706.7114933,799.3754164089667,805.4150215957435,801.6291371753873,806.445774962588
1731015706.715376,796.6231215893906,805.3690882168365,801.6323128368812,808.9543023466239
1731015706.7155242,795.1954405563062,805.3238091318021,801.6351781271464,810.425859375763
1731015706.7172754,795.162039930543,805.2799901905793,801.6380932275607,810.8226489446686
1731015706.719259,796.2366435640168,805.2377941104863,801.6400638068975,810.5858095680544
1731015706.723142,798.0131259411552,805.19565323781,801.6383959932009,810.216454119664
1731015706.7235453,800.1484725243067,805.1502555388083,801.6303658353734,809.9843188450318
1731015706.7270248,802.3074151247707,805.0990480485109,801.6171487314333,809.910205171595
1731015706.7309074,804.0151991137271,805.0449589929859,801.607295918103,809.9011157478108
1731015706.7329082,804.7599647758854,804.9994202091686,801.6141081072151,809.8752643209887
1731015706.734341,804.4179776513802,804.9770505544516,801.6426428773839,809.8074443625504
1731015706.7347903,803.5907933930733,804.9786948389802,801.6715357467484,809.7127353278214
1731015706.7386732,803.3476619906642,804.9721132628694,801.6493164049266,809.6141839198802
1731015706.742556,804.3979493902685,804.8955396666256,801.5302179766592,809.5238881044908
1731015706.746439,806.3767651522603,804.71008249654,801.351087674457,809.4416927479265
1731015706.7485409,807.9690114141429,804.4920777027456,801.2960397315934,809.3622803814905
1731015706.750322,807.8858785707914,804.4918064882363,801.6506732222731,809.2814431652955
1731015706.753158,805.9103875330927,805.0521916124882,802.6030383266603,809.1980850523764
1731015706.7542048,803.11905315926,806.3655377393078,804.0385234959589,809.1131380139944
1731015706.7580874,801.0724051765253,808.2203457556014,805.5934691214084,809.0278291423474
1731015706.7585363,800.6372375051861,809.9644593909377,806.9926068028701,808.9427515528228
1731015706.7619703,801.4135467080088,810.7676242951828,808.2913316789846,808.8578613127141
1731015706.7641735,802.2239645469841,810.0447691161885,809.6676706767047,808.7728742867465
1731015706.7658532,802.2073026004588,807.8000012630164,810.9570843443214,808.6875868538698
1731015706.769736,801.5376120347224,804.7022379007774,811.5339260479889,808.6019634577821
1731015706.7719746,801.153780320359,801.8355011717118,810.8361494629963,808.5160692688603
1731015706.7736187,801.8062680848407,800.2240208259235,809.0626639204412,808.4299785194356
1731015706.7775018,803.3264405691448,800.3580120598197,807.2232175100384,808.3437298873707
1731015706.7798064,804.7466155422984,801.96781857793,806.3075363780268,808.2573299970617
1731015706.7813847,805.0821938027283,804.1804786313523,806.3191295793789,808.1707749048978
1731015706.7852676,804.0510789419567,805.9905868578313,806.1879016467525,808.0840648876808
1731015706.7891502,802.1822429253264,806.7883803292154,804.7520284170209,807.9972064154131
1731015706.7907913,800.3583149314892,806.6316870860318,801.9269966967663,807.9102084051034
1731015706.7930331,799.2531134643355,806.098973198853,798.9824391972912,807.8230818888114
1731015706.7935271,799.0684255493218,805.8475611471757,797.6835135696687,807.7358455901141
1731015706.795439,799.6231895206897,806.2048320104349,799.0416735264448,807.6485302663347
1731015706.796916,800.5816486502646,807.0604729380558,802.6633509257222,807.5611694151304
1731015706.800799,801.6217851809715,808.0615826926447,807.1052962305628,807.4737711384341
1731015706.8046818,802.5172249660844,808.888723270876,810.8562931403645,807.3862884785667
1731015706.808565,803.1944462715353,809.3977254655042,813.1978239167248,807.2986307289375
1731015706.809608,803.7665335339448,809.5974395713293,814.4151480410418,807.2107541614312
1731015706.811072,804.478133918084,809.5830490748045,815.3435035351081,807.1228054552278
1731015706.8124475,805.5491638422859,809.5164278976486,816.637726184645,807.0351788698051
1731015706.8163302,807.0167115595273,809.6137426354869,818.2492561123269,806.9482894056495
1731015706.8202133,808.6955126354288,810.0530398279222,819.4240515919045,806.8620149096996
1731015706.824096,810.2724402911219,810.8190462806826,819.2194602686833,806.7751789497005
1731015706.8267045,811.4413696616926,811.6272790492267,817.208832182008,806.6858799964937
1731015706.8279788,811.9898246870931,812.0497127431652,813.8856138762828,806.5933099374221
1731015706.8284247,811.8350320436582,811.7960673532364,810.4506917765473,806.5003904976593
1731015706.8285182,811.0445264569461,810.9398300399567,808.0927729103387,806.4144691847913
1731015706.8318615,809.8242801552608,809.8809011405706,807.2429162933657,806.3424556856831
1731015706.8357446,808.4269584669083,809.0550983983283,807.3250764280416,806.2799916086242
1731015706.8396275,807.0200379956374,808.6502869339922,807.207453986913,806.2021675296482
1731015706.8423374,805.657730136194,808.5686844398931,806.083179739497,806.0703655451576
1731015706.8435104,804.4284481086044,808.5994437647532,804.1681308464701,805.8636906474469
1731015706.8472414,803.6198551728774,808.5925699446813,802.6570299142181,805.6127475071752
1731015706.847393,803.6474270788344,808.5106949378314,802.8767081023859,805.3747645115695
1731015706.851276,804.7251903553279,808.3858487274271,805.2204087181804,805.1133676378299
1731015706.8551588,806.5890067939793,808.259105870744,808.7111635881097,804.5760006015477
1731015706.85797,808.58983180934,808.1495093956091,811.6008104590895,803.3580810890383
1731015706.8590417,810.0968058025536,808.0546473928478,812.5522028037917,801.2035771200641
1731015706.8629246,810.8193193570397,807.9643610552747,811.4417001227989,798.3059483334346
1731015706.8635092,810.7705734223441,807.8714948560996,809.1728635607125,795.2945907453451
1731015706.8660583,810.0084943379335,807.7746463376122,806.7818052007002,792.8573582319154
1731015706.8668077,808.5004716883726,807.6757550940459,804.6702912807053,791.2784908985859
1731015706.8706903,806.2385536606055,807.5769787295665,802.546015674338,790.2357851165376
1731015706.8736029,803.3953422282431,807.4792139240719,799.9540919781887,789.0019920333965
1731015706.8745732,800.2922498219857,807.3822485538341,796.8565699179337,786.9572639674625
1731015706.878456,797.2516073211181,807.285519800726,793.8270841655522,784.1661152281051
1731015706.8823388,794.5988661299023,807.1886590681457,791.7940372621771,781.6823251709254
1731015706.8848753,792.8741088978102,807.0916048271513,791.5332144407381,781.2574439219201
1731015706.8862216,792.9345060754041,806.9944592389684,793.1956738673282,784.387941217276
1731015706.8892355,795.5880780831719,806.8973241233793,796.1353406718756,791.14399886118
1731015706.8901043,800.8558192558711,806.8002303397974,799.1833650798652,799.6243236790729
1731015706.8939874,807.471936970073,806.7031513285251,801.2707338984096,806.6723583560614
1731015706.8978703,813.1988221778126,806.6060446253376,802.0303292407234,809.5947643158361
1731015706.8985,815.8864810221752,806.5088802247227,801.9565886250502,807.7230160011361
1731015706.9017532,814.5567473560999,806.4116464028415,801.9917835008704,802.6618559034166
1731015706.9036918,809.7887825113723,806.3143420063503,802.8442641225214,797.1012939904182
1731015706.9048684,803.2895914781675,806.2169654201111,804.54497380736,793.2000507752356
