timestamps,eeg_1,eeg_2,eeg_3,eeg_4
1731140449.037702,809.45019020194,801.3679300471033,791.5986865041757,804.147745589584
1731140449.041596,828.4472139976476,805.7463171351023,788.8300384667388,793.7893973368938
1731140449.04549,840.7992584949152,808.5316857441502,787.3059808514806,786.1190933953129
1731140449.049384,844.1082446689292,808.3356232301232,787.5456191486041,782.1955277513064
1731140449.053278,841.4308344816566,804.6598687417656,789.1043707998003,781.3537195964986
1731140449.0571718,838.3866538497591,798.6353396952817,790.9568175331037,782.5107887735327
1731140449.061066,838.2862601646032,792.8370480926858,792.1571607479011,785.2356757422987
1731140449.0614705,839.4378820046667,789.8736776342747,792.2494574539197,789.3420264622727
1731140449.0649598,837.2740373100763,790.6984398993719,791.2320125801662,793.6347832249502
1731140449.068717,829.5413167958219,794.0311982394777,789.3684743739675,795.6496035986705
1731140449.068854,819.5784107967661,797.4037833463303,787.1754069439073,793.2696602258228
1731140449.0727477,814.167025419422,798.9759433931349,785.4765218507174,786.9010490196066
1731140449.0766416,817.5837662348426,798.6749535180066,785.1567572411788,779.8813326282268
1731140449.077059,827.4020151860806,797.860153371462,786.5986219023281,776.2843435264126
1731140449.0805357,836.2319554481828,797.9598310328781,789.2834038377056,777.8702804150996
1731140449.0844295,837.9848452541588,799.2914516239831,791.9862894907322,782.9067354559206
1731140449.087566,832.8292514397762,800.9824430950877,793.4333334030291,787.8588949905427
1731140449.0883236,826.2329861981221,801.8874841852818,792.9258805366077,790.2690093924706
1731140449.0922174,823.217605385725,801.5590896180231,790.6383165448588,790.2437663161251
1731140449.0926478,823.524100142847,800.4146341729481,787.643242125875,789.6164757292003
1731140449.0961115,822.3504297195415,799.1445230371961,785.7095457285088,790.1300258185197
1731140449.1000054,815.8206674334101,798.1645391823009,786.7060081171352,792.5129167010713
1731140449.1038997,805.7589231063954,797.6899403010212,791.5755408531348,796.8533788901071
1731140449.1064155,798.9640505035289,798.1002373229859,799.395935079728,803.1425387806019
1731140449.107793,801.3433684144177,799.836407904344,807.3704290424257,810.9628259259821
1731140449.1082366,812.1819257229404,802.7157225450327,812.1113918273655,818.6854286100705
1731140449.1116872,823.9654031379885,805.4757093066733,811.5564159334454,823.4641394103568
1731140449.1155813,828.2682305556344,806.3485668928803,806.210482025026,822.6763809651806
1731140449.1194751,822.6255466948356,804.4023353685293,798.7994509014873,815.900973879823
1731140449.1233692,812.2607196609856,800.4462526876179,792.5927085860905,805.669961720645
1731140449.1238253,805.213417114221,796.5904934450298,789.6359207737571,796.0799316497163
1731140449.1252646,805.4855352470141,794.8165615054447,790.087388530704,790.2211787316973
1731140449.1272633,810.480832578234,795.8212457566285,792.8397051934896,788.5110585725226
1731140449.1311572,814.706578073366,799.0217776678888,796.5800542271617,789.2494602432046
1731140449.135051,815.6885121785991,803.4155675433666,800.3197446019925,790.7023385781514
1731140449.138945,816.1378022230466,808.2560872614636,803.1981782158057,792.6619428025152
1731140449.139414,820.3246283678963,812.9383963084573,804.1683027357741,796.0636898854001
1731140449.142839,828.45470147523,816.508931380123,802.2090369271807,801.2722817832404
1731140449.1441138,834.9289220295051,817.6646695748832,797.0417176582088,807.0410827975118
1731140449.146733,832.6739901083781,815.5115927625903,789.698222172911,811.4139144470466
1731140449.150627,819.7920589803986,810.4026909658194,782.32967063099,813.6733727701529
1731140449.1511312,802.2710895339136,803.9471336912821,777.2767538263918,815.1405998360975
1731140449.1545208,789.8664774754822,798.0604121478593,776.0096971952728,817.7021843445918
1731140449.1550028,788.4267325664597,793.8913558194522,778.5827350682284,821.3750349334582
1731140449.1584148,795.2259231299158,791.5705872607722,783.8209245394345,823.448638624369
1731140449.1623087,801.3426671808455,790.8469122247059,790.0050393834006,820.371784592888
1731140449.162963,799.1409521135498,791.7614632035821,795.618511364119,810.902515329373
1731140449.1662028,788.6824084064089,794.5482134367376,799.771506116326,797.7456085850222
1731140449.1700966,777.8320264579356,798.8885367500144,802.1639725950623,786.1538160549544
1731140449.1705916,775.9313613621343,803.4507665255974,802.7851338394952,780.4978015355581
1731140449.1739907,786.0642483855943,806.4349381658111,801.7128061348326,781.3926909760343
1731140449.1778846,802.1387487368971,806.8240354908806,799.1839992193371,785.4877443751933
1731140449.181779,813.3008707676261,805.2502381945609,795.7548747839677,788.0687954089212
1731140449.1818123,812.3949959788412,803.6064678688579,792.2569671455187,786.6543588827774
1731140449.1856723,801.8551920021155,803.5769174564184,789.4951513918628,783.0426538822009
1731140449.186,792.2643790930176,805.2084379532074,787.9192624914922,782.2309927016266
1731140449.1861806,794.4407201270609,806.7071333757168,787.5282781872771,788.7534285039027
1731140449.1895664,810.9251659656802,805.7593291031367,788.0537056003553,802.944608801937
1731140449.1934605,833.335515109199,801.484343661399,789.254550735574,819.9515943110459
1731140449.1973543,847.7849466289404,795.5173313824749,791.104702236698,832.4401623075465
1731140449.2006614,844.5696811293262,791.2393058319651,793.7521142857331,835.1211139544315
1731140449.2012484,825.0604628785312,791.5484098672284,797.2757203149713,827.8002232248035
1731140449.2017694,800.7190412865874,796.766876683857,801.3747555473102,814.9198753001316
1731140449.2051425,785.0009487256966,804.2768481339482,805.1708305612761,802.3316475836184
1731140449.2090364,784.1959141154425,810.1972255559681,807.2969650917801,793.8738706339981
1731140449.2129302,793.9434724841794,811.8741224168701,806.371388516835,789.977305055567
1731140449.2168243,803.6939223871852,809.402129328343,801.7582166893353,788.7543300069281
1731140449.217358,805.2455399346139,805.2038043713466,794.244377549172,788.3541081821845
1731140449.2195106,798.553449714742,802.1358125233767,786.1252856397913,788.7169620961791
1731140449.220718,790.5693988745284,801.5477345541335,780.419638982406,791.4264867229618
1731140449.2208693,788.6698268817162,802.6091150629201,779.489425791103,797.8234946863357
1731140449.224612,794.4110954849946,803.2571480853034,783.838089767809,807.0202197499352
1731140449.228506,802.6495816610976,801.9857959912207,791.8422329659754,815.7153939741816
1731140449.2324,806.3644227387913,799.1228761826624,800.5659574614589,820.2667322298907
1731140449.2329469,802.8318227769179,796.6358589568596,807.0878083478249,819.4085849382608
1731140449.236294,795.8781845159402,796.6409786225273,809.5554517053424,815.2357097289604
1731140449.2383597,792.3629489660021,799.8041091118434,807.5844935933359,811.471536724185
1731140449.240188,795.9071919059917,804.8640886193913,802.1313147991374,810.3961299037019
1731140449.244082,803.2201051130404,809.5436261795901,795.0993339132399,810.9921483085587
1731140449.2479758,806.3049342682631,812.0097724183468,788.7605408658627,809.8724009712381
1731140449.2485356,799.0170905020525,811.7649640300981,785.0168773896021,804.3173997235832
1731140449.25187,782.7780812988855,809.5278368409797,784.7249710301804,795.1117525743974
1731140449.255738,766.6994596982979,806.5402864360836,787.4470393673093,786.9646870176244
1731140449.2557638,761.6215239279675,803.9824966417623,791.7854508023282,785.9197538573784
1731140449.2572093,772.3182038398755,802.7297616977157,796.0653035060369,795.2046632899254
1731140449.2596576,793.7259607916544,803.2105497425825,798.9486306472618,812.2215228672287
1731140449.2635517,814.240939967416,805.1840072104031,799.744991197468,828.9899279211086
1731140449.2641244,823.8496951691351,807.6607882079485,798.4791965856003,836.3045590987937
1731140449.2674456,821.0399051774139,809.3037815238074,795.8664575328628,829.2751207918303
1731140449.2713397,813.2100738920452,809.2123754435196,793.1840789962773,810.6228272444383
1731140449.2752335,810.3370235305237,807.4992807328883,791.869478166709,789.3230031080155
1731140449.2760582,817.006553636425,805.1480459878684,792.8006256536065,775.2871515270534
1731140449.2791276,829.1245320425103,803.2769611710538,795.6215668289091,773.5737550637901
1731140449.2797132,837.693533940322,802.4528994719628,798.7482571315377,781.9716226677659
1731140449.2830217,836.2857080988446,802.5568330307588,800.3415835017591,793.3438952965089
1731140449.2869155,826.0027490883325,803.1166229823218,799.6544170995801,800.6766856181582
1731140449.290607,814.0072855592846,803.6593283384799,797.5963728614253,801.0435254946718
1731140449.2908094,807.149734355297,803.8194801765683,795.8980556494964,796.0114763274255
1731140449.2947032,806.2800439114284,803.3434784844984,795.5632233961682,789.089116931803
1731140449.294907,806.1410029461098,802.2373655668592,796.0552331204548,782.9008457205795
1731140449.295302,800.8631604481482,801.01805027724,795.9882709841661,778.2739926593481
1731140449.298597,790.1538083318081,800.7265169640622,794.6090466846041,775.2595504041515
1731140449.3024912,780.5529526127403,802.4370690907166,792.5846807482063,774.4553227128774
1731140449.3063853,780.3331558344864,806.4306529520388,791.3365279925363,777.1115973318688
1731140449.3102791,792.169082864322,811.6034408451626,791.5957314110983,783.8776051547611
1731140449.310891,809.7735170284376,815.6734476424245,792.5498597151786,793.3572627520434
1731140449.3137565,821.5269721338095,816.2689043632604,792.317161309913,801.9259306128639
1731140449.3141732,818.5143081828016,812.3260098576346,789.2929048489173,805.392770211258
1731140449.3180673,800.9767440192682,804.8667571181958,783.3022797729823,801.6570565177294
1731140449.3219612,778.4803673579896,796.5409294939338,775.8255639612413,792.5016818805344
1731140449.325476,763.774288872782,790.1993782159782,769.3095880489475,782.9846435020025
1731140449.325855,764.7316457924696,787.5243634160523,766.0794657624403,778.5281624547051
1731140449.3264794,779.8341611857584,788.6305592570367,767.3953136735112,781.5794602449205
1731140449.3297489,799.8938355786723,792.6234937739257,772.9666386766446,790.1414538882246
1731140449.3326058,814.323779577273,798.3090794021155,781.0280248038441,799.1469465919222
1731140449.333643,817.4129797213005,804.4056889171388,788.9710636953008,803.6593583611317
1731140449.3375368,810.5641196108219,809.4361123742648,794.3796203124055,801.7609805774277
1731140449.341431,799.7093991660338,811.9334032394407,796.0456056525398,795.4126455200641
1731140449.3420682,790.5792849203466,811.1537821425602,794.3696056116315,789.0145290400997
1731140449.3453248,785.5406946623924,807.7300251424439,790.8222185410989,786.7965226101782
1731140449.3492188,783.7444587916259,803.5471381925306,786.8341603109359,790.6973124314628
1731140449.351455,783.3322171667478,800.7639163719248,783.0137638776919,799.8519209834055
1731140449.3531127,783.2219354813108,800.6540204149811,779.3395850163884,811.620115959314
1731140449.3570068,783.2906164162392,803.0644887250739,776.0383700497017,823.0960254377576
1731140449.357657,783.6785247845473,806.7450951109109,774.119633216226,832.0052732747472
1731140449.360345,784.3406643518233,810.1680464242031,774.8220070367441,836.8149250698003
1731140449.3609006,785.0941035208393,812.2707456980847,778.3586812183622,836.792452840482
1731140449.3647947,785.7982213941351,812.8047526683522,783.209100808252,832.5992408753887
1731140449.3686886,786.419334023043,812.2680623341968,786.8436909634136,826.8942025186412
1731140449.370304,786.9910699561111,811.5064631668108,787.4520868147365,823.7122541839011
1731140449.3725824,787.5550908239251,811.1320890851174,785.246635109328,826.1984383880467
1731140449.3732457,788.1305321326506,811.0665196625539,782.2266574808383,834.0655506607084
1731140449.3764763,788.7149249294617,810.5840463320308,780.6279702499723,843.0499831471606
1731140449.3803704,789.2980864503194,808.932967291645,781.390982672822,847.4179493624432
1731140449.3842645,789.8729102617788,806.0869416886071,783.8624340389428,843.9878045704523
1731140449.3881583,790.4380831126178,802.9655743119675,786.7679256126873,834.491935479198
1731140449.3888345,790.9956345164935,800.8831227812325,789.3897457583404,824.1982588938149
1731140449.3891532,791.5477965360299,800.6768405726816,791.8767571118084,817.8988734858813
1731140449.3920524,792.0955293451565,802.2434615662672,794.6192019010251,816.7867336139036
1731140449.3952138,792.6386843842723,804.8154578384017,797.557486383989,818.9430318807176
1731140449.3959465,793.1767697844709,807.6511666617484,800.214905531983,822.6959999852271
1731140449.3998404,793.709496315553,810.4881228678634,802.3224057273673,829.1966135256386
1731140449.4037342,794.2368869493129,813.346688589874,804.1928829904151,841.0832625791078
1731140449.4044232,794.7591288734851,815.8668591620276,806.2845820290612,857.9029388902369
1731140449.407628,795.2764065729148,816.8792794529819,808.3572463382928,872.7076105821383
1731140449.4080026,795.7888333048572,814.8843451532633,809.2120877968224,874.2180514842747
1731140449.4115222,796.296473494407,809.3637190582019,807.5283946082434,854.4500631147832
1731140449.415416,796.7993958965388,801.8742409218156,803.1884407091992,816.2984053940424
1731140449.41931,797.297703878123,795.6709982937014,797.8577367969443,774.37824551729
1731140449.420012,797.7915183156695,793.6888090680194,794.1521195140373,747.2222785565999
1731140449.423204,798.2809226317737,796.294211474927,793.9711920981167,745.9291485553242
1731140449.4268515,798.7659164537089,800.7480571517855,797.2999032995145,767.4139967954868
1731140449.427098,799.246449791784,803.0542408731992,802.3209896860799,796.8759118330343
1731140449.4300828,799.7225820680918,800.8319468154887,806.5809662778561,817.1994519895591
1731140449.430992,800.1946930876982,794.9341744281018,808.282550040941,818.5214991708126
1731140449.434886,800.6635077385707,788.6260291958506,806.9902456217048,802.1789591584235
1731140449.435601,801.1296542142911,785.1840257000814,803.6452331310103,777.9618354786302
1731140449.4387798,801.5927815874102,785.8860698480162,800.1048468317922,757.8228431240733
1731140449.4426737,802.0509357001621,789.7005377867515,798.3721483133563,750.1876310699652
1731140449.445701,802.5014428278944,794.447950084998,799.6874879394455,757.2617158953049
1731140449.4465678,802.9440159358662,798.260116460149,803.8889276328945,775.4937198450083
1731140449.4504616,803.3845159332648,800.3581271719386,809.530354911739,798.1060508882684
1731140449.4511898,803.8347690422876,800.9644673648356,814.818942641125,818.2769963794711
1731140449.4543557,804.3034741362902,800.7636094753133,818.7662424609238,831.6461383501832
1731140449.4582496,804.7795984307489,800.4058494848782,821.6857390253081,837.2532993829225
1731140449.4621437,805.2224340633725,800.2779353332675,824.6120719319067,836.8443582086601
1731140449.46455,805.5816043060626,800.4809154192493,828.0417737919813,833.3038530624543
1731140449.4649518,805.857660196396,800.8830243285682,830.9937372263098,829.2503691931719
1731140449.4660375,806.169006420666,801.2113080908154,831.2827673500134,826.397909876406
1731140449.4667785,806.7362110595282,801.2005455446972,827.0274721942884,825.5545133091174
1731140449.4699316,807.6967560498223,800.7415277298071,818.3185884958036,826.7455349128671
1731140449.4738257,808.7941095885589,799.9122215769545,807.6211715110055,829.2219604446948
1731140449.4777193,809.224894554726,798.8815399508294,798.418421530639,831.6476863452839
1731140449.4816134,808.0714192244723,797.8305787414693,793.1374484829225,832.8078458881625
1731140449.4823673,805.453082489603,797.0018876554515,792.0309003120603,832.5454534206135
1731140449.4833994,803.6327182255947,796.7718560263928,793.7151385820727,832.0499371257209
1731140449.4855072,806.4589135299599,797.5418196163997,796.5068186604341,832.9595465299274
1731140449.489401,816.3390022649896,799.4442186623834,799.213083344399,835.8660330522299
1731140449.4932952,830.824328756618,802.1347335091606,800.984078379918,839.5500436016805
1731140449.4971893,842.6710912458634,804.9164349020706,800.9645774415037,841.7095167582531
1731140449.497956,844.6070480171253,807.1034188074823,798.5105445535287,840.5643301230137
1731140449.4998207,835.1776000879927,808.2812986563816,793.8381930174266,835.9732846377092
1731140449.5010831,820.449953941861,808.2770831368106,788.3226913420682,829.3254608134107
1731140449.5022483,809.7891723169502,807.0262325541993,783.9474021651407,822.6560701164217
1731140449.5049772,808.957735461753,804.6459084514953,782.2112196858545,817.855147826005
1731140449.5088713,816.0143008430941,801.7102116490958,783.3082146431581,816.2396788140352
1731140449.5127647,823.2650281472938,799.3317727320429,786.1937940993179,818.1549030058587
1731140449.5135448,823.7259852219279,798.6907439066454,789.4418290577761,822.5199180558919
1731140449.516659,816.9325864778265,800.1880888889058,792.1569455420347,826.9172250995878
1731140449.5205529,809.3810980098898,802.9270887943205,794.2175560101869,828.8057271205532
1731140449.5210977,809.1724700765202,805.1361167077912,795.8325280516889,827.3707113777548
1731140449.524447,819.1371428414218,805.3780617035625,797.0794076592318,824.4678893225375
1731140449.5283408,833.9854286740417,803.6058709285512,797.9660415435965,823.4467205293263
1731140449.5291336,843.8410507553796,801.126615560446,798.7737772616758,826.4371751717057
1731140449.532235,841.5184973483314,799.4489302424621,800.0125167450417,832.3597806383856
1731140449.5346897,828.0258753965031,799.0071675562039,801.8348766615621,837.6279528496395
1731140449.5361288,812.0765161840875,798.8878089581602,803.5704735685343,839.1634308057544
1731140449.539947,803.801155234287,797.7733527014225,804.0735488715719,837.0503940806303
1731140449.5400229,807.2158232203788,795.2368405071379,802.7044580799312,834.2971200589675
1731140449.5439167,817.1870175429509,792.2668620161202,799.994543367787,833.8592663253596
1731140449.5447223,823.490961349117,790.6177474269194,797.295882469845,835.7380003819894
1731140449.5478108,819.0186697459378,791.5300152431066,795.7417949648491,836.8847677921485
1731140449.5517046,805.5147021488149,794.7826242771995,795.5108404051668,833.8743752076482
1731140449.5555985,791.9445235458942,798.7477423868689,795.9820949733432,825.7011133179266
1731140449.5587962,786.7811740552065,801.4308892327714,796.4280776380944,814.2155352401119
1731140449.5594926,790.8683955430027,801.8137551707407,796.5129398707568,802.2527772932419
1731140449.5603113,797.0023761602588,800.5636670131145,796.2998478756663,791.6075165289491
1731140449.5633864,796.3127692941573,799.5775342606028,795.9962046965218,782.6396889147964
1731140449.5672803,785.5602880520044,800.6886429799471,795.7457638463848,775.2378098303473
1731140449.5695586,769.1021329935331,804.5034620286924,795.5763621857841,769.5931314837794
1731140449.5711744,754.5679096208397,810.1793440455597,795.449010504041,765.9804354291692
1731140449.5750685,746.8931882672706,816.1546820724295,795.3204652924319,764.1863859866005
1731140449.5758998,745.8911778890848,821.1385396343574,795.1726895542254,763.4672150006642
1731140449.5776453,748.2174214958201,824.6234578327441,795.0097358906336,763.0216856298906
1731140449.5789623,750.6662999643415,826.7068117398132,794.8425946935736,762.3996061807492
1731140449.5828564,751.8832959592455,827.5640358837339,794.678343388227,761.5407859808412
1731140449.5867505,752.0917872401561,827.0930225207613,794.5179264351536,760.5766178117168
1731140449.590644,752.0330764158729,825.0061539568275,794.3590328874503,759.6343589872537
1731140449.5914886,752.201275891835,821.2355227594205,794.1993672624895,758.7586063026156
1731140449.5945382,752.6734796855086,816.2598092407903,794.0380458252642,757.9301746134631
1731140449.5964944,753.2988241027973,811.0454671606666,793.8753147378751,757.1143847122935
1731140449.598432,753.9226705621157,806.6286714820806,793.7117230518113,756.2916053217971
1731140449.6023262,754.4854811995993,803.6425663031926,793.5475781499383,755.461014044388
1731140449.6044278,755.0059474826203,802.0924733655916,793.3828628780301,754.6304745302202
1731140449.60622,755.5248751966734,801.4677422702139,793.217402928316,753.8067637339952
1731140449.6070774,756.067252768256,801.0794417291828,793.0510372283379,752.9920535158408
1731140449.610114,756.6358324500692,800.4380869655628,792.8836831845452,752.1852780976683
1731140449.614008,757.2222659321017,799.486739100482,792.7153159928699,751.384746963283
1731140449.6153438,757.8188269341708,798.5557937021149,792.5459239676693,750.589660601084
1731140449.617902,758.4230612425825,798.0570106897345,792.3754815014884,749.8002078042272
1731140449.621796,759.0364911521317,798.1411975537097,792.203946525092,749.0169924107578
1731140449.622666,759.6615737112065,798.5991604860269,792.0312701115383,748.2405292480637
1731140449.6256895,760.2998088795113,799.0681454074493,791.8574053249479,747.4710834757469
1731140449.6295838,760.9515239958411,799.3175003436403,791.6823102411298,746.7087571997118
1731140449.6334777,761.6165134980832,799.3519778379635,791.5059466009943,745.953629862108
1731140449.6341927,762.2946465802552,799.3050870102703,791.3282774532502,745.2058386224219
1731140449.6373718,762.9860811700595,799.2893646499872,791.1492658602599,744.4655874859741
1731140449.638255,763.6911743183564,799.3356237659112,790.968874893398,743.7331182251978
1731140449.6392968,764.4103171516542,799.4184280811264,790.7870682082623,743.0086683255023
1731140449.6412656,765.1438401569013,799.5034456146129,790.6038105312191,742.2924262930871
1731140449.6451595,765.8920091790442,799.573769617554,790.4190678252344,741.5845041521443
1731140449.6490536,766.6550660088149,799.6304771143217,790.232807237443,740.8849706686625
1731140449.6529477,767.4332653452469,799.6816754785636,790.0449970116808,740.193979792245
1731140449.653042,768.2268844918128,799.7334157990076,789.8556064668643,739.5119437933603
1731140449.6538436,769.0362041804195,799.7870767918739,789.664606036446,738.839565492178
1731140449.6568415,769.8614740381903,799.8411614564219,789.4719673141649,738.1774968150096
1731140449.6607354,770.7028906434384,799.893866833977,789.2776630666058,737.525622003847
1731140449.6646297,771.5606247205859,799.9443800761568,789.0816672267355,736.8825070022643
1731140449.6685233,772.4349139819312,799.9928171165851,788.8839549327229,736.2460345674142
1731140449.6694326,773.3261712953199,800.0396161837023,788.6845026728687,735.615874528182
1731140449.6718912,774.2349729652209,800.0850759457286,788.48328850267,734.9966326740357
1731140449.6724174,775.1617872740594,800.1292444422598,788.2802921416971,734.3980008734076
1731140449.6741655,776.1064940650455,800.172028248987,788.0754946786528,733.827711826146
1731140449.6763113,777.068115925737,800.2133281154715,787.8688778254522,733.2779947283854
1731140449.680205,778.0454313386742,800.2531011433224,787.660423239044,732.7165998315191
1731140449.6840992,779.0387475083671,800.2913523328493,787.4501130171708,732.1015014705589
1731140449.6850214,780.0517934996476,800.3281008776125,787.2379322316395,731.4293213270511
1731140449.6879933,781.0911408591833,800.3633568233214,787.0238725429417,730.7918275016559
1731140449.6907406,782.160713666016,800.3971174747439,786.8079330969936,730.3691437467203
1731140449.6918871,783.2528540668645,800.4293755010691,786.590113813583,730.2857513120093
1731140449.695781,784.3443609968656,800.4601271680893,786.370400746612,730.3571170581317
1731140449.699675,785.4098556542851,800.4893735448844,786.1487542944744,729.9517699719331
1731140449.7006102,786.4560239179068,800.517113934482,785.9251211907557,728.3273486430351
1731140449.7035687,787.5546373594719,800.5433370787136,785.6994843978371,725.5958558901644
1731140449.707463,788.8246871524934,800.5680206189828,785.4719286579088,723.7957704871187
1731140449.7090347,790.3219678998767,800.5911483577473,785.2426471823961,726.7962767967634
1731140449.7095895,791.8734489184395,800.6127417993695,785.0118016724382,738.0605361040901
1731140449.7113569,793.0227267923938,800.6328783599812,784.7792445921069,757.4443643721606
1731140449.715251,793.3093995899459,800.6516524030839,784.5443246900403,780.3177157100023
1731140449.7161987,792.9074835549635,800.6690604515269,784.3061689026368,800.7950632069562
1731140449.7191448,793.1350599032929,800.684877168315,784.0646627609653,816.3689957315537
1731140449.723039,795.9601294601065,800.6986901555898,783.8216306642043,829.3385129838778
1731140449.7269328,802.3485646493964,800.7102535345242,783.5807653800783,843.7437162266242
1731140449.7284389,811.0485858318016,800.7200690737648,783.3447500620757,861.0651573209407
1731140449.7308266,819.7409217306699,800.7296519003054,783.1100323074603,878.7842119398816
1731140449.7317877,827.8520830685646,800.7406761408763,782.8637327102696,892.6927163727693
1731140449.7347207,837.741054796805,800.7527567101148,782.5900140407814,900.3101547084682
1731140449.7386146,852.3295627841142,800.7612827457983,782.289204089856,902.3638799588713
1731140449.7425086,871.3310307129734,800.758520997703,781.9987979191404,901.7550687268007
1731140449.7439036,890.1134028495211,800.7407237453957,781.7883213107699,901.6628356128655
1731140449.7464025,902.6698715096579,800.7188764067828,781.700908538671,904.3041543998388
1731140449.747288,906.0852434564139,800.7222975730987,781.65602237601,910.3661634131507
1731140449.7473764,902.5686351714609,800.7804021487127,781.403755261621,918.5647543585558
1731140449.7502966,897.5311985007042,800.880249556085,780.6673209086655,925.6546143890093
1731140449.7541904,895.5667749784415,800.9297086136617,779.5216313280101,927.7871510515417
1731140449.7580843,897.5179083812329,800.7879802084655,778.7873905177585,923.0334354266922
1731140449.7619784,900.556522977328,800.4107466831895,779.939435313693,913.2539242640904
1731140449.7629652,900.9361319941592,800.0580374061894,784.1752101525367,903.5108274928692
1731140449.7658725,897.3964449714979,800.3674775644487,791.1422029368472,899.2152806753882
1731140449.7661374,892.8179534881949,802.0744508563189,798.6101359269203,903.1001729732562
1731140449.7697663,892.7428387520189,805.4374222231108,803.7545875146324,914.0211116588945
1731140449.7736602,901.4518849294595,809.813696891827,805.0340278281593,927.928583907782
1731140449.7775545,918.2407144836803,813.8161373906287,802.9691950828917,939.9244400395878
1731140449.778554,936.7912692717528,815.9873606332555,799.2851152789146,946.1384555665253
1731140449.7787726,948.5472926238875,815.5325576554153,795.4125369492423,944.8350615849174
1731140449.781448,948.0790512128234,812.720870241457,791.730290584644,936.7816613085181
1731140449.7849865,936.7464945202962,808.8316032188823,788.0405816777873,925.0201790476925
1731140449.7853422,921.8981636304418,805.6742443029118,784.5717030378944,913.9961523190857
1731140449.789236,911.9315161934958,804.8008449094968,782.3729233851003,908.0188241497713
1731140449.7931302,910.7024873693985,806.7016408976165,782.6260289885548,909.4455167093766
1731140449.7941427,915.4945524480839,810.426144820429,785.4960380939591,917.4461408860898
1731140449.797024,920.0821624413737,813.9451465334893,789.6564944981693,928.1823194456492
1731140449.800918,920.2514792924989,815.1384715135213,793.0657385496152,936.5623956756904
1731140449.8038356,917.0413620750844,812.8753471432528,794.4312937210314,938.7440561409683
1731140449.804812,914.9673710266404,807.5883432592015,794.1254807498732,933.9146463870679
1731140449.8087058,916.967136210893,801.0634540498376,793.7519566672984,924.2162439942044
1731140449.8097315,920.8036773856973,795.613568320475,794.730225795101,912.9947497486758
1731140449.8126,920.4592515458858,793.0661655573659,797.0991621083559,902.8494512197362
1731140449.8136415,911.5960660205596,793.9895066690392,799.5098136574298,894.9768150706757
1731140449.8164935,896.301483964267,797.4472008656838,800.350714321932,889.8991072423389
1731140449.8203878,882.5599766839161,801.4287358412149,799.056726937569,888.2342033400826
1731140449.8226848,878.2738928541452,803.8680277800794,796.5898319933982,890.2437393807872
1731140449.8242817,884.5774038389145,803.7704351834365,794.7808303652527,894.4732742225947
1731140449.8253202,894.2741703383178,801.7096964950674,795.066058876299,897.1942631900005
1731140449.8281758,897.178161188793,799.2627685926703,797.5277112864943,893.9610393779301
1731140449.8320696,888.1976459576701,797.7683165414342,800.8498712048139,882.6165174677033
1731140449.8359635,871.4326369094215,797.4178689044978,803.1303597776929,865.454843730577
1731140449.8398576,856.8567787608383,797.4454623725942,802.9791706387106,848.6462786315599
1731140449.840909,852.4649239543967,797.2053549478057,800.3082146371008,839.0794082890467
1731140449.841534,858.416214381851,797.0956701968428,796.5076603015865,840.5913962686305
1731140449.8437514,867.6505914463961,798.3884877713652,793.9405704479638,851.8217272462651
1731140449.8476455,871.933903918722,802.0151496274812,794.8170443108731,866.8675873358414
1731140449.8485105,868.149065880035,807.3537933316286,799.7975734820795,878.3854497300629
1731140449.8515394,859.9081223254104,812.1402641831002,807.1228746453751,881.3734713487481
1731140449.8554337,853.515594208142,813.6749271266098,813.1354854675654,875.2738901378924
1731140449.8564978,851.8274304517125,810.4173148824277,814.2800930674639,863.0733021533423
1731140449.8593273,851.3138807765691,802.8485939426196,809.4391900393994,848.448013194367
1731140449.8603833,845.1424562757338,793.2061934697052,800.8948398924991,833.6477270927757
1731140449.8632214,829.9244408571003,784.5098565172038,793.0475499440928,819.8238840038384
1731140449.8671153,810.1017971824004,779.4920780570517,789.7346862953294,808.7045233377858
1731140449.871009,795.4678205719719,779.7575544435687,792.1043141182818,803.0045190281203
1731140449.8720863,793.3261847220074,785.2795813895564,798.4818859539312,804.5553925265656
1731140449.8749032,801.9729195785735,794.363203329544,805.9770949325109,812.0197735410081
1731140449.8787973,811.4372438583881,804.1847211198807,812.2746781414272,820.8678863815348
1731140449.8792324,811.2032664553745,811.7810233526867,816.2681516630536,826.1366178088853
1731140449.8826911,798.6532229942989,815.1041237622744,817.5492607040774,825.7762360407031
1731140449.8833797,781.4373618404551,813.7248348707388,815.8287758621119,821.8481345434112
1731140449.886585,771.9178888632669,808.9433743072534,811.1319108611036,818.7053180733504
1731140449.8876753,777.9018912213356,803.2650595816806,804.4716719102427,819.6504823858048
1731140449.890479,796.5491180387784,799.3772148403702,797.9674281413801,824.5633990813085
1731140449.8943727,816.0074905018832,798.9804742930706,793.87849455144,830.134818935694
1731140449.8980815,823.6948539611494,801.9985475565804,793.2223695080819,832.3680981744286
1731140449.898267,815.0748978081378,806.5912075357536,795.2110336484549,829.2854633861613
1731140449.902161,796.1878038703566,809.9996600695921,798.0197883611362,821.6842997072303
1731140449.903264,778.0898223411566,809.8442288613402,800.1623208184936,811.625732008598
1731140449.906055,768.057969158699,805.318105505746,801.2760800013276,800.5269176573835
1731140449.9099488,765.0111101998,797.7446472944454,801.8190677634891,788.9625085353832
1731140449.913843,762.5271715851071,790.1214536974692,802.2156561632518,778.1244494995774
1731140449.916931,755.9006907186239,785.6802130425111,802.3385515288265,770.7058781708047
1731140449.9177368,746.4685812240352,786.1426259031332,801.7032527052378,769.4134375478286
1731140449.9182484,739.637519884673,790.7794734081535,800.0351464109025,774.0865222485713
1731140449.918853,739.0896457589225,796.9975053673273,797.6222304185333,780.424978544334
1731140449.9216306,742.7822675081296,802.0596873837509,795.181749278544,782.1934916007845
1731140449.9255247,744.2794836437639,804.6272767093188,793.4343866354482,775.4849292891479
1731140449.9294186,738.1368942265766,805.0497911276545,792.7551362813452,761.5158615736837
1731140449.933313,724.7427488730767,804.5123250640742,793.0778212867906,745.6248528038504
1731140449.9344418,710.5906329831107,804.0122249952448,793.9572790811045,733.448834512213
1731140449.93578,703.6301618874571,803.9184797760294,794.6482104510122,727.4959617728498
1731140449.9372065,707.2036427783877,804.1239968699853,794.2406100194712,726.5948557959132
1731140449.9411006,717.2664058912651,804.3919608485305,792.0139037901085,727.9930055094399
1731140449.9449944,725.193315648375,804.5803770607735,788.0111844921305,729.8164463569236
1731140449.9488883,724.1944971396679,804.6775884594449,783.4954051878722,731.8157325981991
1731140449.9500306,714.4646929607578,804.73553345431,780.7816343333707,734.2285158826793
1731140449.9527824,703.0645807008692,804.8011370606854,782.2106641472628,736.2952632708307
1731140449.9531174,698.5807613911157,804.8898935310723,788.6511401256158,736.0575738610406
1731140449.9546292,704.6074430918773,804.9941308727801,798.4572508042185,731.6989870111745
1731140449.9566762,716.9502898827379,805.1010316818296,807.7869494716057,723.226953550424
1731140449.9605703,726.666864539489,805.2035917195897,812.4514066370436,713.0142292625713
1731140449.9644642,726.7399231714966,805.3016970806063,810.3871160282257,704.7063333239992
1731140449.965619,717.3712536468236,805.3982815858544,803.153728958429,701.2409428309761
1731140449.9683585,705.7010744510716,805.4957708320431,795.2192671093715,703.1903854197913
1731140449.972252,699.962755066115,805.5948714589516,791.2214788343674,708.2653011717133
1731140449.9734786,702.707797664498,805.6951247411903,792.993870360047,712.2554953398703
1731140449.9761462,708.8566582360064,805.7958719946639,798.5566143534197,711.2307503092815
1731140449.98004,710.4698810206459,805.8967930977507,803.8576875119952,704.1639418232057
1731140449.981208,704.2477064003946,805.9979252447351,805.8105624179989,694.3500601606263
1731140449.9839342,695.114546828465,806.0994485191804,804.1231001504057,688.0951756831616
1731140449.987828,692.4991051922877,806.2015083857244,800.6090146026352,690.8620995441738
1731140449.9879863,702.3369792814217,806.3041663525042,796.998512394522,703.3329589168724
1731140449.991722,721.6487242977738,806.4074317847243,793.4769542902113,720.4759943802705
1731140449.9923277,740.3830332563704,806.5112965525576,789.2035603314597,734.659663186879
1731140449.995616,749.0261133200512,806.6157375439205,784.0002400217749,740.6393169367265
1731140449.9967968,745.6527318885222,806.7207101785473,779.3076195817472,738.6538312126045
1731140449.9995098,736.7081316304058,806.8261812881144,777.350081005539,733.431013848054
1731140450.003404,731.2165093205372,806.9322168963341,779.2887475760338,730.2996768475759
1731140450.0072978,733.5528963023805,807.0390571949098,784.1304582744992,731.7578940612657
1731140450.0111768,740.7246858167654,807.1470375550274,789.3867101935158,736.8742454634925
1731140450.0111918,745.8990192464188,807.2562594919937,792.8155657472394,743.0849730394824
1731140450.0123856,744.7015317939317,807.3661593606924,793.7180375970885,748.2459575693119
1731140450.0150857,739.0030632222421,807.4754698984821,792.9013829130986,751.4772613458656
1731140450.0189798,735.4338040468235,807.5831541987036,791.6886904757388,752.9382433308054
1731140450.0228553,740.1188094960934,807.6902447710806,790.9663512071822,753.3074221323569
1731140450.0228736,753.7947171200307,807.8011140552725,790.8913896386907,753.3354324771342
1731140450.0267675,770.9450553866013,807.9215742143493,791.1722405090742,753.4959882224977
1731140450.0279744,783.5543505552915,808.0523613695655,791.4791612472117,753.8775320854371
1731140450.030026,786.701789280834,808.1813511919274,791.660707757948,754.4632774785114
1731140450.0306616,781.8360188351884,808.2841318933084,791.7330192658643,755.5449247831997
1731140450.0345554,775.2643959981359,808.3431653588952,791.7729861632816,757.7459029415152
1731140450.0384495,773.0603140113813,808.3822696383429,791.8351792794477,761.5036242288058
1731140450.0423434,776.4713050203924,808.4864041290061,791.9303523907985,766.5228755634927
1731140450.0435631,781.5511252826736,808.757834930668,792.0436654680091,771.8544365548404
1731140450.0462377,783.2222267433607,809.1859646271295,792.1585367676331,776.643287065746
1731140450.048875,780.1792324211993,809.4992390031147,792.2679920636461,780.8634989489642
1731140450.050131,776.2672712465061,809.1712935318069,792.373542407701,785.2687901904827
1731140450.0540254,776.9688471774643,807.7175012141854,792.4794005885935,790.4415654458529
1731140450.0577242,783.9224993911665,805.1328431074235,792.5883071431921,795.670923115688
1731140450.0579193,792.3583876007428,802.038247542179,792.7006560066287,798.7477520344014
1731140450.059152,794.1791922479309,799.2897702186452,792.8155846725372,797.2462405324177
1731140450.061813,784.6640210685911,797.3649843824306,792.9322275898245,790.6453515925149
1731140450.0657072,767.2779690029892,796.0681832784685,793.0502566363843,781.5944248238644
1731140450.0677245,752.0618532973974,794.7459729228415,793.1697775402814,774.8518506792626
1731140450.0696013,748.2357920825698,792.7904099015072,793.2910141624204,774.1831250859358
1731140450.0734951,756.8165509759745,790.1137784149045,793.4140986179885,779.4926038713377
1731140450.0747406,769.5378217057214,787.3646162057064,793.5390376315377,786.7084156494664
1731140450.077389,775.32590386002,785.7310236734934,793.6657755037477,790.8174410174107
1731140450.081283,769.1822346149695,786.3286397718009,793.7942598886713,789.6834837657403
1731140450.0851767,756.1913198352523,789.4693612332698,793.9244692321663,785.4950085003646
1731140450.0865736,747.4451820928518,794.3213992504752,794.056408037802,782.7220477255784
1731140450.089071,751.3441912793642,799.2908333156543,794.1900903703038,784.411407831836
1731140450.0903294,767.2281109091539,802.9197784572863,794.3255235686639,789.8163204312203
1731140450.0925932,785.9769545990611,804.6499076396311,794.4626948617771,794.9658449678454
1731140450.092965,796.5780340925731,804.9014163547886,794.6015655371843,795.4281659722693
1731140450.0968587,793.4617270846067,804.5266278268443,794.7420852834625,789.2087879115171
1731140450.1007528,779.5424014011373,804.1910170594621,794.884235910861,778.0459427708694
1731140450.1046467,763.5607709694369,804.1266350913723,795.0280850455207,766.5888341484979
1731140450.1054227,754.3336459828396,804.2546253749739,795.1737877317764,760.100915034192
1731140450.1059182,756.0269035249944,804.418393514342,795.3214645105033,761.8987988563288
1731140450.1085408,767.0520711915347,804.5279306661862,795.4709681697132,771.6873429842404
1731140450.1124346,782.3626906408142,804.5787887095867,795.6217296157525,785.5197675385535
1731140450.1163287,796.9520605947931,804.606302477495,795.7730116338953,797.5027511056851
1731140450.1202226,808.1986746837338,804.6409019424597,795.9247429552454,802.6288595632316
1731140450.1215067,815.9637624574973,804.6919189355776,796.07849027991,799.3984577816892
1731140450.124117,820.9863981740441,804.7537932777751,796.2373385267753,790.6762515054763
1731140450.124272,823.1781716895453,804.8180398742425,796.4034055673224,782.0140133545209
1731140450.127462,821.3383183803318,804.8802181315806,796.5734676562615,778.2876381038084
1731140450.1280105,814.6333284257094,804.9403996780896,796.7365528560778,780.8704969706516
1731140450.1319044,804.6139794979357,805.0005496247638,796.8796246477801,787.410068933663
1731140450.1357985,795.7264300002039,805.0622176188825,797.0038659096118,794.3014141379177
1731140450.1370957,793.1219693667106,805.1258048665762,797.1420776446911,799.5882079418412
1731140450.1396923,798.8370392038426,805.1909665999957,797.3537618554213,803.5747026790799
1731140450.1431212,809.4117920962478,805.2572510577047,797.6766121664896,806.7667353892083
1731140450.1435864,817.6597607126276,805.3244406355884,798.0507282744995,807.7557699518823
1731140450.1474802,818.1047568587198,805.3925515590665,798.3006917848211,803.9208278983028
1731140450.1513743,811.8738643824403,805.4616869649648,798.2789755627412,794.6044137122452
1731140450.1526845,806.2888075399629,805.5319194453168,798.0966539401633,783.1362494367339
1731140450.1552682,808.5285525111543,805.6032609502216,798.0998272887696,774.777029394673
1731140450.1591623,818.4412058575276,805.6756899332884,798.3967126613709,772.0700608673243
1731140450.1619704,827.3347353985442,805.7491847709683,798.4031572380021,772.4160205227386
1731140450.162331,824.8448962392711,805.8237343727042,797.1670314268912,770.8617755320249
1731140450.163056,808.448233462053,805.8993268878633,794.4472110304041,765.6442741192691
1731140450.1669502,786.9357683709261,805.9759365759178,791.4361448562724,760.7539184515616
1731140450.1682734,773.955971665943,806.0535318005989,790.0772497781155,762.4929054789395
1731140450.170844,776.773875048242,806.1321115791516,791.3522460001226,773.151254456028
1731140450.174738,790.2204916798494,806.2117455105891,794.192905736935,788.0749704013466
1731140450.178632,801.4285467090698,806.2925593979301,796.2384269589392,799.1614204264465
1731140450.1808195,801.1944593760824,806.3746163825243,795.8136269289929,801.5515713977006
1731140450.182526,791.8506763560285,806.4577303308796,793.2325800954585,797.3944703642336
1731140450.1838622,784.8528322868202,806.5413945381172,790.2558824598941,793.622137644983
1731140450.18642,790.5105958149368,806.6250826079487,788.4290789872174,796.2145894567919
1731140450.1903138,808.9219961973956,806.7089773181839,788.0183761939801,806.0839300172397
1731140450.194208,829.6800701270457,806.7946351370109,788.388091349826,819.5311279986801
1731140450.1972,840.2262293536024,806.8845347603284,789.0695712646263,831.9097756824287
1731140450.1981018,835.7143554155157,806.9796853671444,790.2131216630288,840.8051084784215
1731140450.199451,822.5072291215745,807.0761968463631,792.019427328213,846.3996332177238
1731140450.199669,812.9101859992516,807.164418121492,793.9620399182058,849.8111112714045
1731140450.2019958,815.6200527571814,807.2352941508942,794.8329421639413,851.7653768941743
1731140450.2058897,829.3604771691412,807.2942494094667,793.7365131937314,852.7564807822822
1731140450.2097836,844.4091516505036,807.3723169553718,791.1227841579635,853.6938497373262
1731140450.2136776,850.5670296456739,807.5144265783083,788.8343852907245,855.5613713989123
1731140450.2150395,845.2532400160267,807.7307954661561,789.0313445319722,858.1928732412409
1731140450.2175715,835.4650188143137,807.9307306303537,792.8371666466606,859.7573393110658
1731140450.218518,832.184999978671,807.8971183061251,799.6641319198889,857.9770320146649
1731140450.2214656,841.6326038571686,807.3424109298329,807.463073327805,852.0813465733708
1731140450.2253594,860.1018168145117,806.009690146139,813.5108659012125,843.4723795161277
1731140450.2292535,876.3608207550608,803.7646729462691,815.3855343039437,834.3825418931639
1731140450.2306285,879.8790793456159,800.7037400923863,812.0435479117293,826.02910447935
1731140450.232069,868.708053775868,797.2992458447617,804.6944650502792,818.3380060463302
1731140450.2331474,850.9615842316629,794.4398965525169,796.6634331313384,811.4811048639833
1731140450.2370417,838.6092308164583,793.1604470681306,791.6533869190621,807.2923407934871
1731140450.2373672,838.3353091117204,794.1114063448375,791.1662284794224,808.6254669840273
1731140450.240935,846.8043228150825,797.1613663868104,793.1515006768034,816.9586313654167
1731140450.2448292,854.2877593407015,801.4988352330561,793.4872878430007,830.5420501417509
1731140450.2462173,853.5479248271287,806.1411998503561,789.4914745361629,844.9431956209419
1731140450.2487233,846.1522542981722,810.3494870483321,782.4647156750549,855.5535017365888
1731140450.2526171,840.5803066818456,813.5835413080076,776.7668241236013,859.9811384844247
1731140450.2562163,843.9134378135468,815.204376666229,776.0632829628294,858.7374780609928
1731140450.2565112,854.7106742030952,814.4875827425161,780.1569271289476,854.2818711178057
1731140450.2604053,863.4836153343284,811.1808434086382,785.3322755492151,849.5052235474589
1731140450.261806,860.3375912434639,806.1166446672323,787.7827104362253,846.5558865379644
1731140450.2642992,843.2451703028659,801.0974584776665,786.8442946906858,846.3319051627586
1731140450.266938,820.1679231289036,797.8535779415159,785.1829456251298,848.6421935913509
1731140450.268193,803.4568547079992,796.8361935119177,786.0990272606372,852.8212882342987
1731140450.272087,801.0120489927039,796.9452196820724,790.6061215472279,858.2638271157763
1731140450.2750657,810.9454791184252,796.5419895487806,796.7076959447475,864.3218327259344
1731140450.2759807,823.6044145137917,794.9023005469834,801.0271672814789,869.6713669750288
1731140450.2773948,829.157240683016,792.7947137265505,801.0633762353299,872.0830059830678
1731140450.2798748,824.775849423828,791.6466072575242,796.3851087697968,869.4282494900051
1731140450.283769,815.9379957356956,792.0852916373008,788.4542754819723,861.4831940607712
1731140450.2876627,811.2010390115244,793.2414035796503,779.8227878436219,850.9177895564142
1731140450.2915568,815.1051314845578,793.4939174699073,773.3399877697354,842.2567093703469
1731140450.2929835,825.1686321623282,791.9975494996881,771.344466970042,839.3722786008341
1731140450.2939148,835.092753425703,789.6081296428524,774.6599780737398,843.3837156646206
1731140450.2954507,840.7689427202697,788.3333198641831,781.7953032645287,852.3473627271557
1731140450.2993448,843.4745021660194,789.6951468451638,789.2398256828718,862.5366983203255
1731140450.3018067,847.573943477222,793.3207465496574,793.2521451163669,870.142239808463
1731140450.3032386,855.1937001549222,796.9313552869423,792.2110627783412,872.4987551389734
1731140450.3071327,863.013805305097,797.8130186846167,787.723232345973,868.6709296696343
1731140450.3085723,864.3678600320134,794.7015727636795,783.4163146250886,859.5775651582513
1731140450.3110266,855.1737576686988,788.7088851175828,782.2868383844162,847.8084678509355
1731140450.312764,838.7525709215923,782.6701307832075,784.7919180876981,837.1562759047912
1731140450.3149204,825.0878048151966,779.4635147504564,789.1844354708697,831.7015257012114
1731140450.3188145,824.2906352828549,780.5012490101298,793.5101011368257,834.2614680326421
1731140450.3227084,838.8978004420545,785.2656216381413,797.255626340654,844.5694287568693
1731140450.3241613,861.2041677649327,791.8885542447357,801.209714961443,858.4748225378013
1731140450.3266025,878.3617017053276,798.185297007677,805.9842365576859,869.5435916424777
1731140450.3304963,881.8212170090762,802.5862003368784,810.8993625474891,872.8588079417981
1731140450.3316133,873.8598317285351,804.6470244053277,814.376561598527,868.6124728228565
1731140450.3343904,865.849591284112,804.953473570727,815.3326610765077,862.5068478205136
1731140450.336676,869.2905435621085,804.5122641899542,814.1023369061694,862.0958889754507
1731140450.3382845,886.4285299627413,804.0961370776909,812.0326887691413,871.4459174157703
1731140450.3397498,907.8560616724241,803.9805229026134,810.2537857232899,888.0610922072508
1731140450.3421783,919.2497139449341,804.0829838856598,808.774686013998,904.434662309172
1731140450.3460722,912.2678405510569,804.227868789572,806.5521386738941,913.0689591759372
1731140450.349966,891.2022875265906,804.3121710346086,802.3317271805847,911.2169760324441
1731140450.3504624,870.1249482179838,804.3294321183188,795.6838715926186,902.0154703703292
1731140450.35386,862.6208946049609,804.3190409544465,787.7098116719118,891.6463331562968
1731140450.3553386,871.8962629856837,804.315583864467,780.9849457903712,885.1275282564216
1731140450.357754,888.6435561362549,804.330006415177,778.5077538836279,883.9242296600464
1731140450.361648,898.0763131050383,804.3562656885755,782.0192832028806,886.6017499893966
1731140450.365542,890.7498914855341,804.3847974194239,790.7435072474009,891.168701455408
1731140450.3693116,869.2247308523723,804.4105024965552,801.5670213435733,896.7824843141658
1731140450.369436,845.9949939548874,804.4333891039795,810.6839415743365,903.6466664600748
1731140450.370927,834.6484113744802,804.4556573482204,815.6005003011256,911.8215894601186
1731140450.3715448,840.9367638227839,804.4790765494402,816.1632969905577,920.4607866078102
1731140450.37333,859.9547465711803,804.5041271159656,814.0853515691377,928.173101620628
1731140450.377224,880.6831952202706,804.5304370635514,811.5049678544458,933.9023198277766
1731140450.3811178,893.735655604315,804.5575022412128,809.6140791057712,937.2932712694544
1731140450.385012,896.3522731469225,804.5850784656351,808.1679271268273,938.2415119263179
1731140450.386516,891.6559070929497,804.6131875998218,806.056443884606,936.2969742586318
1731140450.3881607,884.1701025796074,804.6419538814318,802.4505376451577,930.7835567958643
1731140450.3889058,876.2003252559414,804.6714695396678,797.6510980465858,921.7273999781808
1731140450.3927996,867.8700261114247,804.7017569522079,792.9678091214249,910.7240213627401
1731140450.3966937,859.6061965728182,804.7327959274533,789.7449455528658,900.7179447068911
1731140450.4005876,853.7229453034074,804.7645619172042,788.4256310177357,894.5938035619386
1731140450.402105,853.1949726077657,804.7970450361369,788.4999546196478,893.6425553424647
1731140450.4044816,858.8391442681769,804.8302489330657,789.2779540486428,897.1418185311076
1731140450.4064138,867.7685909981697,804.8641816930806,790.6152803948446,903.2130186310727
1731140450.4070098,874.8210759713888,804.8988489851125,792.8738850058268,909.9410491061064
1731140450.4083755,875.984112733149,804.9342524427063,796.2737139298316,915.7753993269971
1731140450.4122696,871.0305556390167,804.9703912926802,800.3605955627946,919.3323860548519
1731140450.4161634,863.1760879702792,805.0072643492953,804.0486853420374,919.426912839417
1731140450.417694,856.1710308822835,805.0448709069857,806.0899550477089,915.6081310787058
1731140450.4200575,851.5516941793323,805.0832105896903,805.6156056200546,908.5489663885119
1731140450.4239514,848.361903113708,805.1222828340427,802.59212191696,899.6879730114715
1731140450.4258592,844.9070340255874,805.1620865266608,798.0869898018285,890.3968305248126
1731140450.4278452,840.342997699628,805.2026199232382,794.0367851144383,881.4020485449602
1731140450.431739,834.8829463995953,805.243880728621,792.3225179132309,872.7862804276917
1731140450.4332826,829.1404203340709,805.2858661857407,793.6238501086128,864.3319875198067
1731140450.4356332,823.543273608627,805.3285731028731,796.9929872232899,855.8374825676882
1731140450.4395273,818.1803777597758,805.3719978278407,800.5643389183527,847.2366171767616
1731140450.441283,812.9418815698644,805.4161362064167,802.7438515457711,838.5635091406023
1731140450.4434211,807.70183044031,805.4609835512148,802.8730990782116,829.8740766754167
1731140450.4447083,802.4061287127762,805.5065346262161,801.1299609332427,821.1984817147144
1731140450.4473152,797.0652584625598,805.5527836398026,798.2585437596894,812.5367190209946
1731140450.4488714,791.7107414240929,805.5997242383755,795.5476097522144,803.8755540010305
1731140450.4512093,786.3632638177583,805.6473494972744,794.6621241196706,795.2040691794365
1731140450.4551032,781.0257450017011,805.6956519097423,796.7611722936904,786.5189041847416
1731140450.458997,775.6914633374572,805.7446233758632,801.2455211683678,777.8217937592283
1731140450.4628909,770.3535784604795,805.7942551925856,805.3813097743265,769.115334473396
1731140450.4635575,765.0093046580702,805.8445380449083,805.6445149217617,760.4006354377076
1731140450.46446,759.6591778893024,805.8954619980759,800.0823927012307,751.677246699052
1731140450.466785,754.3046722844344,805.9470164911551,789.8476655008922,742.9441116608496
1731140450.4706788,748.9465969999773,805.9991903327004,778.573446418639,734.2003657736423
1731140450.474573,743.5848308099637,806.0519716983831,770.0205443282655,725.4455723320651
1731140450.476152,738.2187979798836,806.1053481283507,765.8366334819881,716.6795708827016
1731140450.4784667,732.8479652440365,806.1593065204431,765.0830702452402,707.9022527300855
1731140450.480049,727.4720363404931,806.2138331173539,765.6417350026845,699.1134394204902
1731140450.4823608,722.0908939515997,806.2689134933006,766.1130400468946,690.312873347893
1731140450.4824069,716.7044700613467,806.3245325551421,766.6313972899441,681.5002616603206
1731140450.4862547,711.3126706740089,806.380674572951,768.1897242704692,672.6753334473285
1731140450.4901488,705.9153773526739,806.4373232333946,771.4067898182942,663.8379024642272
1731140450.4940426,700.512483562617,806.4944616685581,775.9481566449584,654.9879186348303
1731140450.4956377,695.1039137927095,806.5520723869786,780.9150153003619,646.1254481338315
1731140450.4979365,689.6895994817986,806.6101370799715,785.5276256343797,637.2505115820513
1731140450.501256,684.269429070739,806.6686364232326,789.3843301497783,628.3628112098486
1731140450.5018306,678.8432320052309,806.7275501610696,792.2957883511464,619.4615856365422
1731140450.5057244,673.4108655103032,806.7868577323161,794.1522027555802,610.545971257303
1731140450.5096183,667.9724056875518,806.8465392545536,795.0092705149596,601.6160206142174
1731140450.511021,662.5282965179855,806.9065759205529,795.1596980872818,592.6737726263688
1731140450.5112264,657.079182540217,806.9669484616946,795.0047987315813,583.7228892819047
1731140450.5135124,651.6252505125426,807.0276333600817,794.8468174081656,574.765485091806
1731140450.5174065,646.1653879437434,807.0885993430097,794.7969822461249,565.797033705823
1731140450.5201051,640.6971399108606,807.1498096454708,794.8280524745076,556.8042049986861
1731140450.5213003,635.2185858584489,807.2112344198572,794.8745559984573,547.7726651429421
1731140450.5251944,629.7319544986048,807.2728687317417,794.8968796106877,538.7067203053764
1731140450.5268152,624.2460270777351,807.3347374112337,794.8917224571102,529.6479690254378
1731140450.5290885,618.7722279627034,807.3968622922787,794.8735960158444,520.664564083792
1731140450.532982,613.3117117221318,807.4591895930978,794.855644189919,511.78780098038624
1731140450.5368762,607.8402750678138,807.5215301546641,794.842222220607,502.9186329517187
1731140450.5389545,602.3101430762993,807.5836164948838,794.831188475019,493.8010171539308
1731140450.54077,596.6884221572075,807.6453487270654,794.8189461318644,484.1922610489986
1731140450.542404,591.02497606549,807.7071224173585,794.8035189209384,474.25258401172647
1731140450.544664,585.4901331245017,807.7698705040912,794.7848607707416,464.904595959284
1731140450.54589,580.2875399384734,807.8343790708111,794.7637832808804,457.68084220704213
1731140450.548558,575.4036855549733,807.8999084165968,794.7409593209185,453.8499754413733
1731140450.552452,570.3429727696702,807.9632024869567,794.716581946663,453.5823634052025
1731140450.556346,564.2186711838863,808.0198419626732,794.6905181045977,456.47006753837087
1731140450.5578036,556.5531047942793,808.0690833270601,794.6625789681632,463.3089088132342
1731140450.5579927,548.606145253049,808.1197746710222,794.632671500546,476.8419841873984
1731140450.56024,544.1291953990237,808.1901798201677,794.6008042783549,499.5458280488059
1731140450.564134,548.079006369923,808.2938948337688,794.5670270271938,529.9173960417544
1731140450.568028,563.2113128455562,808.4139092411601,794.5313793889432,561.1578320003821
1731140450.5719218,586.9628830044426,808.486879323445,794.4938755693148,584.4774764253407
1731140450.5735817,611.7163203491434,808.4342885490951,794.4545139335252,594.9531935793598
1731140450.5758157,628.9793252157319,808.2582150819661,794.4132914251354,595.2470060882769
1731140450.5766528,634.6293863118894,808.1507164272751,794.3702113719029,594.0740650754491
1731140450.5797098,631.3946680234787,808.483644996346,794.3252839438727,600.5332295925144
1731140450.5807588,626.7990120135703,809.5589650594878,794.2785231005314,618.5062197610251
1731140450.5836036,628.1086027568359,811.2027373122459,794.2299429352867,644.909858448525
1731140450.5874977,637.8801681476558,812.5543929267125,794.1795543135295,672.4251447722962
1731140450.5891702,653.0906428441982,812.399429160753,794.1273628126568,694.210921846608
1731140450.5913916,668.1548154049083,809.9832240122854,794.0733707937183,707.3607982577735
1731140450.5952857,679.4453276143281,805.7507261444276,794.0175863740991,713.5785388706262
1731140450.595502,688.05258016628,801.3502260552656,793.9600364556292,717.7720505062753
1731140450.5991795,698.9021803628106,798.7041097045234,793.9007709483233,725.9889554097882
1731140450.6030736,716.9209150707037,798.7130606697441,793.839840473326,743.301686356947
1731140450.604759,742.9664163169498,800.5978515935726,793.7772445478655,771.6141336584101
1731140450.6069674,772.4219496723179,802.4928364256012,793.7128861779098,808.0060768038862
1731140450.6108613,797.6064055127706,802.8788211612577,793.6466072596846,845.0920161911406
1731140450.614351,812.5546210274881,801.6630010355019,793.5783605279003,874.1590530332551
1731140450.6147554,816.9673929889274,799.9795823883269,793.5084492625365,889.6584478217927
1731140450.6156278,816.5148166272992,798.9497778400763,793.4375761942213,892.1375467782682
1731140450.6186492,819.1494466412736,798.624070180583,793.3663773949637,887.6169197079163
1731140450.6203475,830.0050242236116,798.1453327330629,793.2944355198788,883.9914110037473
1731140450.622543,848.5995297326733,796.9485845227067,793.2195161617428,886.994894017357
1731140450.6264372,870.334521695207,795.7279312848585,793.1384333942613,898.1592216930467
1731140450.6303313,890.8244313739543,796.0515017760108,793.0504475112087,915.4375810686073
1731140450.6332004,909.2117702116991,798.8272307691868,792.9616149846839,935.3294070025552
1731140450.6342251,927.5807414803216,803.0715921775785,792.8850310938603,954.7886675001007
1731140450.6359365,947.2664402961944,806.3113144780896,792.8311665212353,972.0225428972665
1731140450.6381192,965.9079854692962,806.4297750417651,792.7892126412919,986.4045293644642
1731140450.6420133,978.4753592832121,803.3075388853015,792.7146504682753,998.0761478169419
1731140450.6459067,981.6621492398251,798.7472203542309,792.5494440269174,1007.4832340633216
1731140450.649801,977.6350896129595,794.8482425877472,792.2890080796483,1014.9025873595037
1731140450.6504967,973.4217790375475,792.4649770147189,792.0613473419345,1020.2044820410456
1731140450.6515255,975.941410857123,791.1118660300772,792.1216220488726,1023.114154105029
1731140450.6520495,986.5308582131516,790.0641131973057,792.664473722441,1023.7897382534557
1731140450.6536949,999.5453197678703,789.2618755675306,793.5055611298036,1023.1395419912055
1731140450.657589,1006.5838034002733,789.1303898994327,793.9420523385478,1022.5207923851655
1731140450.6614828,1003.340142358235,789.82251427922,793.144407616752,1023.0877417152266
1731140450.665377,993.5678568430243,790.9308205064867,790.9470805077235,1025.3719350067759
1731140450.6671145,986.5617524284319,791.8924932695514,788.28463446829,1029.3559449327533
1731140450.6692708,989.8485594219401,792.449949421415,786.6623989338867,1034.7871299269693
1731140450.670899,1003.0896345477482,792.6984375397634,787.0481037463127,1041.3818256467364
1731140450.6731648,1018.447097542475,792.8562113445399,789.2795208039587,1048.8778247560656
1731140450.6770587,1027.1508017573412,793.0680518877931,792.5473368448265,1057.0599953472977
1731140450.6809523,1026.5830905243502,793.3599522878621,796.2956414528704,1065.6924501043559
1731140450.682703,1021.8231794606214,793.6916615063236,800.4387224286482,1074.1813758864462
1731140450.6848466,1020.5676464289681,794.0199452337873,804.667149263071,1081.1436086871145
1731140450.6853657,1026.0778102590884,794.3274088635675,807.7653149234452,1084.4779308225454
1731140450.6887405,1034.236586887822,794.6186657314452,807.9324485328823,1082.3014605589033
1731140450.6897478,1036.9932483343457,794.9049148152931,804.0234464382394,1074.2338980315462
1731140450.6926346,1029.0618501762644,795.1931894820383,796.6261008440821,1061.9480166461763
1731140450.6965284,1012.290953195013,795.4843371000701,788.0150624218971,1048.4280719486248
1731140450.6982918,994.2969923091537,795.7760155870616,781.0312370189534,1036.495170360408
1731140450.7004223,982.6216756865629,796.0659746419582,777.7394845774484,1027.6427441684066
1731140450.7043164,979.075504972997,796.3534093137088,778.659791825619,1021.6802500128906
1731140450.7082105,978.627442910903,796.6386392117016,782.7802889376823,1016.9884980714276
1731140450.7085972,973.6332152013506,796.9222682796097,788.1282877943951,1011.1680517053271
1731140450.7121043,960.1068699186903,797.2046461609643,792.6106075528771,1002.134988486742
1731140450.7138803,941.1758694076038,797.4857959800307,794.8672694521983,989.4550355489056
1731140450.7159982,925.018384814054,797.7655884922198,794.8172596550772,975.0704632264737
1731140450.7198925,918.868044314399,798.0439142250207,793.5627916512541,962.6025649422836
1731140450.7202346,923.7649319063512,798.3207471096715,792.5953560696706,955.4747937622319
1731140450.723786,934.1430751892603,798.596119430463,792.7547633339741,955.1966084070037
1731140450.7274463,942.4794015954194,798.8700702266194,793.7134842739151,961.0568389880139
1731140450.7276802,945.1355800040818,799.1426121829336,794.4634593549238,971.2112486212777
1731140450.7294693,944.5142435049883,799.413732259369,794.4423420590965,983.9333096873402
1731140450.731574,945.694377376493,799.6834214240041,794.2618062620573,997.7687321990459
1731140450.735468,950.4927321971346,799.9517145137416,795.249108171675,1010.4973128943132
1731140450.739362,954.3819259046785,800.2187049770012,798.1122000778965,1018.1208076032445
1731140450.743256,949.453971735104,800.4844933639764,801.9635316013988,1015.3996491507451
1731140450.745058,931.3070333429594,800.7490635229212,804.7076031943628,998.3750691633859
1731140450.7462957,903.9870764816426,801.012170313919,804.5701047884085,967.5393940781041
1731140450.74715,878.4007564792828,801.2734141289478,801.4993630732135,929.2342209507052
1731140450.7510438,864.98407988284,801.5326391983753,797.2723472091002,893.5915466661621
1731140450.754938,866.2929515958655,801.7905055407821,794.2278724000245,869.7115855666207
1731140450.7551036,875.3870323867981,802.048634001081,793.6386757821626,861.0333303065191
1731140450.7588315,881.2259331199194,802.3085479218868,794.967680318674,863.9689731966655
1731140450.7606468,876.7393898253972,802.5693539557226,796.5339122507152,870.57121713895
1731140450.7627258,863.3559681497636,802.8258608335159,797.0324272331434,873.2093988902171
1731140450.7651446,848.866283224074,803.0704517942622,796.7125702117751,868.1866766475254
1731140450.7666197,840.7713094496337,803.3009685994236,797.2807769076069,856.449938422935
1731140450.7705138,840.5290529036373,803.5311227347071,800.5511839168647,841.7305649382121
1731140450.7744076,843.0580450878507,803.7916577373489,806.8007004831325,827.920197400526
1731140450.7762356,841.502279033773,804.1083232022714,814.0327796371485,817.400162982999
1731140450.7783017,833.053612976967,804.4579783371295,818.7865979793816,810.7934489890075
1731140450.7821956,820.928783461765,804.7378064338985,818.1299859450521,807.4005976635874
1731140450.783994,811.0132403167107,804.810342860689,811.625853086231,805.4687019961978
1731140450.7860897,806.3229689061902,804.6611450042794,801.8955106514965,802.342001577113
1731140450.7899723,804.266820372566,804.5946031605071,793.1788847531735,795.254878710768
1731140450.7899835,799.1520737644946,805.2500796126646,788.6824772711299,783.025345066461
1731140450.7918243,787.7541507540931,807.226536042032,788.5541145868092,767.5987916958995
1731140450.7938774,773.0644412512232,810.4273866046577,790.0689702123858,753.8254778654594
1731140450.7977717,762.7683535292023,813.6802199813498,790.0059614355506,746.9845630035344
1731140450.8016653,763.334940858361,815.1882925273546,787.3964948519142,749.5051701378342
1731140450.802843,774.2805834476438,813.7174452947525,784.389036164641,759.1825855321747
1731140450.8055594,787.284004964801,809.6672148623302,784.4453191331893,770.1266495580489
1731140450.807413,791.30232249757,805.0837817113877,789.3293957528492,775.8020799000005
1731140450.8094532,780.309291533463,802.4530611779306,797.4094971998203,772.4052789810652
1731140450.813347,758.0651777282189,803.1448695358642,804.6839757729932,760.8668367274419
1731140450.8172412,736.1541180573906,806.6745889045397,807.646007818216,746.4154246116138
1731140450.8211353,726.2867147346924,811.189040258851,805.6507163198052,735.6243395808536
1731140450.8216922,732.1718584142609,814.5796725526733,801.0153071018947,732.276021649622
1731140450.823002,746.8262514925858,815.3867750211848,796.9961178857632,734.6234047662176
1731140450.8248415,757.4640275826338,813.201055842246,795.3573613508491,736.3607853113281
1731140450.8250291,754.7191797019252,808.7503729601914,795.3463977706504,731.2713565614966
1731140450.828923,739.6623890866833,803.7552898217131,794.6859433070725,718.4887063563592
1731140450.8328173,723.2684487022857,800.3429092981072,791.6939737094153,704.1560068357599
1731140450.8367107,718.2121786307507,799.9702367795035,786.8731931901376,697.4724689000325
1731140450.8385906,728.7460861237141,802.3986189540955,782.7504257600208,703.4571726270509
1731140450.8405414,746.4695898288805,805.5845588374713,782.0795639954733,717.8965205499509
1731140450.840605,755.8431283623634,806.8769263709321,785.7936186624904,728.9934336402157
1731140450.8444989,745.805377380827,804.8926881574189,792.3165226164477,725.3444501529239
1731140450.848393,718.6506779678052,800.7255333034242,798.7734999810451,704.5904370879279
1731140450.8522868,688.9966467457092,797.4162362904292,803.0676535584316,675.9113079802469
1731140450.8541794,673.3388085265917,797.8211318325734,805.0517795925773,654.01545872784
1731140450.856181,678.2215603757287,802.3189199273208,805.8607224541752,649.0475365894481
1731140450.8593907,696.164051007883,808.1494842648348,806.2038048990017,660.1468308686334
1731140450.8597105,712.2418794781336,811.1279996824027,805.4058934547176,677.328950659755
1731140450.8600748,715.8019911716724,808.6460742949073,802.1998898991758,689.6230481502048
1731140450.8639686,707.9413748506552,801.6770589236868,796.4450740631928,692.7015328929938
1731140450.8678627,699.0785546936512,794.1006172017954,789.9343962866208,690.2767729380438
1731140450.869768,699.1689965653541,789.7945589175442,785.3411264585391,689.0686572485597
1731140450.8717566,709.1217497269943,789.8551016020207,784.2466911514123,692.3422368077806
1731140450.8756506,720.6597684807829,792.2145670092538,786.0992181572778,697.6072139438627
1731140450.87824,724.3230877579932,793.8137851472809,788.9446089934312,699.9092038355493
1731140450.8795445,718.2230120461995,793.2873075040394,791.0274134256282,697.1596934548747
1731140450.8834386,709.8019758508138,791.8590299666889,791.7737896865939,692.5141096061069
1731140450.8853571,709.3000797670367,791.9402367991482,791.615631932084,691.8366453461272
1731140450.8873324,720.8594958866279,794.944171916193,791.245315286799,698.7423415607409
1731140450.8912263,738.9152495142462,800.2330986093871,791.0741932175897,711.6127104922012
1731140450.8945794,752.6920801719158,805.8059806584812,791.1486884062557,724.9683019170734
1731140450.8951204,754.7893674131606,809.8064134199954,791.3335515548622,733.7525425132927
1731140450.897089,746.7100492627296,811.5443499569594,791.5013181592144,736.8351437434567
1731140450.8990142,737.0091931081537,811.4843523996633,791.6079583833582,737.0726017587642
1731140450.900946,733.9115256233923,810.5771001499179,791.6729616801367,738.3451378852685
1731140450.9029083,738.7068872178797,809.617716094433,791.7309905392283,742.3507370167963
1731140450.9068022,745.3948221761316,809.0087568770142,791.8015877907387,747.734882056787
1731140450.9106965,746.6304663147467,808.8590259964689,791.8855929149838,751.8648840958369
1731140450.91459,740.6054700378627,809.151061979379,791.9752846567183,753.3557889048108
1731140450.9159384,732.780403180567,809.8201725496413,792.0640883586816,753.1171201884248
1731140450.916535,730.9940731671777,810.7877841899368,792.1500314842547,753.227633693761
1731140450.9184842,738.2842296485012,812.016082963902,792.2343530833745,754.8376239574603
1731140450.922378,749.6608078718809,813.487090724311,792.3188992394436,756.981938287134
1731140450.9262722,755.6060046462421,814.9587130384633,792.4046241395023,757.301411590032
1731140450.9294484,749.4395467921286,815.6371320085701,792.4915029592444,754.0912006502464
1731140450.930166,732.6378250556878,814.2502417678893,792.5791060183187,748.0535792424057
1731140450.9321234,713.9846060356233,809.8466549158045,792.6670984189473,742.3297217950518
1731140450.93406,703.3244644257743,802.8950234068503,792.7553954686014,740.638510778039
1731140450.9347875,704.780333335487,795.6470118584355,792.8440730402953,744.7888960317005
1731140450.937954,714.5793013648748,791.0888064389243,792.9332286116509,753.4100561011788
1731140450.9418478,724.9793831068924,791.0386812013166,793.022907934248,762.9140940698525
1731140450.945742,730.9546398379254,794.9021600548095,793.1131057340585,769.976246807976
1731140450.9477122,734.0831650512139,800.200972912108,793.2037977965861,773.5911870142747
1731140450.9496355,740.4419869288274,804.4713946473075,793.2949664958287,775.1704216906356
1731140450.9535298,754.3941371715174,806.9015905650458,793.3866075554716,776.8261759079357
1731140450.9536366,773.633760460064,808.3449247440434,793.4787245201902,779.3821404364284
1731140450.9574237,789.8086538453435,809.8597023746408,793.5713214008221,781.6496677356646
1731140450.9613178,794.4805909336048,811.2579507601732,793.6643991323203,781.4187867847098
1731140450.9633007,785.8658815884473,811.0846210188432,793.7579558856213,777.4207535656035
1731140450.964317,770.9809245210463,808.0818565416877,793.8519888416785,770.8316261065111
1731140450.9652116,761.0738107905328,802.7620081665515,793.946495483923,764.9733004077568
1731140450.9691055,763.3377786908318,797.5192083508203,794.0414738737295,762.9829241957985
1731140450.9724858,775.2182260454643,795.0006945982132,794.1369223174097,765.0303450628783
1731140450.9729996,786.2650330582936,796.1289953642333,794.2328389884402,767.6658755723686
1731140450.9768934,786.7345887069738,799.6089723047193,794.3292217825172,766.5315876746837
1731140450.9788897,776.1936354031068,803.3871129673876,794.4260683745439,760.5430754569009
1731140450.9807875,764.5884002137517,806.5931621100285,794.5233763121797,753.6926483371018
1731140450.9846814,764.2158853333339,809.9821161650003,794.6211430145142,752.2838814296399
1731140450.9885757,779.0860377512105,814.4339877735317,794.7193656687332,759.5828484378459
1731140450.9913352,800.924129078027,819.1059988104614,794.8180411542077,772.5800962094975
1731140450.9924693,815.5660721898371,821.2583819842748,794.917166184433,783.9725997280067
1731140450.9944785,814.476304258963,818.1773149243494,795.0167377372215,787.9226599837567
1731140450.9963634,801.6587748304486,809.6043772559257,795.1167535034572,784.8001848403495
1731140450.9991865,790.1907995467532,798.5330210838338,795.217211712527,780.9289415910366
1731140451.0002573,791.3495273806232,789.5626086319356,795.3181097636804,783.5126323456614
1731140451.004151,805.3463171920353,786.0007247080293,795.4194420793305,794.8393962430115
1731140451.0080452,821.1938466840726,787.9109962887851,795.5211992788571,810.3891610867967
1731140451.0100672,825.6742394522003,792.5322279383305,795.6233716321387,822.28415186902
1731140451.0101843,814.0203203221822,796.610769282956,795.7259574537161,825.248659994565
1731140451.011939,793.7022733240232,798.7434139464434,795.8289707928685,820.3248943086204
1731140451.0158331,778.4810205553324,799.9673660387616,795.9324363116535,813.5506049320654
1731140451.019727,777.7796510776802,802.3487118736676,796.0363618072837,810.95521337934
1731140451.023621,789.9282771407155,806.8907447943083,796.1406986737995,814.0562781791936
1731140451.025656,804.280344610281,812.4550273785519,796.2453317855955,819.2589323217229
1731140451.0275147,809.8962663656417,816.4146552213255,796.3501525369777,821.1502112338954
1731140451.0290334,803.6352679404288,816.3955471570109,796.4552191493609,816.760919889592
1731140451.031409,791.6772640138022,811.8005972450169,796.5608868907958,807.6417383896954
1731140451.0340552,784.0465313170882,804.1645997855979,796.6676787267576,798.6364540522438
1731140451.0353029,786.8969943073354,796.2609777411042,796.7757392594552,794.5776720601594
1731140451.039197,798.4724432021621,790.6195669627382,796.88411034075,797.2773274602383
1731140451.0412447,811.4317087754793,788.3688727953872,796.9906367006218,804.7602789195433
1731140451.0430908,819.2297376464494,789.0350537950458,797.0934494525443,813.0918728909618
1731140451.046985,821.1771919560783,791.2730230284834,797.1938868921075,819.33678383257
1731140451.0478826,822.0759695858425,793.8787054723123,797.2982759581216,823.4163183018203
1731140451.0508788,827.0458917157051,796.32712786911,797.4137432349736,827.5650617888512
1731140451.0547726,836.3441579419941,798.6033802424719,797.5339790918247,833.9961532326568
1731140451.0568335,844.8566980530426,800.7347339325364,797.6154128897621,842.6874306912042
1731140451.0586667,846.5974084596841,802.5649570694981,797.5505300755493,850.9408895012643
1731140451.0625606,840.0509864092509,803.8983023542053,797.156138369187,854.9646909186974
1731140451.0664546,829.6506245523077,804.729291751327,796.2143861267988,852.3437489210306
1731140451.066732,822.3181391549755,805.2889677104451,794.6122266645,843.7659023643612
1731140451.0689242,822.2396214885894,805.9247970818562,792.5707377788517,832.8985704484717
1731140451.0703485,828.2194057247341,806.9835119356845,790.8209161372247,824.4595981408238
1731140451.0724225,835.4745816367649,808.7594266967877,790.4769879706355,821.6349618758007
1731140451.0742426,840.030876557082,811.4186487196888,792.4860989840009,824.4206975204061
1731140451.0781364,841.9222233661468,814.8237017630673,796.9141735823004,829.8947890252508
1731140451.0820303,844.5084231089827,818.3403941111701,802.6132586382182,834.1537545096025
1731140451.0855813,850.4809961800316,820.8315309533293,807.6275687964393,834.5423331999373
1731140451.0859244,858.0349617646813,820.9978122253099,810.1379287782341,830.7222796723773
1731140451.088011,860.8265612650131,818.0156447552341,809.3370097910181,824.1357553424607
1731140451.0898182,852.3230029350331,812.1522585725588,805.712456143557,816.6354116722663
1731140451.0937123,831.3276888314934,804.903113289085,800.6438825980674,809.4676278001878
1731140451.0976062,804.1709889845396,798.4010206146548,795.6338043460073,803.2289470128229
1731140451.1015005,781.5501251493573,794.3689850537995,791.6600195142673,798.5188674820732
1731140451.1035998,772.1417421543249,793.3169450840929,788.9904315158917,796.4892989900128
1731140451.1037931,777.4319770461618,794.5408345568005,787.429419518175,798.6048686921207
1731140451.1044302,791.1701468205905,796.8247039902047,786.6636277568266,805.5816524735293
1731140451.105394,803.6876232046459,799.2069626336224,786.4283412618441,816.2867853862485
1731140451.1092882,808.2393124798966,801.2687114652124,786.5069483714933,827.6831369507597
1731140451.113182,805.1370447416466,802.947727730346,786.7177192381813,836.198189131396
1731140451.117076,800.6629408609837,804.2512347300175,786.9394662086936,839.6421477473469
1731140451.1191883,801.3995028059189,805.1283937921231,787.12617257543,838.2303554370212
1731140451.12097,808.4366165447165,805.4632209130862,787.2842463527032,834.0311595710612
1731140451.123279,816.4692208703168,805.0756367141779,787.4358168431246,829.4847221427096
1731140451.124864,818.8270164504282,803.7665925218784,787.5950306087897,826.2116328903342
1731140451.128758,814.0609471230558,801.4847948179792,787.7634668378837,824.7665426372789
1731140451.1326518,807.9039030627001,798.5121272563105,787.9362195278454,825.0406190337811
1731140451.1347775,808.3206978179091,795.4415886170294,788.1086290215873,826.606814632775
1731140451.136546,817.7334039005109,792.9066383799023,788.2790426335021,828.6953904236278
1731140451.138662,829.5537368028,791.3277383105976,788.4481292787884,830.1653448484318
1731140451.1404395,832.8296331196264,790.9508873266512,788.61713656041,830.0056947275249
1731140451.1421287,821.723136172556,792.0800363912889,788.7867808773124,828.2752931791932
1731140451.1443338,801.7979012489451,795.0769605931947,788.9571026795106,826.6052095482727
1731140451.1482277,787.1009557493945,799.8771164591301,789.1278268226355,827.4186910729054
1731140451.1503663,789.5391957947832,805.3666300138085,789.2987146511429,832.0748935597036
1731140451.1521215,808.8993924606077,809.368388243431,789.4696922815713,839.2791343293281
1731140451.1560156,831.950105246065,809.6557800001532,789.6408024757936,845.1624096979272
1731140451.1599095,841.8620760485559,805.4985000095019,789.812111210119,845.2509827740864
1731140451.1609778,830.6597735364072,798.5546514402105,789.9836541282185,837.1273087343426
1731140451.1638036,804.9403109641413,792.2046707065101,790.1554343813418,822.0723762674928
1731140451.1659553,780.7048845005079,789.5849681436724,790.3274431054916,804.6445015714585
1731140451.1676974,771.7984302289307,791.6685099694382,790.4996735082634,790.4068725610024
1731140451.1715915,780.9178916202934,796.7791991994336,790.6721190419167,783.1175878085993
1731140451.1735313,799.3724985918282,801.8411167779525,790.8447654401139,783.081600784919
1731140451.1754854,814.7271216584031,804.3722191607835,791.0175944284788,787.6804382167552
1731140451.1793797,819.8548711302477,803.8059113966178,791.1906086359714,793.5518106696672
1731140451.179827,816.6611154315739,801.4148123174214,791.3638629824271,798.6086792752095
1731140451.1815438,812.4573170926734,799.1998485738407,791.5374604044333,802.3491868703985
1731140451.1832733,812.7656521517047,798.6759794380077,791.7114695686711,804.6506745355241
1731140451.1871674,816.7694176423407,800.2551086774272,791.885781881916,804.7483965670683
1731140451.1910613,818.9529790199316,803.3312135019142,792.0600366187446,801.7473881891609
1731140451.194955,815.0334004560249,806.7673511711242,792.2338140514765,796.1664438697027
1731140451.1971326,806.6832835404493,809.4450552688184,792.407171251674,790.6962227184918
1731140451.198676,800.8042677028477,810.684048297052,792.5811958642847,788.995627758577
1731140451.1988492,803.9846769417076,810.4552117538894,792.7577964150826,793.2426853966605
1731140451.2027433,816.8973929323985,809.3420718680195,792.9380211710039,802.3748475586815
1731140451.2066371,833.2948119990268,808.243499968901,793.1193976030754,812.4336408288983
1731140451.2084,844.3287377681149,807.922722020438,793.2948610892115,818.8117545882101
1731140451.210531,844.6939882567133,808.6341591267461,793.456938923288,818.9110098517784
1731140451.212721,835.931491713883,810.0529966595963,793.6080803147222,813.6082257285265
1731140451.214425,824.6821944415724,811.5334128376775,793.770273569451,806.792057551187
1731140451.2175255,817.541500414545,812.476212364819,793.9790398269835,803.3317087435424
1731140451.2183187,816.5181149627176,812.5345233489069,794.2498569787817,806.5834696362434
1731140451.222213,818.4090607687036,811.5915258205604,794.5293966205286,816.7141813187097
1731140451.226107,818.2890249244979,809.6841606816496,794.6827631802305,830.686511515605
1731140451.22831,814.0993935226148,807.0466108632723,794.5844239684038,843.853576233275
1731140451.2300007,808.5202317616673,804.2181735908838,794.3224413764401,852.2295981644886
1731140451.2338948,806.6375550015466,802.0012424261629,794.3824777188624,854.2118420241804
1731140451.2363746,811.4587319520239,801.178224896987,795.5574375471019,850.9450724194014
1731140451.237789,821.0709024972566,802.1499484802654,798.435795240048,845.2611075336397
1731140451.2416828,829.8033942428793,804.7321024717703,802.7138938613609,839.8254236722333
1731140451.243269,832.5056973356347,808.1859215460742,806.9274504354102,835.6047405388184
1731140451.2438989,828.6329352597454,811.4132522335258,809.0521907627049,831.7277395298919
1731140451.2455766,822.9554252290765,813.2779584920661,807.7677521261044,826.9195251109203
1731140451.2494707,822.1567089867347,813.0551367892381,803.5331330383998,821.3318718292782
1731140451.2533646,829.6440175406649,810.8476281962821,798.5720272404349,816.9958504435449
1731140451.2552238,842.4643762153439,807.6163174377285,795.5708664082779,816.2054020677311
1731140451.257259,852.994350527013,804.6381833096654,795.8988907012384,819.1892808880187
1731140451.2594876,854.5447600115237,802.7286578743332,798.6550270345275,823.4176610446603
1731140451.2611525,846.6559597740377,801.8784151759359,801.3108652146741,825.5164753834764
1731140451.2650464,835.6171579840453,801.6042311402746,801.4892965181535,824.1482357954419
1731140451.2689404,829.4219904564701,801.6023584431249,798.5187209829112,821.0646997640505
1731140451.2728343,831.1815462588642,801.9930877794349,793.6428051026909,819.234588771095
1731140451.274073,836.6151909016435,802.8996502665153,788.9286729018107,819.8528627314357
1731140451.2750764,837.8920781180476,803.8375417541313,785.9176500072256,821.1463190179584
1731140451.2767284,830.613781883279,803.6451250361977,785.02076076897,820.1070672632279
1731140451.2781382,817.939838681766,801.2055158682937,785.778767328612,815.480715319931
1731140451.2806222,808.2135930074918,796.4445784640972,787.3828267259008,809.2204170557242
1731140451.2845163,807.9656306290067,790.7475261346686,788.9567701895779,805.072205786085
1731140451.2884102,816.1931608074839,786.3472127963728,789.6998678829475,805.5006127921322
1731140451.2906651,824.8593427432634,785.0611313829133,789.2350749414395,809.5634050060323
1731140451.2923045,825.3327796700788,787.2744151669997,788.0866279238649,813.5310306172495
1731140451.2929225,815.4463433992833,791.8473136630078,787.7099317622894,813.7950219173089
1731140451.296198,801.3470391540664,796.9078901769421,789.6821835744846,809.7530496265113
1731140451.300092,792.6987553972205,800.8988346381674,794.4889365691639,804.3435457874929
1731140451.303986,795.2396110535726,803.1827322785166,800.9120762651572,801.7411815949756
1731140451.306254,806.6505931184814,803.9110419291061,806.6299647435206,803.9920479103117
1731140451.30788,818.7664858280306,803.4112289893368,809.6245815643839,809.2610793209607
1731140451.3117714,823.9645942614189,801.6968941066617,809.3421168877107,813.119935830175
1731140451.311774,820.3798211479808,798.5933881472486,806.8066399739503,811.8801466064336
1731140451.313007,812.0025410213204,794.4068862463772,803.7133791351467,805.3472228744455
1731140451.315668,804.4530647756644,790.4725688744659,801.255837894243,796.9009263238752
1731140451.319562,800.7785469339357,788.8629610786287,799.5930866448664,791.0446069976579
1731140451.321843,800.5472165287399,791.1775827454987,798.3217822632382,790.5682798959117
1731140451.3234558,801.6904018988063,797.1947987524967,797.4236106966584,795.5049545563083
1731140451.32735,802.5499930647715,804.5101266879489,797.6684488875713,804.2152823095906
1731140451.3306203,802.6223548320168,809.722192500566,799.9312024090781,815.0390085933069
1731140451.3312438,802.1958604935548,810.567096941014,803.982122394277,826.7911856536747
1731140451.3351376,801.712942434611,807.5144535870468,807.9686885731752,837.9556080329614
1731140451.3374314,801.4037581425277,803.5386069165796,809.3086745870879,845.9871765295037
1731140451.3390317,801.2627091218401,802.0782671512505,806.4608324992736,848.0063937199112
1731140451.3429255,801.1860906975868,804.6171546414056,800.1680067822358,842.5344063529702
1731140451.3468196,801.0926968255438,809.6552073428791,793.092184571434,830.625855745482
1731140451.347876,800.961644892061,813.7875611624773,788.0507529602564,815.2702478676207
1731140451.34947,800.8109542948922,814.0547255934883,786.2267789957614,799.6610075334899
1731140451.3507135,800.6640342873028,809.9000061765234,786.7502815251806,785.9425410053717
1731140451.3530202,800.5319114854135,803.4744000254414,787.8945617513514,775.3092076857579
1731140451.3546076,800.413327116893,798.2084104553987,788.7790260736382,768.7933281563335
1731140451.3585014,800.3024545610722,796.6583065879247,790.0690461865728,767.4385384145527
1731140451.3623955,800.1950695168468,798.9903234367847,793.070765575169,771.3925082713658
1731140451.3662894,800.0901976315936,802.9775729022098,798.064709620077,778.8003205977632
1731140451.368319,799.9887860431453,805.431270049642,803.4187626524388,785.8429844852461
1731140451.3686092,799.8919257163317,804.1519653525332,806.329768990924,788.3772318914342
1731140451.3701832,799.7999976708005,799.2079811069001,804.6263221558348,784.2229104093836
1731140451.374077,799.7127617282971,792.7713162651593,798.2322291790817,774.5157847744829
1731140451.3779712,799.6298029101807,787.6798484052005,789.2882312556752,763.234879576151
1731140451.3818653,799.5508399115843,785.7805033029714,781.0237087538675,755.3174062723457
1731140451.382745,799.475739244838,787.2139998997463,776.240659361495,754.5106864896874
1731140451.384198,799.4043445245622,790.9344915312881,776.2247247140723,761.8649286801208
1731140451.385759,799.3363387669775,795.6891562970042,780.3753362622994,775.2087546581648
1731140451.3871682,799.2713330823249,800.4794203559633,786.484346492206,789.7991762814785
1731140451.3896532,799.2092201487275,804.3465709534141,791.5772640977366,800.3353223540277
1731140451.3935473,799.1505446551722,806.1962418128404,793.198093521995,803.8518214449933
1731140451.3974411,799.0963633903413,805.296508054557,790.6823351106875,801.7973125831095
1731140451.3997867,799.0471489789597,802.1527355846775,785.638880123087,799.3391785283478
1731140451.401335,799.001089463829,798.7530381428148,781.1243345898571,801.7169951441351
1731140451.405229,798.9534643169851,797.5606774798226,779.8749493349067,810.1485776494591
1731140451.4060173,798.8994284470153,799.8251552797751,782.7499395778055,820.6942110296942
1731140451.4091227,798.84067089297,804.6072267403224,788.4658833672619,827.2851784379523
1731140451.4130168,798.7914042660531,809.4516288941968,794.7333787390547,826.5730958878213
1731140451.4153757,798.7740899537245,812.2168983255746,799.8281552229575,820.598135499236
1731140451.416911,798.7974984829272,812.5087337964555,803.3579029979627,815.0670896131661
1731140451.417614,798.8255649135975,811.5150694808711,805.7586394261859,814.7083214868467
1731140451.4208047,798.7700971939216,810.515320563177,807.1850213612946,819.5511664541252
1731140451.4246988,798.5495584472429,809.5410916793422,806.9399996703877,825.0977711230582
1731140451.424867,798.2160577126187,807.4598333082499,804.0156495853668,826.0656280425324
1731140451.4285927,798.056230044565,803.3502088507441,798.2477833868402,820.5066282232831
1731140451.4309642,798.4841230089631,797.7888991734485,790.9982295343049,811.015618101422
1731140451.4324868,799.6040505257595,792.7655382418353,784.6757575686935,802.358862640794
1731140451.4363806,800.635434213468,790.2814595897498,781.411230387663,797.8321310760226
1731140451.4402747,799.8352559813852,790.9522336443873,781.9145150612065,797.4590337101757
1731140451.4437158,795.6374153820523,793.8694380565154,785.3388182215324,799.2154194196107
1731140451.4441686,788.8022911009427,797.6745583787963,790.0876297700302,801.6714587521578
1731140451.446553,783.6119176034329,801.6331379535669,794.7772625569055,805.3353810042641
1731140451.4480624,785.6950549331109,805.6714174697285,798.6472786225985,811.4874410284598
1731140451.4519565,797.0274719992148,809.573940882812,801.3799461567487,819.8722074071168
1731140451.4524827,812.6300588271979,812.4362641803624,802.7936097901905,827.7601933683587
1731140451.4558504,823.0960839259869,813.0911841828913,802.7714300856774,831.527552346729
1731140451.4597445,821.6689172324371,811.0981061006773,801.3553987284229,829.4130369528473
1731140451.4621418,809.8466374470457,807.2734024996151,798.7404663862576,822.9377759289937
1731140451.4625647,796.4014977527243,803.2296750934084,795.1221902815213,815.7279134756473
1731140451.4636383,790.3778817605092,800.3601659589534,790.636745331384,810.8909589464714
1731140451.4675324,793.8979475618123,799.1383770649238,785.5792637433808,809.3063649842798
1731140451.4714262,800.864784528762,799.18154925074,780.7216243921321,810.0922987637845
1731140451.4753203,802.654745457295,799.8073491869438,777.3109600020387,812.3108435740766
1731140451.4777305,795.8876971154209,800.5146998916454,776.555608319903,815.9302797605638
1731140451.4792142,785.5697857018326,801.0970081060555,778.910687012675,821.1490302157541
1731140451.481414,780.9225458901815,801.5165481635148,783.7269936460419,827.1083328224962
1731140451.483108,787.4993739929643,801.7872087837029,789.5476626992843,831.6708445170519
1731140451.487002,802.242893702523,801.9443802399716,794.8097577050772,832.701876902497
1731140451.487352,815.4931453799554,802.0399544177218,798.4387924077051,829.6295206252535
1731140451.490896,818.1857818464488,802.1217579350374,800.0207581972126,823.8097791980465
1731140451.4933193,808.5152728624257,802.214855671896,799.6559978228329,817.532217178458
1731140451.49479,793.0993552151556,802.3217570798633,797.8187487056816,812.7896945762179
1731140451.498684,782.0565655516164,802.4346543278077,795.3643042339085,810.7998933650914
1731140451.5002637,781.8113700926214,802.5464971484613,793.4728544562394,812.0774743099104
1731140451.502578,790.8213626115173,802.6550742108853,793.2427410945769,816.2079131144891
1731140451.506472,801.1363532230545,802.7616769948042,795.008203876562,821.2049254793586
1731140451.508908,804.4928714945303,802.8683150240728,797.8917544661895,823.4817691925779
1731140451.510366,798.4165990117498,802.9760630921139,800.0888002645635,819.4075500952179
1731140451.5142598,787.8436539546253,803.0849324618752,799.8449133549716,807.8682032452729
1731140451.5181537,781.1424344307345,803.1944790461573,796.5026164757,791.7833066094753
1731140451.5191126,783.6436389244519,803.3043488003929,790.905545449123,776.9161833020063
1731140451.5220478,793.6165269980169,803.414455608397,784.9287406530489,768.4936000777609
1731140451.5222208,803.6766003891436,803.5248904013871,780.5264462801196,768.1326805684778
1731140451.5244968,806.454990806208,803.6357718730354,778.9391526406677,773.4328343258165
1731140451.5259416,800.1796561002993,803.74716527836,780.4313439053861,780.400624228858
1731140451.5298357,789.9361245808105,803.8590803124196,784.4533622315496,786.58850409582
1731140451.5337296,783.672453682542,803.9715027929682,789.8903950478798,792.4044458509542
1731140451.5376236,786.0482491054852,804.0844203841317,795.2478569215514,799.7480616795107
1731140451.5379615,794.9223043434234,804.1978319001486,798.9531650933022,809.42373924724
1731140451.5400856,803.2318311344989,804.3117494892704,799.9786951547374,819.7393688950638
1731140451.5415175,804.7621581918382,804.4262020050891,798.5700538682664,827.5698043641213
1731140451.5454116,799.1932499139091,804.5412339058013,796.4278969856896,830.953255198419
1731140451.5493054,792.3547950720879,804.656884469325,795.865792516019,830.9045928566474
1731140451.5531993,791.4460215010228,804.7731436662542,798.3041263946262,830.7639304192452
1731140451.5556743,799.041714146986,804.8899162966947,803.1950067024603,833.4954080085213
1731140451.5568109,810.7275636961848,805.0070595484754,808.2812810663916,839.107797356369
1731140451.5570898,818.33466809819,805.1245391066604,811.0442409288479,844.3273066122124
1731140451.5570934,816.2498453697486,805.2426351282114,810.2332796074095,844.8896284315639
1731140451.5609872,805.7415274855838,805.361964593533,806.3609648141651,838.757666915537
1731140451.564881,793.7607453119805,805.4830433614736,800.9695923342183,827.8163758665188
1731140451.5687752,787.1894921471363,805.6054135714197,795.4907045371989,816.7561304822052
1731140451.5712633,787.3836050784034,805.7270282338767,790.7204959969118,810.0581508944779
1731140451.5726693,789.683843749059,805.8451288996135,787.1668467319847,809.4417609466532
1731140451.5756602,788.2524604747917,805.9593212452971,785.575289714562,813.5725527180474
1731140451.5765631,781.8353984846167,806.075293151778,786.7988200617692,819.8000154170585
1731140451.5804572,775.1912489671599,806.2046222266682,790.9867557083493,826.1122322156664
1731140451.5843513,774.8442969843055,806.3557638990669,796.9393565424942,831.7643769396661
1731140451.5868518,782.957898464841,806.5176177776649,802.4393238304782,836.6326680913043
1731140451.5882452,794.8082740087752,806.6497055923578,805.457260547944,840.4963028903646
1731140451.5919588,802.1492070945328,806.7019757399163,805.3017573491861,843.1055213745735
1731140451.592139,799.6858980551136,806.674641615166,802.8501656978206,844.7177060969173
1731140451.5945094,789.3306743005246,806.6838540301966,799.7853082850211,846.1910963153741
1731140451.5960329,778.8209039806795,806.9444969894249,797.4780638638812,848.2751710974497
1731140451.5999267,775.8268006020407,807.5821559131515,796.2645756859689,850.6959951135693
1731140451.6024406,782.1753073561546,808.311693997006,795.480235781497,851.9586979144269
1731140451.6038208,792.6348352262379,808.2441410223441,794.1333261657849,850.2033221404954
1731140451.607715,799.0941607644236,806.1848529597511,791.7791624006642,844.5433531679452
1731140451.6116087,796.7646246778904,801.4774595476274,789.040514542656,835.8555514439112
1731140451.6133585,787.532959150511,794.8606784325623,787.3634896740848,826.3311321734315
1731140451.6155028,777.9839844601494,788.5758179442042,788.0618709756776,818.0322409799332
1731140451.6180296,773.9372193001351,785.423251909108,791.294705596202,811.5440573051264
1731140451.6193967,776.0347231905754,787.2068418255477,795.8198084852799,805.8081747393026
1731140451.6232908,779.8303503078581,793.4909981237282,799.7999891178558,799.2407956224694
1731140451.6268277,780.0205582439582,801.5530177703895,802.0016536340281,791.1361162401178
1731140451.6271846,775.1379950808007,807.7557119172292,802.3834956070515,782.1980860235462
1731140451.6310785,768.8064904590884,809.5952606195281,801.7353823106478,773.914977663507
1731140451.6322076,766.5528743736496,807.1126821305086,800.9102331389412,767.4248826577434
1731140451.6336184,770.8442154186689,802.711674092059,800.3414772412243,762.7077059966457
1731140451.6349726,778.604803214834,799.4902611259226,800.0409323398816,758.5546286798551
1731140451.6388664,783.6075863091231,799.2094947493358,799.8414028402483,753.3739310679982
1731140451.6427605,782.0515716447132,801.2870273600925,799.6063301939669,746.5450659573402
1731140451.6466544,776.5719954078721,803.5156338095396,799.2986570931798,739.5244004572706
1731140451.649207,774.7929296372962,803.973609190839,798.9475709704665,735.630457197362
1731140451.6505485,783.0972839861001,802.6625240873167,798.5925952667683,738.1438900895721
1731140451.651057,800.7439326199619,801.5579354869443,798.2530279626803,747.8484984120671
1731140451.6544423,819.5958230240208,803.0054844541954,797.9274195701538,761.966312489338
1731140451.6583364,830.0679035153997,807.7680798745415,797.606304842434,775.4960740505215
1731140451.661697,828.4909458404634,814.3188426621074,797.2826812348269,783.9903223967335
1731140451.6622305,819.7817570081071,819.8867765830739,796.9549732702176,785.7040385067938
1731140451.664796,813.2675579625871,822.2855737950986,796.6249154758124,781.7961732913504
1731140451.666124,815.1901945042891,821.030872260568,796.2945741628544,774.9611296721707
1731140451.669906,823.9614240304738,817.0670089029664,795.9648599768717,767.8537151951188
1731140451.6700182,831.7848434261335,811.700931231323,795.635610646953,762.2653369621004
1731140451.673912,831.129810858261,805.8724440560843,795.3062970271105,759.0011413471107
1731140451.677806,820.8698966403069,800.2993387211263,794.976556033784,757.9963914280968
1731140451.6803846,807.3174472793371,796.0203595107505,794.6463162726416,758.5478174502657
1731140451.6817,799.3925837486617,794.44014481559,794.3156699326233,759.7452391464548
1731140451.685594,801.7285457469504,796.5467442600761,793.9847151532376,760.9270106627534
1731140451.6887553,811.1958132010449,801.9379593068076,793.6534836288598,761.858475433806
1731140451.689488,819.6961597223502,808.6546112323408,793.3219502216518,762.6048401222554
1731140451.693382,820.9882817763624,814.1555076782635,792.9900733960749,763.3096395614859
1731140451.6959734,815.8214020901489,816.7165154198901,792.657826282571,764.0572309142879
1731140451.6965656,810.8926510205586,816.1579633203726,792.3252055933684,764.8528333083444
1731140451.697276,812.3938328936697,813.4601536042148,791.9922217133352,765.6641035582342
1731140451.7011695,819.7968293173268,809.8091167023763,791.6588769035156,766.4627092538362
1731140451.7050638,825.6158931204666,805.9615515382943,791.3251420038833,767.2397702961674
1731140451.7076044,821.7687205782372,802.3160656463787,790.9909515419497,768.0003699746875
1731140451.7089577,807.1657989718198,799.3478700841705,790.656241520773,768.7524829759453
1731140451.7115622,789.7157158201655,797.8009824279314,790.3210308810307,769.5004164322272
1731140451.7128518,780.5984640592239,798.364625430505,789.9854887189105,770.2442872069859
1731140451.7167456,785.4297041985093,801.097048172508,789.6498730171295,770.9824196851758
1731140451.7206397,799.7298355231028,805.1280572687637,789.3142603188601,771.7135005426175
1731140451.7245336,812.383923202006,808.9633791459273,788.9781816307741,772.4372828756092
1731140451.7264538,813.9747189296747,811.200550529953,788.6405688217923,773.154227063624
1731140451.727151,803.1151084552168,811.0997673815058,788.3005009999791,773.8649088205765
1731140451.7284276,786.2031519465772,808.6164901718231,787.9587271630013,774.5696960794421
1731140451.7314346,771.7964736806483,804.0801828242835,787.6187818985787,775.2687418752867
1731140451.7323215,764.7923253591002,798.0764968570614,787.2855336043912,775.9621169559454
1731140451.7362154,764.6883233000028,791.7628248536587,786.9598731478545,776.649921846221
1731140451.7401094,767.9427741046311,787.1094585651621,786.6321543047867,777.3323254470357
1731140451.7427397,771.2992238443661,786.3144410000114,786.2822969400397,778.0095526790587
1731140451.7440033,773.4137663592488,790.38557393335,785.8953373246158,778.681854174663
1731140451.745303,774.5247727337058,797.9604143016123,785.490606861606,779.3494689840368
1731140451.7478974,775.3760063985388,805.6093163628415,785.1411099712727,780.0125821277927
1731140451.7517912,776.4554323065665,809.736851872439,784.9447272296328,780.671301014159
1731140451.755685,777.8335468121892,808.7793550662497,784.9338037936443,781.3257035850403
1731140451.7583284,779.3565805031592,804.0794173858861,784.999287402976,781.9759912811054
1731140451.7595792,780.8702688861616,798.8783762198477,784.9991190439218,782.6226725077681
1731140451.7634733,782.3165377550268,796.2677028042148,785.1097449423852,783.2665540385759
1731140451.764152,783.7150203767703,797.5113438114697,786.0871894670508,783.9082970049392
1731140451.7663035,785.1065784149772,801.6655606741404,788.9055252538109,784.5476027232305
1731140451.7673671,786.5157672481699,806.4874158549846,793.7900583261664,785.1827190645964
1731140451.771261,787.9448926734607,809.9045881444328,799.5267722836952,785.8114096404363
1731140451.7739172,789.3853587410723,811.1169232043086,803.9548023910919,786.4339175438282
1731140451.7751553,790.8293566187579,810.7259907282084,805.4470506241406,787.0562612577916
1731140451.7790487,792.2743952585319,809.9586918116131,804.1011716982072,787.6895118668103
1731140451.782943,793.7219226388933,809.6496450980812,801.5418373738181,788.3407705813404
1731140451.7830014,795.1742676406114,809.7223853542465,799.5300973385536,788.9979510303249
1731140451.7868369,796.6327732281026,809.4165962087061,798.6466269884518,789.6222659598328
1731140451.789506,798.0976143391472,807.9275996777574,798.1467645737002,790.1695489788299
1731140451.790731,799.5684598191749,804.9559242057652,796.9716688201677,790.6476319663498
1731140451.7946248,801.0450804920051,800.9073221528389,794.9438670578417,791.1740917172604
1731140451.798519,802.5275340664363,796.7609646719518,793.1337062612688,791.9505832537751
1731140451.8011725,804.0160220544686,793.7090890113167,793.1250749358056,793.0794170352805
1731140451.8018506,805.5106844722003,792.6706033542307,795.756115143884,794.2766649722319
1731140451.8024127,807.0115471691975,793.8447736300086,800.2672211242527,794.7520981195182
1731140451.8050947,808.518688030924,796.5473262444638,804.4886835178429,793.622589286131
1731140451.8063068,810.0324998629244,799.5016977775,805.9908990804878,790.8758260081329
1731140451.8102007,811.5537498337283,801.5051941021013,803.4729478587847,788.1061104963151
1731140451.8140943,813.0831153647815,802.104859863512,797.5178329901448,787.9184686216643
1731140451.8179886,814.6202255278719,801.822673586328,790.2899584724057,792.016738191039
1731140451.8206837,816.1629692302084,801.6927937981428,784.4285051217404,799.5927004674104
1731140451.8206997,817.7084277695056,802.3445873015647,781.7972347892363,807.5809346156467
1731140451.8218825,819.2562189758168,803.2930199864289,782.7125421729913,812.5764481869788
1731140451.8257766,820.8125817623785,803.0927751710644,785.9729476462479,812.8308417937983
1731140451.8296704,822.3902432815404,800.4139610691751,789.6427950014006,808.980224948247
1731140451.8335643,823.9986685538868,795.2874858001793,792.1601985435536,803.3227597151704
1731140451.8360417,825.6261086744233,789.4837746928754,793.101839941134,798.3929217700247
1731140451.8362722,827.2286580687918,785.5983713868435,793.1232488253188,795.7792153631577
1731140451.8374584,828.7515025825974,785.4473576514839,793.2075295866965,795.7567900537528
1731140451.8395488,830.1941007466482,788.9338942479084,793.9074860080087,797.7408700597787
1731140451.8413525,831.6826046986994,794.1912957436731,795.1960553141608,801.1260569984896
1731140451.8452463,833.4531749116676,798.8553287881459,796.8768490141983,805.9072046948096
1731140451.8491402,835.6501757383664,801.4852024212208,798.9345408842721,812.6191815827781
1731140451.8518612,837.9806912948047,802.102626500027,801.3496760829586,821.5761330839407
1731140451.8530345,839.5174423948496,801.6514714977498,803.6022588920401,831.9740278356957
1731140451.856928,839.0733161785109,801.0835875259527,804.541872401903,841.7224916019475
1731140451.8583982,836.1762941770402,800.8412371347933,802.9858772906634,848.462741756667
1731140451.8608222,831.7912827365839,800.897875845995,798.6667870070835,851.2203267647401
1731140451.864716,827.7800103794298,801.0506749001075,792.7547997723464,851.365702063679
1731140451.86745,825.4758936019571,801.150574032992,787.465884209124,851.8708169273323
1731140451.86861,824.8877120569431,801.1656730007503,784.9090554148939,855.1794591089482
1731140451.8709104,825.1555044461676,801.1346579185503,785.8395482006858,861.2518592223433
1731140451.872504,825.4461089932205,801.1024783562727,789.109880011665,867.3675880108941
1731140451.876398,825.4138937746803,801.0887215161573,792.2796002555697,869.9682084206806
1731140451.877247,825.1242479949519,801.0898451353421,793.125915825656,867.2122415578821
1731140451.880292,824.7736539499978,801.0945827679394,791.076661317619,860.2935022331175
1731140451.8830388,824.4906316781797,801.0953898353711,787.501311359768,852.4809207520271
1731140451.8841858,824.2936751086402,801.0910376171794,784.6179780729831,846.6232594314575
1731140451.88808,824.1422523060318,801.0837821209913,783.8985651562748,843.1230260023892
1731140451.8919735,823.9957136099804,801.075970134911,785.2360973780162,840.0394628510215
1731140451.8958678,823.8387173398834,801.0685237929439,787.3929444357412,835.234464503773
1731140451.8960965,823.676353016783,801.0611792160882,789.1210279735933,828.7587051443087
1731140451.8986275,823.5192789832092,801.0533301262644,789.9318338965544,823.4259888355856
1731140451.8997617,823.3738518749417,801.0446052304574,790.0664083625217,822.9293029443944
1731140451.9036558,823.240568784571,801.0349716811933,790.0041443109805,828.7911668173207
1731140451.9057794,823.1170565690352,801.0245705803121,790.0588934957794,838.4807369148581
1731140451.9075496,823.0011485669792,801.0135378460369,790.2875131762346,846.4048207319703
1731140451.9114437,822.8920756199403,801.0019255876526,790.6042157006115,847.4965799777372
1731140451.9142165,822.7900989343758,800.9897114131041,790.9165983434762,841.0515964207498
1731140451.9149456,822.6956980611322,800.9768434053844,791.1875142515821,831.862532682105
1731140451.9153376,822.609074563807,800.9632894485884,791.4269026975381,827.3393654920366
1731140451.9192314,822.5301112422279,800.9490810722261,791.6587793239877,832.2877707803616
1731140451.9231255,822.4585720120848,800.9343316511445,791.8982272629378,845.138755570515
1731140451.9270194,822.3942939945125,800.9191852864942,792.1470804833938,858.7194560891281
1731140451.929805,822.3372368091377,800.9036703799907,792.4003441388774,865.2599351743041
1731140451.9309134,822.2873715853287,800.8875303771881,792.6532200250107,861.8425297892147
1731140451.933795,822.2444881354611,800.8702397783015,792.904002994726,852.016758516868
1731140451.9348073,822.2080918277416,800.8514277180817,793.1533931909476,842.4953641241984
1731140451.9387014,822.1776032084895,800.8316371379454,793.402697769208,837.9828632694041
1731140451.9406483,822.1529269979072,800.8127636944624,793.6526790294394,838.5050122542705
1731140451.9425952,822.1350413319155,800.7971122199452,793.9033996834911,840.9649183375352
1731140451.9453938,822.1257872360436,800.7846078742226,794.1545923561455,842.7117578736479
1731140451.946489,822.1261165010276,800.7697672920643,794.4060225902019,843.4740674319401
1731140451.9503832,822.1333064557863,800.7425133882844,794.6576228809455,844.2218040013609
1731140451.952644,822.139819717855,800.6967462774884,794.9094479353162,844.8620133667648
1731140451.954277,822.1376456644847,800.6444941866698,795.1615858973416,843.6872955779766
1731140451.9581711,822.1290819725127,800.6224584227508,795.4141073034984,839.3053293965463
1731140451.9609826,822.1368256021453,800.67129616691,795.6670530716914,832.84878781505
1731140451.962065,822.1977880552759,800.7814323797342,795.9204269965253,827.7716697795021
1731140451.9659593,822.3280340590071,800.8392783278942,796.1741789414483,827.025995488276
1731140451.9698527,822.4715002319081,800.6510550532473,796.4282106997681,830.2376638536039
1731140451.9714932,822.485504555835,800.1078507843275,796.6824552612246,833.683349822326
1731140451.973747,822.2328534153071,799.424909934098,796.9370265686055,833.2598270378273
1731140451.9755173,821.7878645027612,799.201380258564,797.1923150420803,827.9002045867805
1731140451.976571,821.6073351159322,800.0790883955304,797.4488112097893,820.5817609034118
1731140451.9776409,822.3696048955894,802.190700298025,797.7065478531453,816.2118663236398
1731140451.981535,824.2698002208941,804.9410497262676,797.9644642327036,818.173678158727
1731140451.9854288,826.0571920771572,807.3902134781189,798.2205144494461,826.1236580373778
1731140451.989323,824.8191282584647,808.8687266997189,798.4733510581398,836.399294252863
1731140451.9903424,817.5889672056443,809.2600684356422,798.7252267775228,844.3946751396675
1731140451.99216,804.2898355409212,808.8191674626983,798.9835117544179,847.1192446518044
1731140451.9932168,789.26494426715,807.8613123426883,799.256783535745,844.4797924423495
1731140451.9971106,778.9234773653473,806.6457525818961,799.5439730135936,838.937353096792
1731140452.0010047,776.8285940924874,805.4348200187574,799.823130326808,834.0717683091314
1731140452.0048983,780.7327572299091,804.5036641427073,800.055628548447,832.8586390482649
1731140452.0077488,784.5725754475586,804.0020581570459,800.2201453335265,836.3630483089589
1731140452.0087926,783.7743160544011,803.808282253453,800.3664396841649,843.3308980622185
1731140452.0091918,779.1875865399609,803.5731965307718,800.6367448848016,850.8294332947631
1731140452.0103862,776.2215075564756,802.9783155094635,801.1799117375264,855.6461866535835
1731140452.0126865,779.8882574289366,802.0116679998273,801.9383528697581,855.7569571610982
1731140452.0165806,789.9108341462344,801.0190138097983,802.4411174388565,851.1020257901612
1731140452.0204744,800.1294178670572,800.471639292574,801.8884864666538,843.3319692008995
1731140452.0233376,803.0583529771977,800.6471531871632,799.7193847091768,834.8478776513109
1731140452.0243683,796.1077278546202,801.5091087618115,796.3510665155485,827.787898570355
1731140452.028041,784.2113842107607,802.8972181789774,793.2785597888706,823.3573244605016
1731140452.0282624,776.2732486678534,804.8434672030855,792.059174250959,821.535239340404
1731140452.0321562,778.1236447908982,807.6738294001071,792.899190140302,821.2276083300566
1731140452.0360503,787.9669845640577,811.7035942156009,794.2789966566352,821.058898261075
1731140452.0389264,798.303695295803,816.6988778008844,794.2361677446378,820.5303898703446
1731140452.0399442,802.5548763306341,821.5555400740357,792.2747604669015,820.5036288102903
1731140452.0438385,800.4014574322485,824.5629529788341,790.090120061432,822.1171396029778
1731140452.0452552,797.1424322163091,824.2005100405785,790.2542669138167,824.7591075816583
1731140452.04689,797.9279344879627,820.0003331689552,793.881208194973,825.174599252025
1731140452.047732,802.3609448887038,812.9313442253067,799.3622553656467,819.2666215479937
1731140452.0516262,804.5441869975648,805.0418493637019,803.4558282061896,805.6560334691425
1731140452.0545151,798.6903627893564,798.5193818449804,803.9293632170403,787.9553134958928
1731140452.05552,785.3486360320354,794.667423452533,801.4486942244713,773.3523244034874
1731140452.059414,772.5327269637135,793.4062809166041,798.9825407969017,768.186541679049
1731140452.063308,770.2486166276626,793.6460826816412,799.214287784699,773.8353565309448
1731140452.0657392,782.5566732115808,794.2830688382705,802.2379258557079,785.9191793448458
1731140452.067202,803.6080976482785,795.0419669608341,805.4735610744015,797.0949313144979
1731140452.070104,821.1276411788039,796.4825507137126,805.7243282382283,801.2519127480792
1731140452.071096,824.9762577741619,799.2532918162968,801.5982263758531,796.583411790909
1731140452.0749898,814.378333728353,803.3848543866454,794.506001759919,786.2311063766891
1731140452.078884,798.324046865232,808.2883235056028,787.7362020755004,776.5112243208551
1731140452.080124,788.8288973583498,813.2838761684867,784.4185197761076,773.5694502855139
1731140452.0827775,792.1096184994173,817.9150740994106,785.706473973872,779.9252767301041
1731140452.0845883,804.2065510259798,821.6790461433596,790.2335296859221,792.7051945370619
1731140452.0856926,814.2013226563295,823.6500851557183,795.1198157219702,804.8873224776424
1731140452.0866718,812.6134341290707,822.7292178717574,797.8556756899192,809.3373227559766
1731140452.0905657,798.7768614171873,818.5481489197401,797.766430392606,803.4536622510591
1731140452.0944598,781.5977984500822,812.177096284943,796.0357012477776,791.2589810871408
1731140452.0983536,772.860716328584,805.7792843634718,794.4230982801504,781.0034393569142
1731140452.1012816,778.0255118423139,801.3341906818731,793.8952561190654,779.5027502697674
1731140452.1022477,791.7918208643049,799.5040353295268,794.2785736166278,787.2432018545992
1731140452.1034377,802.2468492558072,799.5738543154588,794.8821153355489,798.1006202573069
1731140452.1061416,800.4976419465847,800.3150509622081,795.2160167274867,804.0056893185531
1731140452.1100354,787.9829222617893,800.86420335211,795.2132477160783,800.8581564593931
1731140452.1139295,775.3603297665602,800.9953351600645,795.047404764322,791.0276041827832
1731140452.114993,773.7836854966947,800.8807763084629,794.8925623671524,780.7856323964367
1731140452.1168704,785.7292279073532,800.7508946012967,794.8160209099563,775.2532049126377
1731140452.1178234,802.8971407242626,800.7152798936114,794.7977097901137,775.1397333359309
1731140452.1217177,812.8200016156806,800.7625544282521,794.7927250361329,777.4698505681093
1731140452.1222868,808.6611127224775,800.8362668706529,794.7735977999774,778.8943976954913
1731140452.1256113,794.2141955779986,800.8958037657505,794.7375265040604,778.3511047920991
1731140452.1295054,780.2400432262614,800.9327158358562,794.6940587826462,777.0328471469178
1731140452.1324592,775.4587827105366,800.9576514151441,794.6520761466357,776.317261058544
1731140452.1333992,779.7871254445553,800.9828114762297,794.6146143226425,775.9941215440308
1731140452.137293,785.3117589122375,801.0134394544593,794.5802889464452,774.5309447148558
1731140452.141136,783.8970531146449,801.0485109277091,794.54666990057,771.0319513549634
1731140452.1411872,774.7949819778062,801.0849463792512,794.5123849432858,766.8867809027472
1731140452.145081,765.7227477824226,801.1207059057646,794.4773627848963,765.2956815311381
1731140452.148048,766.4177963662295,801.1554696630444,794.4421245929419,768.7391913605563
1731140452.1489751,779.9993206981571,801.1898554389788,794.4071091932973,776.425686052691
1731140452.1498623,799.3556316034765,801.2244963405868,794.3724344018938,784.0354787566009
1731140452.152869,811.759081657938,801.2596346538012,794.3379949540077,786.3084720678145
1731140452.1567633,808.2848335724856,801.2951913449186,794.30364393225,780.6479484906878
1731140452.1599853,790.6834802329183,801.3309965863041,794.2692967325917,768.9946724842615
1731140452.1606567,770.2607377667501,801.3669454629694,794.2349367843998,756.5726009281963
1731140452.1636367,759.584548918076,801.4030242380776,794.2005754782732,748.5572694670188
1731140452.164551,763.4943547796142,801.4392645782624,794.1662174600297,747.204370765625
1731140452.1684449,776.3440591033007,801.4756954238318,794.1318499270182,751.3399003138323
1731140452.1723387,787.2903513533369,801.5123239274939,794.0974489396286,758.0415662929274
1731140452.1762328,789.0219987024311,801.5491408050706,794.0629891131111,764.7072681947927
1731140452.1788344,782.9162830585259,801.5861328431006,794.0284487168956,769.8818247594104
1731140452.1792254,776.9177365480499,801.623290674616,793.9938096239366,772.7946459443797
1731140452.180127,778.3507389365491,801.6606096694346,793.959055088289,772.8081334126471
1731140452.1840208,787.5899066097301,801.6980873153558,793.9241679881754,769.6756069817906
1731140452.1847312,797.5162632618113,801.7357207339215,793.8891303776364,764.2426609341309
1731140452.1879146,799.114860029636,801.7735058126073,793.8539238917976,758.5581442971363
1731140452.1918087,788.8298489173247,801.8114375801864,793.8185302764541,754.9707325108474
1731140452.1948142,771.8338982383912,801.8495108878622,793.7829316493551,754.8509079567604
1731140452.1957026,758.4762411738895,801.8877208020205,793.7471104901475,757.9247518499676
1731140452.1976836,756.6588248397206,801.9260626333032,793.7110495269475,762.6252848970172
1731140452.1995966,766.2815785523824,801.9645317968261,793.6747316602239,767.088802294487
1731140452.2034905,780.1409475057599,802.0031236927161,793.6381399689892,770.1246608301232
1731140452.2073846,790.1673092881334,802.0418336753437,793.6012577727139,771.6885698138983
1731140452.210403,793.5188312894771,802.0806570847122,793.5640686946892,772.7432232162764
1731140452.2112784,793.6246326264665,802.1195892891652,793.5265566746382,774.6526839653507
1731140452.2151723,795.9423441606791,802.158625710347,793.4887059060275,778.3727791385578
1731140452.2165327,802.5447432876632,802.1977618299524,793.4505007361694,783.7255899061025
1731140452.2190664,810.1357468603028,802.2369931913362,793.4119256502526,789.1136882966047
1731140452.2196002,812.9491115712293,802.2763154060057,793.372965487745,792.1080701501222
1731140452.2229602,808.0752058790342,802.3157241639138,793.3336058986724,791.0367326632892
1731140452.2259915,798.8444551797636,802.3552152374027,793.2938337131962,786.7681765859071
1731140452.2268543,793.172495842493,802.3947844700051,793.2536365943414,783.0632802343808
1731140452.2307482,797.6155645810961,802.4344277569239,793.2130015505908,784.4737165153571
1731140452.2346425,811.733447463606,802.4741410468647,793.1719129797807,792.9209922981267
1731140452.235382,827.8171437558462,802.5139204022055,793.1303524862888,805.8542400494446
1731140452.238536,836.8866522731363,802.5537621170841,793.0883031088681,818.0201531107516
1731140452.2415805,836.2087029177129,802.593662807225,793.0457576829756,825.6469624360938
1731140452.2424302,831.7181291378199,802.6336193118997,793.002724684721,829.3141700635582
1731140452.246324,832.8889987254591,802.6736283099877,792.9592197390397,832.7471306543249
1731140452.250218,844.24506481241,802.7136858378246,792.915236137963,838.5726958785048
1731140452.254112,860.7232069247434,802.7537872882491,792.8707094003175,845.0218722521867
1731140452.2542312,870.8466142450993,802.7939285392088,792.8255195051877,846.7678124627806
1731140452.2544692,865.251948532489,802.8341080781612,792.7795775446614,839.3549870544414
1731140452.2571692,844.0119684785891,802.8743283633827,792.732982830681,823.4951775563512
1731140452.258006,817.2511023083437,802.9145934393183,792.6861155463741,805.551342337816
1731140452.2619,798.4788552402682,802.9549013116989,792.6394447679862,793.5583752202031
1731140452.2657938,795.3160251060593,802.9952352236159,792.592953378419,791.6796132824111
1731140452.269688,804.360395180792,803.0355650648538,792.5455076783901,797.3677532364732
1731140452.272758,814.1407283095202,803.0758703161533,792.495014736891,803.5306650018425
1731140452.2730803,814.0451557185761,803.1161797496261,792.4401837072224,804.0673134223994
1731140452.2735815,802.3422974352997,803.156592409042,792.3834583906724,798.4095346680717
1731140452.2774758,787.0375787428969,803.1972245465626,792.3324116124966,791.5598870939709
1731140452.2813697,779.0836028478456,803.2380614406479,792.295533662788,789.848898794785
1731140452.2852635,783.6348244455622,803.2788033361498,792.2710997241907,795.9989716102958
1731140452.2883468,796.4058217179991,803.3189216724925,792.2361157910366,807.2902105930216
1731140452.2891576,807.7211085972356,803.3581228199934,792.1515075625775,817.826211547659
1731140452.289338,810.5022744437334,803.3970857624781,791.997528770683,822.756108906047
1731140452.2919295,805.5427893617449,803.4377647275604,791.827919084213,821.3003046998465
1731140452.2930515,800.0288798906063,803.4822395994963,791.788695761201,816.7770667917974
1731140452.2969456,800.8642868919413,803.5298584522079,792.0265510327582,813.9821396226769
1731140452.3008394,808.4347602578395,803.5745592921845,792.4711262439725,815.7690669884412
1731140452.3039355,816.022679173259,803.6064983007117,792.6328277052241,821.028586362628
1731140452.3047335,815.5442846068588,803.6213186109054,791.7075349944973,825.4758935970779
1731140452.3086274,805.0112531929559,803.6336850228193,789.1717836563487,824.8973645614685
1731140452.3107789,791.3041875314824,803.6809572668042,785.5428079929666,818.6140877694799
1731140452.3125217,785.3650259144682,803.7982390379599,782.5061952440612,810.4061360669489
1731140452.3164153,793.315226711243,803.9620524759105,781.9558721385484,805.8895667843051
1731140452.3195243,810.9132082569059,804.0396674452811,784.5498917775475,808.2382914149555
1731140452.3203092,826.3981566843864,803.8145220300376,789.0106834015214,815.6817895441538
1731140452.3242033,829.7246183453188,803.1259538318307,792.8635756915002,822.8335220852739
1731140452.3242073,820.5277207931944,802.0462413449519,794.1201274690867,824.7204397391691
1731140452.328097,808.037230867728,800.9198260785138,792.6155869142626,820.2199405560384
1731140452.329628,802.979535234776,800.15427884993,789.971523770379,812.306900222149
1731140452.3319912,808.3362207311434,799.8820428093159,788.2772392006706,805.2674519477347
1731140452.335113,816.781017678482,799.8021360789132,788.60867283498,801.3868948074286
1731140452.335885,816.9827640075731,799.4285624488247,790.5334130227112,799.7571050706113
1731140452.3397791,803.5455070107415,798.6091217168091,792.7966574279749,797.920149270475
1731140452.343673,782.279369435381,797.835020494415,794.365236412502,794.715126923054
1731140452.347567,766.2479057364988,797.9261504149142,794.8693545918073,791.742044276484
1731140452.3484771,765.5616893159668,799.2212284719229,794.2739584805403,792.0555081157855
