timestamps,eeg_1,eeg_2,eeg_3,eeg_4
1730147917.281078,808.084069781807,803.9248210331982,807.1138606415848,807.4053790330645
1730147917.2817645,814.5257804004394,805.8854602202986,809.4092613305133,810.829768025277
1730147917.2856667,819.8691778068302,807.6112817373876,810.5792521486717,813.7589970463282
1730147917.2881322,822.6850611999977,808.9762841950044,809.9391601881508,815.2331132228851
1730147917.2895691,821.749600238459,809.976069095683,807.5900787132837,814.2416446502418
1730147917.2934716,817.2165107133237,810.6331609992757,804.4778128773663,810.8146644917616
1730147917.297374,811.2214135500344,810.8881451424566,802.0036252090256,806.6168912611448
1730147917.2999609,806.9836613835794,810.5897269754843,801.2994229645174,804.160618497407
1730147917.3012764,806.821187188376,809.605139268299,802.5954757235639,805.0862784445771
1730147917.3037355,810.5946084921346,807.9574403089307,805.1220478307285,808.9486278024362
1730147917.305179,815.850112130583,805.8767357913645,807.6177348822143,813.5593893820084
1730147917.3090816,819.5651296762827,803.7418736687044,809.0724287574668,816.5859824672795
1730147917.3116212,820.1550817419671,801.9853644921457,809.1965699322858,817.0919880999047
1730147917.312984,818.2922755623962,801.0327074629079,808.3698094758114,815.8606490593573
1730147917.3168864,816.0817473426354,801.2492393606623,807.2237933401983,814.3974722464789
1730147917.3188436,815.3555365747369,802.7960658282371,806.223574695524,813.5397531660489
1730147917.3193388,816.3981014055421,805.3903215887782,805.5121127803629,812.8379273974995
1730147917.3207889,818.0108754269877,808.186042807497,805.0214328342084,811.1877527324759
1730147917.3246913,818.8031127214621,810.0616863424782,804.6719372610531,808.1320311172619
1730147917.3285935,818.6374767773041,810.2875133142869,804.4898062348541,804.6589089845756
1730147917.3324962,818.9477248749541,809.071758967322,804.5906407616769,802.7069276340618
1730147917.334942,821.4786893538296,807.4237271275314,805.0686608814168,803.672473792599
1730147917.3363986,826.3913550786851,806.3560141549381,805.8649242187811,807.1214202529032
1730147917.3377264,831.4714609469985,806.1273521615409,806.7152802086262,810.844825700095
1730147917.340301,833.4659828762577,806.2242443151308,807.2768028066345,812.3496549669477
1730147917.3442037,830.7232860525586,806.0414985967741,807.412127937195,810.6736584579448
1730147917.3467577,824.9369872652869,805.5378955064278,807.4158719245095,807.0905966276297
1730147917.348106,820.2976949687129,805.2365148372476,807.9164442371633,804.1407202280175
1730147917.3505454,820.473296249764,805.6594215063398,809.4212714184107,803.7485536649943
1730147917.3520086,825.7407804670116,806.8353157057891,811.8198425257085,805.861760564597
1730147917.355911,832.594142320655,808.3553041105471,814.2709313974334,808.5810865932629
1730147917.356609,836.2440894654972,809.8250782633513,815.6350107652015,809.6248984321016
1730147917.3598137,834.1719448064972,811.1692048809443,815.1884776056053,808.0433886092777
1730147917.363716,828.0477487096864,812.4739177884281,813.1278364320533,804.9383871825336
1730147917.3661487,822.5053963356131,813.6159222947284,810.5059094946087,802.6263967041871
1730147917.3676183,821.6471993313187,814.1862969636949,808.6190809100187,802.8237475202891
1730147917.3715208,825.9568633085735,813.8854188665185,808.2242262196646,805.2647060440966
1730147917.3754232,832.0371305829188,812.9883839266976,809.0863796524114,807.918593148346
1730147917.375492,835.3307508320836,812.2989698022909,810.1625738288398,808.6642145403297
1730147917.3793256,833.575344732012,812.4779010564928,810.3148651072279,806.9964812109441
1730147917.3817525,828.2571646822701,813.3162236827693,809.0777994548199,804.310710980057
1730147917.381894,823.1037208323678,813.7090753106833,806.9528112316623,802.590267425315
1730147917.383228,821.0356653677782,812.4989643980832,805.0277750903725,802.6902891120078
1730147917.3871305,822.0174687550357,809.5115600144092,804.2030823214188,803.6448724161883
1730147917.3910327,823.3209352022152,805.8412859857511,804.5934529747448,803.4690197879619
1730147917.3943746,821.8049484170987,803.0825886397035,805.5415855350183,800.7330907520533
1730147917.3949354,816.3890269446784,802.1653874002632,806.2044821433525,795.6969938986239
1730147917.3973556,808.8766320931633,802.7984741360708,806.2156771225785,790.2131666641499
1730147917.398838,802.5714888005349,803.9182961440052,805.8750103092001,786.5037485253868
1730147917.4027405,799.7790973265595,804.6106757942722,805.7439147621938,785.6746842985594
1730147917.406643,800.1169335289219,804.6437403043811,806.0605950231298,787.0014913132857
1730147917.410545,800.9434871186633,804.2798386148078,806.5336890535863,788.4991419748915
1730147917.4129589,799.5740820737974,803.7912634102706,806.6841892681044,788.3929997240641
1730147917.4132574,795.5158004105488,803.2859186489826,806.3669677677889,786.4521428287248
1730147917.4144478,790.8774194327577,802.9365317317228,805.9445068040056,784.2077621739624
1730147917.4170308,788.5359885884194,803.150331679919,805.951053244063,783.8351828880501
1730147917.4183502,789.515718133735,804.2808043707299,806.6013067119352,786.4355299817365
1730147917.422253,791.8425172321492,806.0993419670801,807.6472704016758,790.9671636932586
1730147917.426155,792.0682835210324,807.6799760152146,808.7167392186699,794.7259977697985
1730147917.4285622,788.3924959109073,808.0337967332896,809.7490162482618,795.1838039220502
1730147917.4300575,782.7019672561968,807.0265905098663,811.0241061348279,791.9030271163813
1730147917.43214,779.4787500363561,805.6856762155725,812.7164239658114,787.0508174739978
1730147917.43396,782.1437306566479,805.4778986375096,814.451475789773,784.0185948208185
1730147917.4378624,789.8353359886511,807.1058034998262,815.4014106622903,785.1172347637652
1730147917.4417648,797.5551588862154,809.8669467908235,814.9213886905686,790.0699001350239
1730147917.4441657,799.8435468686748,812.1468561460428,813.149764177445,796.3977602901036
1730147917.4456675,795.048588130324,812.6295912018699,810.9889141866358,801.2874202493881
1730147917.44957,786.6491811019046,811.2349050691679,809.4644050579273,803.4134659943612
1730147917.4510229,780.5467123756775,809.0859096968261,809.0278526033547,803.3776483688605
1730147917.4521673,780.5529252556644,807.6174074241504,809.3683354538103,802.6789976227765
1730147917.4534724,785.6794921712547,807.550110143544,809.7915418564041,802.3278267170747
1730147917.4573748,791.2960969096848,808.471540287183,809.7611592001891,802.355960760396
1730147917.4597688,793.1160981171497,809.2645178427597,809.1811910462087,802.4887117412596
1730147917.4612772,790.727906914633,808.9997039268343,808.3232729374517,803.0584697947597
1730147917.4651797,787.7832755796209,807.5967061191867,807.5755664037379,805.0030426233973
1730147917.469082,788.7485761341894,805.7863532944273,807.2040286753717,808.7887868991049
1730147917.469906,795.0426427693385,804.4904101040745,807.2049331416845,813.3569290199144
1730147917.4729846,803.857658739121,804.1712084557274,807.2848155885833,816.3737597304271
1730147917.475372,810.5304172560645,804.6266230487286,807.0155392784133,815.8742087760319
1730147917.476887,812.236582179545,805.257969501099,806.1337017972294,811.9543300706861
1730147917.4807894,809.8340776159375,805.4890195778809,804.7895037149798,806.9321534886733
1730147917.484692,806.5693212745032,805.0329422581049,803.5064142452787,803.661984199866
1730147917.4873035,805.1369814349893,803.9367289356167,802.8227414029227,803.3250215693911
1730147917.4885943,805.7286816380099,802.4899175489164,802.8804309495113,804.547868787178
1730147917.4887886,806.4803661732786,801.0873437692334,803.2966939785193,804.6409090497832
1730147917.4909754,805.5560165990997,800.09977117408,803.4209674982,801.9979167853849
1730147917.492497,802.9290689345687,799.7995669567521,802.7784481707744,797.7022691381374
1730147917.4963994,800.4576154936399,800.3535445225335,801.3931285561381,794.954403629925
1730147917.5003018,800.3377774761575,801.8078885193967,799.7989074965155,796.6496663224449
1730147917.5042045,803.2252729722861,803.9687035628239,798.7457869563169,802.9597170338994
1730147917.5065787,807.4870141379332,806.2341514693657,798.7669549076777,810.8563214676666
1730147917.5076714,810.1939701302717,807.6321335519582,799.8466022339967,816.0419752031733
1730147917.5081067,809.1896586468753,807.2622675501674,801.393983812983,815.890268635426
1730147917.5120091,804.7210450806347,804.9493459371087,802.5720158427673,811.2326413349423
1730147917.5159116,799.3507437875946,801.5554779155457,802.8022487825458,805.7101064371602
1730147917.519814,796.1159471159544,798.5514442576003,802.1180224493584,803.1999047479441
1730147917.5221822,796.2702468775329,797.092066673632,801.1102004133525,805.1751203423287
1730147917.5224402,798.3434961049983,797.3442566842333,800.4983713555322,809.8255346903342
1730147917.5237164,799.3030544160773,798.608222923539,800.6536499735287,813.4682520043447
1730147917.526554,796.9881725820957,800.0284972142443,801.4384263345517,813.1856830235241
1730147917.527619,791.9458573327498,801.17913321065,802.4554511621222,808.8356791102033
1730147917.531521,787.1731740469444,802.0401609157084,803.4427928904657,803.0669027882985
1730147917.535424,785.891936418819,802.5710781861225,804.4396339473036,799.3848142752973
1730147917.5377855,789.1275081776746,802.4834424269003,805.594399064036,799.695227880406
1730147917.5393264,795.0812402844755,801.5240632751896,806.8546676550543,803.1235900709688
1730147917.5432289,800.7132413434322,799.9566828911354,807.8911557369026,806.9491195220883
1730147917.5454369,803.9833003324177,798.6598477244115,808.3422906981359,808.8757609809961
1730147917.5471313,804.8227342813786,798.6203487967597,808.1093703007601,808.829410051573
1730147917.5510335,804.4248829284538,800.2055865374642,807.3842423189749,808.8694443178335
1730147917.5533888,803.9820051762073,802.840205202256,806.4063526228873,811.3392668614345
1730147917.5549362,804.0074000372719,805.3844109869189,805.2571006455362,816.7993465205614
1730147917.557577,804.4204005938942,806.9355435531942,803.9406305980837,823.4153420128122
1730147917.5588386,804.9414816048179,807.4394980795978,802.6398183747823,828.2449083929286
1730147917.562741,805.3822585790703,807.650525524483,801.8008456293651,829.3456586111223
1730147917.5643196,805.7118622569587,808.4825129033271,801.8729444155942,827.0524281278518
1730147917.5666437,805.9866162930016,810.2627624986479,802.9215561470289,823.5341780813482
1730147917.568992,806.2651900425703,812.4630950222014,804.5044470360601,821.1438082942708
1730147917.570546,806.5706180604145,814.0893718548781,805.9630465179413,820.9561257365434
1730147917.5744483,806.8962262419609,814.3916414452298,806.8883036149608,822.5623931423728
1730147917.5783508,807.2267372831795,813.3458312872953,807.3660836204532,824.9981913838677
1730147917.5822537,807.5527164671068,811.5917016267069,807.818209012654,827.7093100926526
1730147917.5832024,807.8731297397724,809.948158176647,808.6046180635599,830.5766378764094
1730147917.5845954,808.191193927396,808.9123959075594,809.7192059936007,833.0873516291953
1730147917.586156,808.5099365766719,808.4915006703944,810.7817583509309,833.7270956950266
1730147917.5900583,808.8304054602316,808.3930792671208,811.2611290880482,830.5860938594656
1730147917.592713,809.1521363681958,808.3231409080335,810.717919533003,822.9984454896899
1730147917.5939608,809.4743002348343,808.148163218336,808.9391709700285,812.8260719227992
1730147917.5978632,809.7964258180589,807.8796881880031,806.0183723534587,803.9937181058691
1730147917.6001987,810.1184867426167,807.5820019980324,802.4710495994059,800.2648755998301
1730147917.6017656,810.4406571052976,807.3011038412759,799.2962724414666,802.819965509466
1730147917.602085,810.7630739504152,807.0461236615946,797.7276005555708,809.4766731223549
1730147917.605668,811.0857537073302,806.8045420629027,798.577752166463,816.1090885415236
1730147917.6095705,811.40863971937,806.5623147509505,801.5439413406007,819.1545011084817
1730147917.6134727,811.7316941588812,806.3134934280407,805.1221241384712,817.4407904290523
1730147917.615802,812.0549552451986,806.0593084784963,807.4264760125316,812.2905174049598
1730147917.6173754,812.3785093679174,805.8032913394376,807.4229157128444,806.2022317527914
1730147917.620968,812.7023710568664,805.5477410763153,805.6291289517125,801.2952327173775
1730147917.6212778,813.0263417251132,805.2929760986209,803.7219437565583,798.5594447929716
1730147917.6251802,813.350011338538,805.0382503454688,803.3835037340655,798.0606657771743
1730147917.6278498,813.6730716551987,804.7828123068141,805.2751955549953,799.4698232278571
1730147917.629083,813.995889673169,804.5263637157012,808.8047826060706,802.2800320156571
1730147917.6314056,814.3198533083478,804.2689738099366,812.6657571811498,805.6986761167715
1730147917.6329854,814.646689027033,804.0108135644494,815.62317409218,808.6792810553475
1730147917.6368878,814.9763829837058,803.7519788775809,817.0238729731775,810.3601760475673
1730147917.6398506,815.3048760217815,803.4924620430514,816.8541601297114,810.5968586020332
1730147917.6407902,815.6245826282496,803.2322033524249,815.5014403050633,810.039994323047
1730147917.644693,815.930724820531,802.9711432200245,813.4908135886697,809.6138838832036
1730147917.647009,816.2319875521596,802.709242162408,811.3673317236131,809.8361827212094
1730147917.648595,816.5557412554283,802.4464787601792,809.6969933424443,810.5467021272738
1730147917.6524975,816.9330408948981,802.1828469959371,809.02149568676,811.1775303451096
1730147917.6564,817.3584058532431,801.9183592015456,809.6540632782206,811.2038414661447
1730147917.6587334,817.7494697091099,801.6530398717377,811.4264215418749,810.3750003966853
1730147917.6603024,817.9652160339326,801.3868914478408,813.6631227022173,808.6914752038932
1730147917.6626122,817.9347206614794,801.1198396320453,815.5258505034988,806.3667490206991
1730147917.6629865,817.8580338466822,800.8517133383915,816.5031917108107,803.8757375550576
1730147917.6642048,818.2896284930684,800.5823387501388,816.6343848241789,801.891355929974
1730147917.6681073,819.8480948575374,800.3117644602673,816.316788062085,800.9310747889996
1730147917.67201,822.5421904256415,800.0404643040098,815.9465846242026,800.934734680159
1730147917.6759124,825.2548046455076,799.7691924408304,815.7093993750645,801.2704352347924
1730147917.677616,826.1321184552806,799.4982392569268,815.596559938328,801.3557782372425
1730147917.6782155,823.8384699967303,799.2263747646299,815.5252633854828,801.3980400853991
1730147917.6798148,818.585140940889,798.9506012079275,815.4338716992703,802.4417471444167
1730147917.6837173,811.9469075729969,798.6681485219996,815.3087779681634,805.4396919516702
1730147917.6876197,805.6727845896914,798.3807882477743,815.1656598006763,810.0532539536414
1730147917.691522,800.5761781757122,798.0982735354988,815.0230314262518,814.3788823597505
1730147917.6938188,796.3991565148988,797.834755180093,814.8890730663231,816.1632409891263
1730147917.6954246,792.6682580164616,797.5940968168405,814.7624167780092,814.719588144571
1730147917.6964989,789.7206030288661,797.3508053420755,814.6384466585679,811.8934147575526
1730147917.6981227,788.8625226396675,797.0487721171957,814.5140348077451,810.9709135435987
1730147917.699327,791.2804945698447,796.6441760534357,814.3886464221159,814.1049318067252
1730147917.7032294,796.4997431548765,796.1915149131498,814.2631939324086,820.2790007483063
1730147917.707132,801.9007554733118,795.9133788426892,814.1386396434172,825.6760557234546
1730147917.709422,804.1770552387228,796.157014683532,814.0153634754935,826.4502076959877
1730147917.7110343,801.8967976264693,797.2045957308364,813.8932548062558,821.7784428396773
1730147917.7149367,797.0207249155327,799.0559118756953,813.772058354574,814.6279299675152
1730147917.7153816,793.7755092995753,801.3754097657298,813.6516130824564,809.5177898230532
1730147917.7188394,795.4741691607526,803.6690390762103,813.5318952953219,809.1541382680516
1730147917.7227418,801.7865155312029,805.5479166409256,813.4129497686826,812.7670562468461
1730147917.7250254,808.748113241349,806.8623033102135,813.2948154003404,817.3237552751368
1730147917.7266445,811.5670159492294,807.6193016462197,813.1774963151574,820.1508557208349
1730147917.7305467,808.0335017551049,807.8071274687125,813.0609739836317,820.5409052324752
1730147917.7332592,799.972824867637,807.3406138089141,812.9452326749046,819.4082233353289
1730147917.7342644,791.8177712153689,806.2127899667829,812.8302729252867,817.9959368182907
1730147917.7344491,787.5163079936074,804.6937015089537,812.716100433435,816.98296481961
1730147917.7383516,788.0420599466893,803.3153225464768,812.60269494864,816.4021082785423
1730147917.7406287,791.1914797930461,802.5679301222316,812.4899849386281,815.9946339345081
1730147917.742254,793.6575451217877,802.5448668845306,812.3778692252961,815.5403165531586
1730147917.7461565,793.7089525197192,802.867747185442,812.266310748392,814.9737664629919
1730147917.750059,792.3695909109479,802.9749119561912,812.1554586900932,814.3372052768411
1730147917.7531471,792.2263607062253,802.5239560821042,812.0456589870624,813.6927731830597
1730147917.753961,794.985674515229,801.5918083399724,811.9371912122033,813.0723401074106
1730147917.756232,799.94207870433,800.5804403763395,811.8297524522715,812.4748306935383
1730147917.7578638,804.6578226364596,799.9760545575679,811.7221031961511,811.8856544625309
1730147917.7617662,807.158254104104,800.1477132414772,811.6126047391516,811.2935003770566
1730147917.7656689,807.6326674686018,801.2547843637767,811.5010492262143,810.6955058998225
1730147917.7683957,808.1363631391262,803.2281737881216,811.3908365708894,810.0941995267297
1730147917.7695713,810.5969967976391,805.7793893595377,811.2887936879605,809.4928176832419
1730147917.7718356,814.9162843614705,808.440798647471,811.1997708231991,808.8928491685796
1730147917.77203,818.8686275536769,810.6767325930216,811.1169402710018,808.2940720617734
1730147917.7734735,819.9456650069975,812.0711392842042,811.0161939754014,807.6956399955574
1730147917.7773762,817.5849736563163,812.5010562251609,810.8682051465333,807.0969412436834
1730147917.7812786,813.7913326411507,812.1499009398109,810.674001558718,806.4978217901075
1730147917.785181,811.4614627230371,811.314402278541,810.5033719221866,805.898391531813
1730147917.7874389,811.7666098292406,810.1672953129329,810.4835555226117,805.2987684146801
1730147917.7890835,812.9551425990375,808.727116839455,810.6872387989936,804.6989579101117
1730147917.7909126,811.849578876746,807.0936390409889,810.9445910569998,804.0988792833705
1730147917.792986,806.9109027262302,805.6850050922314,810.737931575283,803.498458516587
1730147917.7968884,800.160652786337,805.1271297583996,809.3965211700041,802.8976982915469
1730147917.8007908,796.059767570471,805.7662909431333,806.6089178915407,802.2966600707147
1730147917.8030422,798.0645703486049,807.21556081918,802.8759313037557,801.6953403064877
1730147917.803532,805.6856853954089,808.4199534310798,799.3950388019609,801.0935098694514
1730147917.8046932,814.5414780579324,808.2939419455944,797.3172689543354,800.4906939715432
1730147917.8085957,819.4195167619561,806.4550416180772,796.9562088552551,799.8864895384766
1730147917.8097956,817.9185533784511,803.4805080518505,797.6404179556166,799.2811945249008
1730147917.8124983,811.867122168564,800.530339698486,798.3275835283509,798.6762466854448
1730147917.8164008,805.5820269622061,798.6762101086645,798.4161732994322,798.073585121146
1730147917.8186457,802.5134015396676,798.4086453672143,798.0616746108926,797.4734375597907
1730147917.8203032,802.9420484573747,799.5470852533917,797.8107951474425,796.8716631055173
1730147917.8242056,804.3737428081813,801.4677598995357,797.9790206045504,796.2599232133915
1730147917.828108,804.0543329714039,803.4433527038605,798.3511906729617,795.6321834039165
1730147917.8286784,801.4207069836788,804.9394266348634,798.4154174391407,794.9964925088634
1730147917.8320105,798.5142210631867,805.7892438435523,797.8551334880691,794.381919627356
1730147917.8342488,798.1265120124427,806.1984214636617,796.8538788021281,793.824149906183
1730147917.8359127,801.2848946846416,806.5573602220828,795.9911968209451,793.3223951447756
1730147917.8386688,806.1961763309645,807.1282696445609,795.8574815400029,792.7922870071934
1730147917.8398154,809.5828451127953,807.8013666824387,796.6815630609525,792.078151017996
1730147917.8437178,809.3768538478366,808.1418991465142,798.1802003990277,791.0863540514664
1730147917.8475611,806.5329832387587,807.7542275875521,799.6722922120363,790.0088396689846
1730147917.8476202,804.3265463503786,806.6756127730448,800.4054292066081,789.4387740967256
1730147917.849852,805.5512101670736,805.4059287231426,799.9878409154444,790.0893344592193
1730147917.8515227,809.9063921645278,804.4832202174218,798.7220958822285,792.066481441941
1730147917.8554254,813.9027940047417,803.9889439058404,797.5765015318702,794.2579562501612
1730147917.8593278,813.592230604408,803.5032020031289,797.6825155700357,794.7392092935331
1730147917.8632302,807.9564407157577,802.6194240884612,799.5988097611606,792.3137402060106
1730147917.8654554,800.0684108660832,801.5504242676558,802.8448569745233,787.8971700662948
1730147917.866444,794.9352579365172,801.2080540428888,806.0937497381473,784.201923153833
1730147917.867133,795.7300425724842,802.5896947602829,807.9588961365955,783.7151627841098
1730147917.871035,801.4684173736553,805.9328292427259,807.8537988018597,786.6914586269077
1730147917.8738053,807.9524526418701,810.3273638781714,806.3143388558807,790.9477146778313
1730147917.8749375,811.120058966815,814.1217435508565,804.5514121664279,793.6208634458603
1730147917.87884,810.0722720290862,815.8513343173497,803.582607982437,793.3587420714309
1730147917.8810587,807.4448069251272,815.0530491755018,803.6128457688834,791.1854863399593
1730147917.8827424,806.9879796047676,812.4518450796251,804.1199260457164,789.5317564345712
1730147917.8853266,810.3969600609845,809.4586333141779,804.5252266019088,790.3878241958782
1730147917.8866448,815.9190503411162,807.3459874011739,804.8648787449215,794.0366613735898
1730147917.8905473,819.775630347255,806.6042267159463,805.8828549207363,799.1822073714109
1730147917.8944497,819.197857445823,806.8097991809879,808.4261553542663,804.1736572731568
1730147917.896662,814.6398116667515,807.0220869590214,812.5874127504487,808.2601568977248
1730147917.898352,809.4424807411658,806.4443773860908,817.2855460176593,811.8795883568087
1730147917.9022548,807.2691469603101,804.9525759741915,820.6868562588721,815.8199383506474
1730147917.9042094,809.3515450497514,803.1643891295336,821.235242573171,820.0494126749694
1730147917.9061573,813.6408083246247,801.9874495325912,818.5757968386336,823.2948741324456
1730147917.9089415,816.4152374343674,801.9333095651032,813.7293630466107,823.8060113281477
1730147917.9100597,815.0467994112208,802.687508712393,808.4531850323486,820.7341045110767
1730147917.9122655,809.8480417930776,803.2860644165922,804.312598194423,815.0264423873954
1730147917.913962,803.6868336100715,802.8054970338894,802.1008334338075,809.0828986557583
1730147917.9178646,799.7502639193835,801.050661070648,801.839928827166,805.3413486589556
1730147917.921767,799.2297567778909,798.6956694050849,803.1063427414259,804.7781716993335
1730147917.923092,800.7352786310126,796.7679279760646,805.3049652321738,806.4355660997621
1730147917.9256694,801.8300570942774,795.9077262313867,807.7842836693658,808.3647091487443
1730147917.9278688,801.2975127940251,796.0026165152133,809.9500612928864,809.2622030102757
1730147917.929572,800.1319433373195,796.4423118457295,811.472182942555,809.449613814441
1730147917.9334743,800.3999068345103,796.7050990745256,812.4178224111324,810.3310818118914
1730147917.9373767,803.0588598846774,796.7543525943199,813.0828931819156,812.776904385091
1730147917.9412792,806.7597466628798,796.9604566585913,813.5806304183525,815.8959141955836
1730147917.9419749,808.7354056347214,797.7002881438199,813.5680868201964,817.3966758843668
1730147917.943472,807.0031008495663,799.0175676703034,812.4455070267115,815.3639812927174
1730147917.9440782,802.0216679764893,800.5942971795486,809.9417020814211,810.00745801489
1730147917.9451816,796.4798909832697,801.9751988297827,806.6005533545225,803.8888750405811
1730147917.9490843,793.4044010599644,802.8070854553598,803.694510629516,800.3332962500203
1730147917.9529867,794.0078313076514,802.9283871607649,802.5214952580556,801.181250509879
1730147917.9568892,796.8561344279275,802.3414883475247,803.5455101593495,805.5831215983252
1730147917.9590757,799.0009802128429,801.2017898373782,806.0134369200847,810.741524138584
1730147917.9607916,798.295884572844,799.8698076224907,808.3744784130485,814.0064456917464
1730147917.9608576,795.147444457677,798.9141287389523,809.2606089365395,814.7195794803466
1730147917.964694,792.2582169212654,798.9267362944189,808.3659894157935,814.454727938171
1730147917.9685965,792.4476603236678,800.182007484354,806.6039034471049,815.5498877567993
1730147917.972499,796.2502289372396,802.3734058700693,805.4205281253098,819.0957543205166
1730147917.9746788,801.278557379214,804.6723973734764,805.7563922968029,823.9241814005421
1730147917.976401,803.9491600815134,806.1314219314029,807.3944262931135,827.3756749400275
1730147917.979215,802.2337221347866,806.1884715042628,809.1220394715174,827.2602397057208
1730147917.9797404,797.2507164183218,804.952172506179,809.5471000506496,823.4726949248349
1730147917.9803038,792.4336196450848,803.1043611374271,808.0154119208207,817.9685321451356
1730147917.9842062,790.9313486894886,801.5117640969158,805.0807765011588,813.1460352553861
1730147917.9881086,793.289560320166,800.802324368354,802.2490484728849,810.0529314576793
1730147917.990282,797.2304191853232,801.1398167215553,801.093208205749,807.9975456360671
1730147917.9920113,799.6485879646908,802.2683132395453,802.2292008108024,805.8301635352079
1730147917.9959135,799.1290573240711,803.7333886893368,804.8493731415615,803.540659080248
1730147917.9986231,796.8933638161196,805.1281386266096,807.2368356602781,802.4991517251923
1730147917.9998162,795.4643349028356,806.2510205020166,807.9603662380827,804.0244596837941
1730147918.0037186,796.3152533545242,807.1261173808381,806.8487140260061,807.670055317712
1730147918.0058854,798.6076205743632,807.8955380616259,804.9866002513439,810.9852011685513
1730147918.007621,800.1003115327221,808.6601928193477,803.8006469191045,811.1897619217011
1730147918.0115235,799.355507290549,809.3869833961706,804.0424435856456,807.4306585624964
1730147918.0143514,797.2100131278954,809.9534648637358,805.4494854735962,801.6607086774259
1730147918.015426,796.1382741661572,810.2813209696204,807.1849935431311,797.2627820276678
1730147918.017506,798.0189750756944,810.4327947221028,808.5368788656195,796.4490105436679
1730147918.0193284,802.276444076588,810.5901377581569,809.316731778246,798.5916348113951
1730147918.021489,806.1183660764842,810.9504231200852,809.8107825744064,800.9603431060299
1730147918.0232308,806.8076798776107,811.6255638708355,810.4987971452052,801.303906800427
1730147918.0271332,804.0842304655094,812.599183336686,811.7867021131815,800.0159213904677
1730147918.0310357,800.5885362300586,813.7278201638602,813.8233130286995,799.8455130973807
1730147918.034938,799.7723402807366,814.762582682576,816.3678370745782,803.2448499793886
1730147918.0363886,802.9785890720518,815.4027214422438,818.7397062223224,809.6695492650354
1730147918.037092,808.1933140879892,815.40354032723,819.9800996335548,815.3731800726124
1730147918.0388408,811.6028451229649,814.7091211704753,819.2967928771576,816.1170217227735
1730147918.0427432,810.6822863424704,813.5175285140034,816.616303006339,810.6152272819089
1730147918.0466456,806.2228299086835,812.2015310752431,812.8347639752961,801.8191336680027
1730147918.0494878,801.6463836382871,811.115113588256,809.4434237100552,794.9454462772403
1730147918.050548,800.2961821849045,810.4168935670702,807.6670995317413,793.8219114851323
1730147918.0526955,803.0365529712421,810.0286739676711,807.7247332179795,798.3530614581535
1730147918.0544505,808.030459403339,809.7334852162152,808.8005721697469,804.8425246831805
1730147918.0552714,812.5301650979457,809.3225818540711,809.734591282694,808.6842788004885
1730147918.0583527,814.880795595641,808.706399417278,809.8242726856879,807.380920075415
1730147918.0622554,815.1615414454976,807.9631262530199,809.0841041433185,801.9077641092939
1730147918.0661578,814.438773657786,807.3161418620649,807.8793449014563,795.7495924434324
1730147918.0682988,813.7036603802717,807.010339672085,806.4459226348304,792.4490874339027
1730147918.0700605,813.3598135607022,807.0981394432872,804.8127896038475,793.3170002774881
1730147918.0739627,813.3269545022885,807.2784550245277,803.0885621256352,796.72013197715
1730147918.074154,813.3737673671251,807.0009375239563,801.6252816341035,799.320696488073
1730147918.0778651,813.3507715601937,805.8761023248164,800.7674787929917,798.4092798125446
1730147918.0817676,813.2377972295045,804.1049816268343,800.4861610299041,793.775268602606
1730147918.083902,813.0831108614192,802.5058487593252,800.4239531664574,787.8594752453829
1730147918.0846243,812.9343315786247,801.9991578770464,800.406285521245,784.0949923068417
1730147918.0856702,812.8090904894698,802.910137314709,800.8464867621785,784.5978709651712
1730147918.089573,812.701139938337,804.6789956295363,802.4757537247724,788.8226948650376
1730147918.093037,812.5978938875182,806.2581152673258,805.5390496776931,794.1008573453798
1730147918.093475,812.4919254954495,806.8713393324684,809.2507394628883,797.6145255834018
1730147918.0973775,812.3826844494223,806.4885277332681,812.1365386320604,798.3161402585924
1730147918.0995054,812.2729378132482,805.6647830581805,813.012544913634,797.3799613986671
1730147918.10128,812.1651668734584,805.0001627183848,811.6857369942871,796.9550057460513
1730147918.1051824,812.0601964698337,804.7462790002317,808.749261668957,798.3669682548203
1730147918.1090848,811.957640396518,804.8053678690259,804.8116552689131,801.3252937820453
1730147918.1119196,811.856849172923,804.959392573223,800.0934424733073,804.7075099755963
1730147918.1129873,811.7574815615387,805.062135472704,794.8723572852462,807.9519915595512
1730147918.1151087,811.6595570824708,805.0854702160091,790.227189423551,811.4817680891836
1730147918.1168897,811.5632522474114,805.0682526481193,788.0492133983246,815.6272487599381
1730147918.1197608,811.4687136235442,805.0534066993589,789.9443585991083,819.2529699479469
1730147918.1207922,811.3759951903143,805.0586349178897,795.8406757395461,819.857396505702
1730147918.1246946,811.2850894971729,805.0796837375193,803.6329061611328,815.5170977752183
1730147918.128597,811.195981372032,805.1054966503422,810.3952846180784,807.0288195035442
1730147918.130712,811.1086780581796,805.1289878895094,814.2215471820078,798.1226816818765
1730147918.1308024,811.0232069665627,805.1491951265849,815.1262978368841,793.2741867786261
1730147918.1324997,810.9395938033529,805.1683793442161,814.4327845731864,794.7939228601646
1730147918.136402,810.8578405631454,805.1887642218256,813.5179424348352,801.4559056710004
1730147918.1403046,810.777923693907,805.2111576822037,813.0499624634641,809.5571919187647
1730147918.144207,810.6998266855908,805.2352437593895,813.0166747898819,815.4117334676077
1730147918.146315,810.6235980937829,805.2604102015565,813.1346597554481,817.4675898334241
1730147918.1481094,810.5493850444134,805.2862893547565,813.1854124205529,816.8364989067051
1730147918.1496851,810.4773646366615,805.3128376718116,813.1162934882917,816.2090000217216
1730147918.152012,810.4075401707526,805.3401666192038,812.9793135879065,817.9931353630164
1730147918.1548972,810.3395196678201,805.3683716515383,812.8391177507983,822.7765507424639
1730147918.1559143,810.2725744628784,805.3974672830047,812.7254381473762,828.9671385920287
1730147918.1598167,810.2062634183064,805.4274101701797,812.6344384701407,833.8033636403701
1730147918.1619186,810.1414653017538,805.4581489068431,812.5502555452028,835.0679428674886
1730147918.1637192,810.0808600514856,805.4896561132707,812.4617695947862,832.35209350209
1730147918.1676216,810.0274283770877,805.5219287964795,812.3668474286706,827.0769530458463
1730147918.168568,809.9805219871373,805.554962760565,812.2685506878225,821.4438687142119
1730147918.171524,809.9319938326039,805.5887186952773,812.1702599319792,817.2211493456458
1730147918.1754265,809.868091309457,805.623109370853,812.0733794213365,815.1879701796976
1730147918.177522,809.781998632151,805.6580410754185,811.9775852613238,815.3536189931812
1730147918.1793292,809.6929024682353,805.6935139741346,811.8820116729713,817.4532924820754
1730147918.1832316,809.6524582130944,805.7297138026576,811.7860992822634,821.1701300299676
1730147918.187134,809.7123577151309,805.7669532607271,811.6897681796521,825.953315324162
1730147918.187451,809.8479733623788,805.8053514181862,811.5931927418659,830.7507721241557
1730147918.1900337,809.8890525032836,805.8443703105075,811.4965460213124,834.0874931852262
1730147918.1910365,809.5621558952065,805.8826924078771,811.3998905483058,834.6344353893028
1730147918.1931255,808.7147436672371,805.9190685644243,811.3031997819236,831.9462183786071
1730147918.194939,807.584939755712,805.9541908243467,811.2064218603222,826.7779141042578
1730147918.198841,806.7251492881454,805.9922270861741,811.1095220411157,820.6350275268234
1730147918.2027438,806.3655957587664,806.0393380893994,811.0124911564589,814.8704252628855
1730147918.2063336,805.8016298699364,806.0973289057861,810.9153365493817,810.1188454894844
1730147918.2066462,803.8131121459443,806.1552071745004,810.8180716473504,806.572464005398
1730147918.2087288,800.1425932058929,806.1881357948116,810.7207068898997,804.7168285902868
1730147918.2105486,796.5867064027206,806.1750892490115,810.6232371668484,805.5800080353895
1730147918.2144513,796.2397742462498,806.13428914673,810.5256280089095,810.0040571532924
1730147918.2183535,801.1466480466748,806.1482804786833,810.4278183056709,817.5357198576262
1730147918.2222562,810.2872520168414,806.3278047573015,810.3297619034155,826.0842652713047
1730147918.224332,819.7038844646727,806.6838037330778,810.2315029934689,832.8518594106479
1730147918.2251704,824.829012140579,806.9656137192061,810.1332217088586,835.8425256576785
1730147918.2252164,823.33046079596,806.6368303419973,810.0351434486157,834.7376081272289
1730147918.2261586,816.4683005161068,805.1484521281961,809.937261924723,830.5673622174414
1730147918.2300613,808.0912202051239,802.4078115521082,809.8390308846937,824.6909605766114
1730147918.2339635,802.0382558756091,799.0449992575652,809.7394311125689,818.0688633529446
1730147918.237866,799.7826735931756,796.1793328716174,809.6378133805267,811.3349973037031
1730147918.2399354,799.9671130385893,794.8391438661049,809.5353214772091,805.3153501471428
1730147918.2417684,800.0680424136199,795.4420924492676,809.4355961857358,801.230886925293
1730147918.2440991,798.7628613105016,797.6109801838089,809.3427828599949,800.209339087456
1730147918.2456708,797.0168833115899,800.3807515963482,809.2561617240406,802.4794905603206
1730147918.2495732,797.0181963857483,802.7019620312448,809.1647256697588,806.9705690968974
1730147918.2534757,799.9629513059581,803.9906140055537,809.049514954607,811.6825616037694
1730147918.2555387,804.6924647604252,804.3732914699583,808.9005948768723,814.5723869176959
1730147918.257378,808.4234491021019,804.4262541866248,808.7433903546106,814.4403200565635
1730147918.2603068,808.9820672258329,804.6037469281218,808.6484144445244,811.4767765434013
1730147918.2612803,806.6577633862257,804.853055942267,808.6879344354559,807.3119652060371
1730147918.262982,804.1009626671736,804.7682390621654,808.8313020439275,804.395141959143
1730147918.265183,804.275604077898,804.1168231302554,808.84703857756,804.6762557292153
1730147918.2690856,808.0425447096063,803.1907336430074,808.3493036099802,808.169286637747
1730147918.271142,813.2995886948146,802.6050745874026,807.0703216388132,812.5456757414262
1730147918.272988,816.4674408490645,802.7436524886435,805.2218694907237,814.5132063940248
1730147918.2768905,815.2874109303264,803.4248328884403,803.6244866727073,812.2886929289349
1730147918.280793,810.7567871211992,804.1308865113155,803.3874164695181,807.2295600732131
1730147918.2818646,806.5548370674862,804.5566120844899,805.2734976585683,803.0714918166418
1730147918.2846954,806.2393008770506,804.9112597693268,809.1488353227222,803.1448168081861
1730147918.2867453,810.3420394547421,805.6658858724587,813.8601152854106,807.7155347268487
1730147918.2885978,815.7120643453114,806.9844543861045,817.6110218778272,813.5830861755583
1730147918.2925005,817.7568632259964,808.3752274895219,818.6885057335998,816.2751226799594
1730147918.2954433,813.9216631167881,808.9057802442136,816.2894558745483,813.1537153447666
1730147918.2964027,805.6949246406733,807.8487538014697,811.0976850111543,805.1207653418613
1730147918.3003051,797.5405449542949,805.271985637182,805.197242460741,795.7863895596344
1730147918.3007474,793.5814004739591,802.1183948661454,801.1404564574923,788.9168861554075
1730147918.3023486,794.6488800278156,799.6949915545412,800.5637248257932,786.1545213710301
1730147918.3042076,798.012966671321,798.9224209421182,803.2194661824827,786.5604821700758
1730147918.30811,799.939895964548,799.8666574067215,807.146249948488,787.9646482201047
1730147918.3120124,798.927509995425,801.8497276347167,809.9375720301924,788.7520601915
1730147918.315915,796.9255443640504,803.9851563014922,810.2738647737431,788.6353552286507
1730147918.3179522,797.5446103190787,805.6788196727024,808.6745564960133,788.084430487509
1730147918.31963,802.8004910297565,806.7463165898622,806.9644205032492,787.318874652605
1730147918.3198175,811.1796127585658,807.2068112152471,806.8493936876048,785.9996129922899
1730147918.32372,818.6944282100197,807.0975242614568,808.6348493850259,783.8752235995063
1730147918.3276224,822.0723392764702,806.5278479082245,811.0289312024304,781.6061884368438
1730147918.3305798,821.3994082578154,805.834491025933,812.1708308982044,780.8189391285831
1730147918.3315248,819.9389215792211,805.5391243610867,811.0704907546959,783.1901120267552
1730147918.3335557,821.1764849909495,806.0277204029329,808.3094436523659,789.2276506827591
1730147918.3354273,825.5191494240842,807.2074355563049,805.4692086692427,797.664554413808
1730147918.338513,829.4904508432699,808.4752338087479,803.8339939472381,805.9494359645997
1730147918.3393295,828.2685379820572,809.0705665044726,803.5002053918232,811.5998582800415
1730147918.3432322,819.6104725564538,808.5494444407076,803.5867019931608,813.60013312194
1730147918.3471346,805.9766088499443,807.0250122571322,803.2140014740528,812.9038436937377
1730147918.3491588,793.1046510901577,805.0314777522993,802.2835866675864,811.6275956716778
1730147918.351037,786.1536060307355,803.1676824013601,801.391279541718,811.4699184825549
1730147918.3549397,786.3975829385613,801.8027107137881,801.0856626391486,812.5418193667173
1730147918.3573956,790.8481328104841,801.0074357348261,801.2775407371289,813.502595322742
1730147918.358842,794.8174109579613,800.6630422201973,801.3980190520715,812.8135888157036
1730147918.3627446,795.2982875392298,800.5970342585949,801.1304096332428,810.0082650678088
1730147918.364762,792.6800504384352,800.6606131118629,800.9410625460735,805.9611128929253
1730147918.3657162,789.7875503125694,800.7556257198587,801.7838278674569,802.0814722335747
1730147918.366647,789.2820614998005,800.8371884176381,804.1523132087553,799.2368174255736
1730147918.3705494,791.5679277111648,800.8995723427188,807.3649900087776,797.2858475476572
1730147918.374452,794.7640129052718,800.9536253877845,809.8539203794993,795.4713902536274
1730147918.3762784,796.5476481236437,801.0092956675687,810.3051927899248,793.2374807752735
1730147918.3783543,796.1740393701839,801.0695226372767,808.6412606530965,790.7997938584633
1730147918.3803654,794.9378071300553,801.132264091729,805.9499094575323,789.048935714565
1730147918.3822567,794.7813836839474,801.1945692405394,803.4889018401809,788.8509564577141
1730147918.3861592,796.3972517266703,801.2549263064526,801.7713471646103,790.249275353842
1730147918.3900616,798.5642206903428,801.3133821264962,800.5460201048829,792.2137772917933
1730147918.393964,799.2854620763011,801.3706230404159,799.4913672973007,793.2475933682126
1730147918.3951612,797.6640393351208,801.4271815648993,798.7618276437079,792.4766571721874
1730147918.395969,794.8319122602257,801.4831922016899,798.8298803109448,790.3496850452485
1730147918.3978665,793.119030409828,801.5385356783739,799.8899098694405,788.3033993664775
1730147918.400853,794.1623815340496,801.5930599301271,801.50521846902,787.6101618319046
1730147918.4017687,797.52223592526,801.6466958376451,802.8550624281113,788.3666425154507
1730147918.4056716,800.9580592496338,801.6994552086197,803.3289006964889,789.4966846423127
1730147918.409574,802.2018945002592,801.7513793376481,802.9324441625206,789.7796762478147
1730147918.411572,800.857065929809,801.8024987957875,802.1986338374917,789.0333012843306
1730147918.4134765,798.8668289995768,801.8528239439474,801.7438608389606,788.4343687955568
1730147918.414044,799.050860357,801.90235525261,801.8545614177413,789.6665681478975
1730147918.417379,802.7648760933746,801.9510951466773,802.366139328184,793.5530606257873
1730147918.421281,808.5632470798033,801.9990505238272,802.808319024108,799.2751957875488
1730147918.4251838,813.058327478451,802.0462261085618,802.654074171222,804.823329713423
1730147918.4271753,813.4191744391298,802.0926173107791,801.5855373418718,808.3244860429838
1730147918.4290862,809.5700135376427,802.1382143333873,799.7525867115598,809.1789164227473
1730147918.432927,804.3396020077599,802.1830233009936,797.8914131517683,808.1361373579681
1730147918.4329886,801.4446346153308,802.2270928393604,797.0751242864952,806.3784118570888
1730147918.4359894,802.9017075574246,802.270513291446,798.0709791661626,804.5184425749304
1730147918.4368913,807.8513809922421,802.3133537467615,800.7028944012967,802.4220115153543
1730147918.4407935,813.54914739028,802.3555467967623,803.8006072022063,799.9547669608824
1730147918.4427786,817.4863540361591,802.3968197460523,805.9328664064844,797.8528629120283
1730147918.444696,818.8416212659256,802.436833956897,806.4325983034273,797.7329121657535
1730147918.4485984,818.3687388809565,802.4756056585907,805.8799700978407,801.0031443116825
1730147918.4518094,817.3153509479448,802.5139696711186,805.6008530825329,807.5245271344593
1730147918.4525013,816.5034580074713,802.5534687768215,806.5635468039314,815.2975181608969
1730147918.4564035,816.1098157830374,802.5950676737161,808.5836514833218,821.6470209356593
1730147918.458382,815.9400654416438,802.6370018444985,810.4885889467783,824.9517491993389
1730147918.460306,815.7671825983772,802.6737409386618,811.069380667314,825.4153875490362
1730147918.4642084,815.4937003698725,802.6990522302198,809.9970993644915,824.4034524342193
1730147918.4681108,815.1392952985798,802.7141503552725,807.9768511744367,823.2399520350593
1730147918.4706922,814.7618700574798,802.7358352812447,806.1181638381937,822.5282375886343
1730147918.4711258,814.3996226520744,802.7927791570212,805.1347236325072,822.2253719488833
1730147918.4720132,814.058418016076,802.8996585722692,805.0112418693363,822.0506093172073
1730147918.4739854,813.7265498765431,803.0174076993451,805.2767719995254,821.8006836139203
1730147918.4759157,813.3920608877377,803.0391472056122,805.5199885707488,821.434029891077
1730147918.479818,813.0503431048643,802.8568768538764,805.6821451662413,821.0050108972117
1730147918.4837203,812.7028126391236,802.5208800565069,805.9584775700578,820.5754026517177
1730147918.487623,812.3525762056399,802.3885244165231,806.5056207441088,820.1716177977238
1730147918.489575,812.0015124933849,803.0487666332757,807.2718996662414,819.788383235236
1730147918.4895887,811.6497853451211,804.8859018758143,808.0847792493281,819.4101087568722
1730147918.4915254,811.2967063789997,807.5236387671287,808.8648848149373,819.0265149754881
1730147918.4954278,810.9416386427904,809.752596987223,809.7385139834788,818.6360312108387
1730147918.4993303,810.5843532746741,810.2768127644429,810.9371459216629,818.2418141413777
1730147918.503233,810.2249282020389,808.7556553741675,812.5639459173391,817.8470823896511
1730147918.505192,809.8635132973321,806.1585589057834,814.4194557928874,817.4530720784198
1730147918.5062623,809.5001848790117,804.0554520928506,816.0404890002776,817.059396520991
1730147918.5071354,809.1349295365127,803.4899324774434,816.942358400973,816.6652151383462
1730147918.508458,808.7676936547124,804.4080982549872,816.8885140637445,816.270020664013
1730147918.5110378,808.3984302306882,805.9888135181267,815.9948287579542,815.8737705301863
1730147918.5149405,808.0271152620852,807.3870131734968,814.6244020884061,815.4766525260854
1730147918.5188427,807.6537408078835,808.180330463734,813.1832130044827,815.078836106861
1730147918.520795,807.278302378101,808.2855810339048,811.949721453693,814.6803702732088
1730147918.5227451,806.9007918318165,807.6880021181992,811.0092351983131,814.2812115912938
1730147918.5266476,806.5211971682702,806.4092290957717,810.317074890385,813.8813030363311
1730147918.527341,806.1395054308769,804.722832009882,809.858612974814,813.4806408609494
1730147918.53055,805.7557049768441,803.2357651378296,809.7692817414835,813.0792946099245
1730147918.5344524,805.3697857249393,802.5582329978223,810.2512568118514,812.6773586894842
1730147918.5363986,804.9817381369959,802.7796319361291,811.3128252313289,812.2748375444306
1730147918.5383549,804.591552617985,803.290962477668,812.6060846952167,811.8715314086062
1730147918.5413988,804.1992206563812,803.2427361976521,813.6102698440537,811.4670702552435
1730147918.5422573,803.8047374708068,802.3164698858454,814.0495459473809,811.0612328167903
1730147918.54616,803.4081036565215,801.1341663840788,814.1331419898045,810.6544649807659
1730147918.5462234,803.0093219721889,800.906672953884,814.3432759872771,810.2481128338424
1730147918.5500624,802.6083876706058,802.5774295527781,814.9590300916025,809.8436566178336
1730147918.552002,802.2052780779071,806.1418830189157,815.7892990800854,809.4407348624563
1730147918.5539649,801.7999556747588,810.6424839933821,816.3774277297524,809.0352254248213
1730147918.5578673,801.3923981088881,814.7530578235499,816.4579596877959,808.6202475980091
1730147918.5617695,800.9826471958141,817.427471907189,816.2005994565916,808.192503271067
1730147918.5651062,800.5708308388178,818.1727448020174,816.0097646816656,807.7618225658548
1730147918.5656722,800.1570900804847,816.9621901176689,816.0991407760127,807.3542918673937
1730147918.5676053,799.7413914991065,814.1148880538034,816.268283258677,806.9959140589417
1730147918.5695746,799.3233455876843,810.3195965530343,816.0901043739104,806.6747600685213
1730147918.573477,798.9023030782879,806.6186829037603,815.3192876948926,806.30819431225
1730147918.5765352,798.4779578877124,804.0924909845115,814.1392871293147,805.7698398341083
1730147918.5773797,798.0512522312665,803.3236480571363,813.0325085381922,805.0172260379234
1730147918.581282,797.6246689771552,804.0620827235323,812.4000541746869,804.2708712202655
1730147918.5832086,797.2006733974326,805.4228428653242,812.2589221935415,804.061170878248
1730147918.583989,796.7781146461791,806.4999601394283,812.2490385790454,804.9256329340767
1730147918.5851843,796.3491116493489,806.9284928392442,811.9112722978359,806.8129365313096
1730147918.589087,795.9015930705623,806.9918031554377,811.0085630100118,808.7781969770606
1730147918.5929894,795.4312997324737,807.2512815956236,809.6884246961284,809.6315974733815
1730147918.596892,794.9583551531773,808.0321791953579,808.4276234541844,809.2220385258945
1730147918.598812,794.5303793060503,809.1696651455603,807.7963939825378,808.9686386686744
1730147918.6007943,794.1897800962038,810.175848997637,808.1201916608286,810.7546853860604
1730147918.6028717,793.9052876462831,810.6327216176395,809.1956383638054,815.0552891242818
1730147918.6046968,793.5199384939629,810.4483750862673,810.2950418031644,820.109898840055
1730147918.6085992,792.813290996685,809.7879892229105,810.5816575632929,823.0324351405224
1730147918.6116717,791.7400225609492,808.8337867038914,809.7205011689334,821.9856620576153
1730147918.6125016,790.73530251801,807.681793214305,808.2052928513124,817.6027535770999
1730147918.6144154,790.7416450247453,806.486048542236,807.0707978401209,812.474357393386
1730147918.616404,792.6124605303586,805.6376174542403,807.1625240916165,809.1203351379255
1730147918.6203065,796.1266859544504,805.6849722313349,808.5314082703865,808.0951197205093
1730147918.6217544,799.6448052737969,806.968002734712,810.4229016776924,807.7542662562823
1730147918.6242087,801.2374919801025,809.2716344164337,811.8314576387708,805.8450037535009
1730147918.6281114,800.5861549615917,811.8429833097944,812.1580609505313,801.584125375306
1730147918.6300187,799.7672156024399,813.7989371081147,811.5022467127317,796.4943753090829
1730147918.6320138,801.8361333303916,814.5954781015539,810.4756186149224,793.321928963624
1730147918.6359165,808.2331917527199,814.197807266646,809.7781925982339,793.9545346573307
1730147918.639819,817.2669754092243,812.899829053708,809.8562538102481,798.0359839998395
1730147918.6406372,825.086275999335,811.051396724754,810.7872677938572,803.3113421869693
1730147918.643721,828.4485727965376,808.9483196378274,812.3320319378461,807.2911712504533
1730147918.645622,827.0972015983974,806.8819654927911,814.033546170694,808.851149898275
1730147918.6468084,823.8594994813072,805.1602022325162,815.3283264045484,808.6086370611696
1730147918.6476238,822.3548136974117,803.9951390575162,815.7212584442451,808.0006567109917
1730147918.6515262,824.0760953359116,803.3653905467897,815.020050013778,807.9741969958151
1730147918.6554286,827.1660709632749,803.0294925818374,813.4767040801964,808.355203244479
1730147918.659331,827.9332872355382,802.7143244640284,811.6534580248264,808.2721112027812
1730147918.65952,823.927443733442,802.3116103878112,810.0352886474332,807.1001278915469
1730147918.6612253,816.0405461301999,801.9061413696481,808.6791080106121,805.0258144056162
1730147918.6632335,807.8839481413215,801.6384668946239,807.2226109065305,802.7865785276736
1730147918.667136,803.0046787777322,801.5624372549665,805.2872400353785,800.9495781129368
1730147918.6710384,802.2932996713976,801.6224164320455,802.9449421028626,799.4731587572328
1730147918.6749408,803.6392710643278,801.7250520844302,800.8257787996644,797.9238502685503
1730147918.6768286,803.9005789131974,801.8087574359846,799.7380635637585,796.0574395865417
1730147918.678403,801.4093258615794,801.8607159104139,800.1070436526277,794.1904753296369
1730147918.6788433,797.0204686684682,801.8959883171159,801.7125190408589,793.0583006712938
1730147918.6819448,793.0709005329024,801.9318521701024,803.9427040832052,793.2969947017401
1730147918.682746,791.302226982896,801.9756269189216,806.306866615016,794.9233093213755
1730147918.6866484,791.5295508187675,802.0257409432523,808.6994688217911,797.178272854378
1730147918.6905508,792.1404836118867,802.0777708369905,811.1436387516909,798.930185453367
1730147918.692432,791.9321051694126,802.1288272621075,813.2855005234323,799.4883298719695
1730147918.6944532,791.573535279388,802.178484141866,814.2429787281493,799.2483213953642
1730147918.6972854,793.2023552793421,802.2276396926586,813.1275009931718,799.4839030674183
1730147918.6983557,798.2951374015506,802.277199563762,809.8483695555478,801.1963780924899
1730147918.702258,805.6562861510797,802.3275061286636,805.4057092395648,803.910290017725
1730147918.7061603,811.5382122001863,802.3784450696864,801.2938467689156,805.6574985367944
1730147918.7080352,812.1848217286638,802.4297765848761,798.5089640907104,804.4810867970691
1730147918.710063,806.8961579848574,802.4813563267742,797.0526305929724,800.2981333435849
1730147918.7139654,799.0397940156906,802.5331708794029,796.3036322228444,795.394091773689
1730147918.7161682,793.9744111894074,802.5852710124339,795.7694561221635,792.8959467299296
1730147918.7170813,795.3157521922237,802.6377021108038,795.4473659829565,794.3493496220484
1730147918.717868,802.318033871686,802.6904765512029,795.5515753439839,798.3644902441082
1730147918.7217703,810.3394646290985,802.7435821756784,796.0541166208009,801.4728194536096
1730147918.7236383,814.0791026358203,802.797003225573,796.6074004074559,800.59954687184
1730147918.7256727,811.2107162342592,802.8507358756771,796.9138838105107,795.313923883095
1730147918.7295754,803.7310625867734,802.9047908927739,797.0863048781732,788.193091966513
1730147918.7334778,796.1059802257374,802.9591821091759,797.5635931337624,783.0590431049131
1730147918.735051,791.8297603913721,803.0139048920091,798.648988519934,782.4240170457231
1730147918.7373805,791.2053538745693,803.0689192280181,800.1485983153335,785.9896119960251
1730147918.739242,791.9450186378356,803.124162715994,801.4808524923824,791.1406870492325
1730147918.7412827,791.7039099952042,803.1796113612243,802.1475789254608,794.8737909804267
1730147918.7451851,790.1710577392463,803.2353632137159,802.1173282003685,795.7045384181426
1730147918.7490876,789.052809103937,803.2916548230685,801.7882506188893,794.3405079521079
1730147918.7522178,790.2849468872871,803.34869847997,801.6102319537097,792.8818929410197
1730147918.75299,794.2129957824826,803.4063393919347,801.7378045226033,793.2510073355045
1730147918.7539337,799.2503750965894,803.4637920848334,802.007311717669,795.9263853443371
1730147918.7548454,803.1513226950397,803.5199440325138,802.2008931459455,799.7619352504116
1730147918.7568924,804.766733344636,803.5745374332661,802.3054169491157,802.9354181741257
1730147918.7607949,804.8799544090313,803.6296760711022,802.520027250842,804.3276198132876
1730147918.7646973,805.4938695385359,803.6898979679828,803.0337375762169,804.3399910001625
1730147918.7685995,808.1295803169211,803.7588054651665,803.802231699769,804.5383646251645
1730147918.7704487,812.4529812148594,803.8325840405304,804.5134792397141,806.3652039176346
1730147918.7725024,816.3278120218142,803.8957016953837,804.7381340445129,809.9133490594248
1730147918.7728164,817.3400523581544,803.9279252398159,804.1411597935416,813.7819068813693
1730147918.7764049,814.7033202894595,803.9274414931787,802.6637417100301,816.1941249926626
1730147918.7803073,810.0917350469243,803.937759990875,800.6443701012383,816.4579478908994
1730147918.7842095,806.6791330126648,804.0440714202543,798.82190975488,815.4767263625439
1730147918.786052,806.992922507989,804.3031182527205,798.1134956517616,814.8146442538673
1730147918.7873542,811.1182322844587,804.6181132203607,799.1379572706276,815.1358750380789
1730147918.7881122,816.5898251043848,804.660833243756,801.6948743270714,815.4534123893741
1730147918.7916992,820.1153524482631,803.9917615057057,804.6174759422437,813.9406211574388
1730147918.7920146,819.9316175635968,802.404962342534,806.3021488869849,809.6715829970024
1730147918.795917,817.049331430901,800.2503342454816,805.7168608883238,803.7928660550589
1730147918.7998197,814.3585324642202,798.3680575112725,803.1884466673355,799.0517611320709
1730147918.8016553,814.1933979989841,797.5633766616634,800.3066886768262,797.968227697152
1730147918.803722,816.3203152051357,798.019743933168,798.9440119736261,801.0822782288212
1730147918.8076243,818.1414800866812,799.1771867339119,800.0971112535634,806.653816037479
1730147918.810582,817.0630666491776,800.2151136883041,803.3618752492846,811.9951092635525
1730147918.8115268,812.9747865376303,800.7402971239094,807.3242839508911,815.320067498264
1730147918.8154292,808.5597450784328,801.0972621385247,810.5023346845479,816.6805570214948
1730147918.8172586,807.0683832636854,802.0431334445684,812.1627025574141,817.4080043598185
1730147918.819332,809.5093388862359,804.0563712590953,812.5021229470802,818.6975791899162
1730147918.8224907,813.7522022477344,806.8304471219465,812.2116041442562,820.5602182424657
1730147918.8232343,816.3168184803095,809.3383661867551,811.9000710607293,821.9320644320155
1730147918.8271368,815.2513061190115,810.4119859708655,811.8159514223257,821.7171352262538
1730147918.829465,811.5963178936818,809.4212865803116,811.9154645308529,819.8048395073056
1730147918.8310392,808.2295811540323,806.6180905734994,812.0624321882116,817.2187876452368
1730147918.832862,807.1924240640777,802.9915283116414,812.1679546135753,815.3484537256481
1730147918.8349416,807.9038390462138,799.8056471445897,812.2196245319684,814.9631600791441
1730147918.838844,807.8501717205872,798.1127277717547,812.245872767089,815.8001568366271
1730147918.8427465,805.1289704468799,798.4385354806739,812.2749908450807,816.9817522609478
1730147918.8466487,800.5728585405254,800.6732962880889,812.3175609875252,817.8645525838608
1730147918.8483474,797.5256219578911,804.118277945281,812.3699551450164,818.6262181255975
1730147918.8484652,799.3416954202798,807.6552941302946,812.4247133211314,820.0889508425178
1730147918.8505514,806.5817300598591,810.0529879681709,812.4773971594152,822.8381332994022
1730147918.8544538,816.1379388752667,810.4040573929605,812.5276471516435,826.3058913108714
1730147918.8576274,823.0384243683958,808.5629749250934,812.5770881893914,828.688357227295
1730147918.8583562,823.6711014007622,805.3165822377605,812.6271893396541,828.0286705967311
1730147918.862259,818.1357660027594,802.0607341089548,812.6784413900928,823.7930401741487
1730147918.8640687,810.0876006844985,800.0636247943346,812.7306147109349,817.644035314116
1730147918.866161,804.250141162163,799.7724458258671,812.7833200261773,812.5781739276331
1730147918.8672304,803.4079654414505,800.68831434476,812.836348377613,810.9170462798605
1730147918.8700638,806.9721228837221,801.925578046928,812.8897033298697,812.710385583996
1730147918.8739662,811.9723284356112,802.9850824762267,812.9434813860154,815.8864990688894
1730147918.877869,815.4957216816118,804.0590631501119,812.997764020193,818.0282679363693
1730147918.879672,816.5688088210009,805.605863052882,813.0525847265262,818.2180699231347
1730147918.881771,816.1147993942755,807.630671834566,813.107948707573,817.3558427834032
1730147918.8856735,815.3848472180928,809.4135877075338,813.1638565538587,816.8143260185867
1730147918.8861132,814.556910104097,810.0161821111896,813.2203034220868,816.8543085773554
1730147918.889576,812.8320255444903,809.1454653260513,813.2772615298442,816.3577704593213
1730147918.892764,809.7760791668361,807.5755529632925,813.3346804969527,814.0815817557035
1730147918.8934784,806.4395743981588,806.6865877810322,813.3925370149718,810.1792081429772
1730147918.8952754,805.029921468409,807.4561691830822,813.4509203384472,806.5319737483857
1730147918.8973808,807.2646795655096,809.7369979815318,813.5100678416484,805.5282392424767
1730147918.9012833,812.7524466715976,812.4277510316085,813.5702283629405,808.2541978207673
1730147918.904996,818.835912257878,814.3759781330931,813.6313239105444,813.5151009245823
1730147918.9051857,822.2370179885522,815.2168066416293,813.6926361864478,818.4356721654697
1730147918.9090884,821.3968064202506,815.4355024454111,813.7530081298968,820.2146426604405
1730147918.910879,817.7242900605197,815.6793982193262,813.8119510257992,817.8219470454574
1730147918.9129908,814.6732118119922,816.0325386298941,813.8712486102537,812.5261940118518
1730147918.9168932,815.2133846045433,815.9418544765998,813.9353849987604,806.9745597572577
1730147918.9207957,819.5801567063489,814.803723525811,814.0086135660956,803.5147417855702
1730147918.923879,825.0505957434093,812.5932548827075,814.0884707806712,802.9003493760646
1730147918.924698,827.936166121523,809.9496266223888,814.1604447377051,804.1682788761759
1730147918.926482,826.2360363219001,807.710764963859,814.2030701092641,805.6047938046738
1730147918.9279003,820.8936182789294,806.382893274848,814.2098419209192,805.9898806233015
1730147918.9286003,814.7838746305001,805.9805528890536,814.2183041621026,805.236291222966
1730147918.932503,810.4753938593905,806.2372551710974,814.3132409440084,804.0901116053082
1730147918.9364054,808.7250982690741,806.8702648084304,814.5640421047513,803.2694286491652
1730147918.940308,808.6801924315529,807.6610732617725,814.8970973748586,802.7860629981203
1730147918.9420853,809.069422837797,808.3984630236049,814.9936806601955,801.9965657546263
1730147918.9427614,809.1280070863717,808.8671570400081,814.3662410076225,800.3143664245332
1730147918.9442103,808.751603400667,808.9431668144297,812.6724234844822,797.9385267252518
1730147918.9481127,808.1735138055012,808.682750126824,810.0764734743799,795.9002027632523
1730147918.9520152,807.6226674669949,808.287168129188,807.3160512431291,795.3087240251657
1730147918.9559178,807.18184873499,807.9653360163156,805.3194428400379,796.4267802551163
1730147918.9576886,806.8188894327777,807.808939849463,804.6078365359823,798.4065550599557
1730147918.9598205,806.4721662316625,807.7520979936124,804.9244583605149,799.935351940152
1730147918.9616442,806.1058396477777,807.6107788710751,805.3661412188393,800.2181245634771
1730147918.9630368,805.7175141426658,807.1872275434462,804.9287153874633,799.4542303378589
1730147918.9637227,805.3206425430873,806.4318007305056,803.1272392117726,798.4637250666443
1730147918.9676251,804.9270631526759,805.5860693939844,800.3515150349735,797.8788987120976
1730147918.9715276,804.5405033658341,805.1421592718791,797.7721570004857,797.6696047001549
1730147918.973292,804.1588555673443,805.5202205900669,796.7983864468893,797.4466191260683
1730147918.97543,803.7788013574212,806.6346633191065,798.2891055783176,797.2528287090377
1730147918.9793324,803.3985555717305,807.7482061627414,801.9229430081233,798.0122830858934
1730147918.9805267,803.0180872237542,807.878023851806,806.1889765817546,801.0005105715464
1730147918.983235,802.6381176190747,806.5319571784671,809.1677951889432,806.5981799449601
1730147918.9871373,802.2592191761213,804.167922057477,809.6938488950875,813.4312139333214
1730147918.9888952,801.881521888023,801.9343427348562,808.0768241874766,818.8783228041069
1730147918.9910398,801.5048660923459,800.8690043783114,805.7895437181933,820.766341213893
1730147918.9949422,801.129051914779,801.2138629945944,804.3351425365289,818.9019758353606
1730147918.9981732,800.7539709967634,802.3745716245986,804.1989873137261,815.108972370309
1730147918.9988446,800.3795982796788,803.465403144419,804.706782951775,811.7605011877592
1730147918.9994097,800.0059235507518,803.9170251931926,804.8102342518719,810.1579427064721
1730147919.0027473,799.6329064980694,803.685994806126,804.0494029728163,810.0896662740859
1730147919.0044987,799.2604945436959,803.0413023142415,802.8818736314689,810.590731383927
1730147919.0066495,798.8886871779391,802.245108451606,802.2087654939367,810.8912352581292
1730147919.0105522,798.5175803218249,801.4111926430144,802.6271227304748,810.7801500351804
1730147919.0144546,798.1473035273212,800.5565142144463,804.0724965645257,810.4223882706825
1730147919.0182924,797.7778171170497,799.6867473190749,806.0422813024692,810.042654748048
1730147919.018357,797.4086912192578,798.8147572076887,808.0379906499362,809.7513470997744
1730147919.020102,797.0391665441651,797.9563195647147,809.7749099998417,809.5408699083304
1730147919.0222597,796.6687789169356,797.1782584712631,811.0892154440177,809.3576864590857
1730147919.026162,796.2983836949918,796.6702391848987,811.8353619108816,809.1619648245116
1730147919.0300643,795.9306197229232,796.7245875095826,811.9964002322872,808.944642651488
1730147919.03331,795.5683952724053,797.5657861181006,811.8560233545448,808.7155332848841
1730147919.0339668,795.2109740712057,799.1286553450572,811.9002178921415,808.4864185335199
1730147919.035705,794.850168330169,800.9773546578899,812.3893014477645,808.2625514432302
1730147919.0371752,794.4723152953977,802.4776226720298,812.973731796968,808.0430834608866
1730147919.0378692,794.0708368346511,803.1379177736253,812.8027322042162,807.8250606902133
1730147919.0417717,793.665165772504,802.8857770389887,811.1473916475809,807.6064572732967
1730147919.045674,793.3069805698518,802.0756533708934,808.0385558302279,807.3868995693184
1730147919.0495768,793.0478769755136,801.2260939957466,804.3482491031224,807.166945302932
1730147919.0513086,792.8644026419258,800.6964408699612,801.2248705327132,806.9471920200498
1730147919.0534792,792.5931352989803,800.539412606215,799.3658618864926,806.727869243836
1730147919.056058,791.9843142729657,800.5782396857268,798.7195985445397,806.5088933789705
1730147919.0573816,790.9558192182634,800.5623660090114,798.7716206119628,806.2900872338173
1730147919.061284,789.951724359163,800.2641046321611,799.0515067169479,806.0713331731903
1730147919.0651865,790.0465127188947,799.5333761430167,799.3934495929786,805.852602079684
1730147919.066912,792.3786323713733,798.3888022520406,799.8235220862747,805.6339108197773
1730147919.0684464,796.9920692980921,797.1082549689132,800.3210025003494,805.4152754632076
1730147919.0690887,802.0222180427063,796.1756006955603,800.7438572248008,805.1966917898771
1730147919.0729914,804.3720941237958,796.028067646799,800.9570815877677,804.9781397151174
1730147919.0749407,801.8611855540607,796.7589912789642,800.9791788612475,804.7595955337838
1730147919.0768938,795.225330655863,798.0240023786839,800.9823251215981,804.5410404323228
1730147919.0807962,788.1046563526523,799.254209021852,801.1592167039599,804.3224624292438
1730147919.0825152,784.7438102500912,800.0265451634824,801.5841956206884,804.1038536499786
1730147919.084699,787.1073659712471,800.3155076284834,802.1628304303626,803.8852053161272
1730147919.088601,793.6830035104487,800.4608271181531,802.6786235319611,803.6665026421604
1730147919.0925038,800.8883927582451,800.9202507401085,802.9104153006444,803.4477233074225
1730147919.0938234,805.8611374526366,802.021057740364,802.7895498686083,803.228844441286
1730147919.0964062,808.3259516371487,803.8653385299485,802.5266365136848,803.0098591972358
1730147919.0981183,810.1283621774469,806.3673883333425,802.5931596486066,802.7907923704685
1730147919.100309,813.0737204775158,809.2934284095144,803.4958631411636,802.571691787913
1730147919.1035829,817.088223455915,812.2343857236334,805.4430655375515,802.3525760628385
1730147919.104211,820.2808040557386,814.589517790526,808.127191728321,802.1333566558926
1730147919.1081135,820.7364872816463,815.6969527838286,810.7923397556717,801.9138132716015
1730147919.112016,818.3853075424335,815.1331528252458,812.5593994954303,801.6937290130774
1730147919.1127062,815.2833138278478,813.0159562388754,812.8256239268311,801.4732007513481
1730147919.1137218,814.0279609299891,810.0680786403739,811.5463018572235,801.2529059968577
1730147919.1159184,815.6158979180498,807.3199764225503,809.2829360645705,801.0338806379793
1730147919.1198208,818.5443522629218,805.5784123726883,806.9833998759913,800.8164817402692
1730147919.1237233,819.9604793527889,804.9869857359889,805.5621575673244,800.5989619309371
1730147919.1276257,817.974661521412,804.9981076742043,805.4832029199999,800.3772119271346
1730147919.1293252,813.2633548976221,804.8228821992406,806.5979965429918,800.147593254651
1730147919.131528,808.6403891469414,804.0727707076937,808.340176798097,799.9128369231945
1730147919.1315887,806.9217962294055,803.1230955528864,810.119496840626,799.6864831649668
1730147919.1354306,808.7797811563529,802.8925911255703,811.6239896485932,799.4874202238459
1730147919.138719,812.279429109273,804.1566963046179,812.8464194666533,799.319165179234
1730147919.1393332,814.4593791757798,806.8814477748092,813.8867971440294,799.1432676052418
1730147919.1432357,813.7067425865501,810.0835691739642,814.7469864721983,798.8761697970745
1730147919.1449287,811.0225108367679,812.3550305336867,815.3059263178857,798.4404880498221
1730147919.147138,809.1195101905604,812.7059957915424,815.4730527542647,797.853852162484
1730147919.1504717,810.0492477775621,811.146408941912,815.3283200661655,797.2586386712189
1730147919.1510406,813.322941023689,808.6161614811333,815.0603531209346,796.8050454545227
1730147919.154943,816.1524282066717,806.3376452281569,814.732274150574,796.4671007897518
1730147919.1588454,815.6816642757772,805.0622709276079,814.1211916179277,796.0042820045848
1730147919.160532,811.3847365426523,804.7318647854315,812.8454538961802,795.1668428160756
1730147919.162748,805.6492249625547,804.7426331968637,810.7220980514021,793.9939290677436
1730147919.1666503,802.0599849770853,804.5340367718095,808.056458731841,792.9237176133707
1730147919.1693544,802.7307841172181,803.9976981968452,805.5986296136412,792.5330868465026
1730147919.1705527,806.7122267939438,803.4017167292906,804.1729241189964,793.025771971026
1730147919.1738558,810.633620523372,802.9746767896196,804.241911509265,793.9042514751918
1730147919.1744552,811.1065542935787,802.5899446098163,805.694166301716,794.2505387501042
1730147919.1761353,807.1919369598768,801.8773351941614,807.9592810880913,793.5487992076124
1730147919.1783576,801.1630001582206,800.6804896023332,810.3367674458717,792.3613802189542
1730147919.18226,796.9356638772815,799.4404816792111,812.3271707754062,792.0824735709988
1730147919.1861627,797.219867292529,799.1091146859395,813.7866548065981,793.739850852677
1730147919.1882372,801.5056385792547,800.5587928592079,814.8321113576546,796.8315112720489
1730147919.1900651,806.4828742972296,803.8672012314282,815.5616976279543,799.4100616683124
1730147919.1917386,808.6044881177042,807.9973378179936,815.785105765278,799.6095564108442
1730147919.1939676,806.7322749819426,811.1630210345038,814.9945061359801,797.387861693508
1730147919.19787,802.7368363312522,811.7260436771562,812.6759309633638,794.8620017678106
1730147919.2017725,799.6851901551196,809.109104698106,808.8058138753183,794.7601205841898
1730147919.205675,799.2782966268068,804.1758335851599,804.1790864685307,798.1829633236202
1730147919.2071202,800.6962317024238,798.8594671069787,800.2558856367838,803.5192825339997
1730147919.207342,801.6370596828282,795.2777808745835,798.506142362226,807.4447990435143
1730147919.2089922,800.4404957884803,794.8203276792177,799.5904904559848,807.295382986375
1730147919.209577,797.417244850755,797.6133326031361,802.8968919619716,803.0594130165935
1730147919.2134798,794.3679103880412,802.5257869882232,806.8018681120299,797.5105867741811
1730147919.2173822,792.9021229673618,807.6744433831514,809.5757785944558,794.3743527906945
1730147919.2212846,793.1596831459711,811.2308379971457,810.3714736085726,795.9042330456313
1730147919.2229452,794.0680975836015,812.1896994056472,809.6175254973678,801.6674105124489
1730147919.2251873,794.7664499300222,810.7193504038011,808.5516241946424,809.2778928846211
1730147919.2260027,795.6739302142698,807.9123831033551,808.2731242041683,816.1843597243526
1730147919.2290895,798.0235094414292,805.1154592408049,809.0246168869749,820.9398399615304
1730147919.2329922,802.2494911259123,803.2625291077832,810.1742387210937,823.2066370687415
1730147919.2368946,806.8867834618876,802.5666662325112,810.8100417145237,823.0824973343873
1730147919.2385485,809.2992982656095,802.635124189449,810.4434918494197,820.783950701421
1730147919.240797,807.8491700887819,802.8264437344365,809.3235206938944,817.0100386981749
1730147919.2441287,803.6508115110045,802.6161310311766,808.2042855138624,813.3725194476898
1730147919.2446997,800.2340214096147,801.8118610501144,807.8005901418627,812.1071084336337
1730147919.2448857,801.1501907977221,800.5509832174322,808.3469620761927,814.9579696474499
1730147919.248602,807.3069009820877,799.1156939145995,809.55912964792,821.95561430715
1730147919.2525043,816.1221651934052,797.7212818060523,810.9751313835839,831.057659687743
1730147919.2541518,823.2123050250141,796.468199880862,812.3598370883794,839.0926029023768
1730147919.2564068,825.3898461508173,795.4978512566811,813.8251778795205,843.5232999795584
1730147919.2603092,822.7648914560641,795.158202476689,815.5813287290697,843.8886547827691
1730147919.2637684,818.432897230332,795.9261184977968,817.5565563068265,841.8919030822613
1730147919.2642117,816.0252092570582,798.0549409438206,819.2209274640148,839.9919918691662
1730147919.268114,816.9504657509037,801.2111916146349,819.7686314809923,839.4648335247564
1730147919.2697551,819.3607934357739,804.4307660630539,818.5441380950509,839.4011601127187
1730147919.2720163,819.6203636093602,806.4978169373512,815.4443804130343,837.4917186241239
1730147919.2759192,815.2308878343326,806.5445451095097,811.05949375512,832.069566329197
1730147919.2792654,807.0609907596263,804.526033998811,806.4747832605285,823.8143212632297
1730147919.2798216,799.1447173323248,801.29671646714,802.8392660959125,815.7069662825814
1730147919.2826512,796.0299985720375,798.2227977087312,800.9086459118842,811.1700381449122
1730147919.283724,799.5028856718325,796.513752150665,800.7599527719444,811.7617319882759
1730147919.285359,807.1296064067686,796.6412453349312,801.7960183756333,816.1658954982013
1730147919.2876265,813.8536274525126,798.1954255123368,803.0530572606845,821.2376530403993
1730147919.2915287,815.5921302060119,800.2514303148816,803.6935824866707,824.2769863210979
1730147919.2954314,812.127219580401,801.9638900535026,803.4419581945982,824.7447591241676
1730147919.2993338,807.0408954279383,802.9828495779567,802.7097084477443,824.114861726662
1730147919.300962,804.7952297748419,803.4909062553032,802.3282938056901,824.1401430735352
1730147919.301534,807.3602818061344,803.9585429853792,803.0534490577026,825.1523618833868
1730147919.3032362,813.0358128413108,804.8240766038906,805.1332306907808,825.8969288995903
1730147919.3071387,818.1525858154646,806.2384381992646,808.1635417027157,824.9387304227579
1730147919.311041,819.9938776989418,807.9611260264594,811.2799985479616,822.2597593944769
1730147919.314402,818.5431889531892,809.4780534597943,813.5735970959846,819.5839029822064
1730147919.3149436,815.935778682917,810.305311343255,814.5199942441305,819.1580940649119
1730147919.3165653,814.4476829210765,810.2734571021391,814.2015170412345,822.0234553299149
1730147919.318846,814.8315532612174,809.5788177152609,813.2090867813146,827.158804474727
1730147919.3204167,816.2146357488862,808.6089320706287,812.3061307902632,832.1502108823427
1730147919.322749,817.3502431282494,807.746364609171,812.0764608910921,834.8899682917922
1730147919.326651,817.9706944224013,807.2924209810975,812.7348495384069,835.0373955380647
1730147919.3305535,819.0340840450219,807.4487471382325,814.110193018639,834.0955375420846
1730147919.3321686,821.649892958346,808.2455665988796,815.7187353049904,833.9765786575815
1730147919.334456,825.6407766422824,809.4572047205902,816.913153465627,835.19168943283
1730147919.3383584,829.1231403820998,810.6534028940405,817.155043947344,836.2504371071119
1730147919.3392994,829.7164373984054,811.4259213254946,816.3341822580568,834.9134810251924
1730147919.3422608,826.5481008180142,811.6301549267656,814.8720495229054,830.2906398345981
1730147919.3461633,821.3523301170144,811.4322085150231,813.4185408448178,823.9250954059366
1730147919.347772,817.5396838179308,811.1172325847032,812.327179107459,818.8212420582163
1730147919.3495383,817.7460223232135,810.8316909241089,811.3789814648371,817.1453678010018
1730147919.3500657,821.6932171423164,810.4934108362462,810.0287845809445,818.4604563738307
1730147919.353968,826.089861087386,809.9510447373904,807.9258465918981,819.9162382827138
1730147919.3578706,826.8093455649357,809.2420897078474,805.1953545845963,818.2698368427906
1730147919.3581822,821.8283478950541,808.6908439553173,802.268341118745,812.2277072070264
1730147919.361773,812.7377967092381,808.7111361810893,799.5460692751548,803.3706474340352
1730147919.3633752,803.6316053532289,809.4473381623139,797.2856258750911,794.9640139263313
1730147919.3656754,798.1625158403568,810.5706483400174,795.7248645686083,789.53094700501
1730147919.369578,797.0105577927692,811.4516890041341,795.143780089218,787.0522509573883
1730147919.3734806,797.7195772133679,811.5991337190818,795.6893870686655,785.2428142353803
1730147919.3770647,796.9656119333665,810.98580605911,797.1544970603197,781.7220228853492
1730147919.377383,793.3492245322391,809.9630103457173,799.0017209547495,776.2875060891756
1730147919.3789785,788.4169653347772,808.8447072196981,800.6514572120792,771.3233546118727
1730147919.3812854,785.1491640434147,807.560711250361,801.7672328044522,769.9050283165149
1730147919.3846748,785.2868202394453,805.7184850817803,802.3009078805816,773.1464100619372
1730147919.385188,787.8031242929289,803.0354534612109,802.3305588039686,779.0284502681891
1730147919.3890903,789.8055003240215,799.7663653173712,801.9211189861078,783.7241777161776
1730147919.3929927,789.0768116896651,796.7492477207729,801.1728119191471,784.3666487273865
1730147919.3945818,786.0790911204228,795.0027896615372,800.3817556597008,781.0749157488373
1730147919.3959477,783.6940814266706,795.1489156309262,800.0688547852501,776.7338524604919
1730147919.3968952,784.8719085436653,797.0498315195889,800.7254640638067,774.8199452578265
1730147919.4007976,790.1232061782467,799.8910451292583,802.423097390879,776.9854762047311
1730147919.4047,796.9536678267685,802.6458040646886,804.6457810993329,782.1457970913906
1730147919.4086025,801.7461296480584,804.6156036661326,806.5622178179665,787.5648998136107
1730147919.410185,802.5551654845038,805.7067917331317,807.5473333227103,790.9098850798478
1730147919.412505,800.5150108267798,806.3004802350267,807.5041194462943,791.6212807408862
1730147919.4148304,798.7287264221453,806.8605624297426,806.7308413864193,790.6899315985675
1730147919.4164076,799.6001866242768,807.5849782949472,805.5434534156361,789.352363488423
1730147919.4198115,802.8192808058363,808.3287020990064,804.0964750741738,788.0309289502167
1730147919.42031,805.6166855522614,808.7984508238138,802.5776646591221,786.382544309766
1730147919.4242125,805.0214834783305,808.8248248235136,801.4657123948496,784.1451936830398
1730147919.4257886,800.2447659058394,808.4898407220013,801.3945538040479,781.7576351328688
1730147919.428115,793.262606497691,808.0272874704326,802.5866422421223,780.0888029232467
1730147919.432017,787.1897336753324,807.6050824143676,804.3873707900268,779.5851888073105
1730147919.4337132,783.8557643385368,807.1899832707569,805.495920864045,779.7336441254201
1730147919.4359198,782.6130158990305,806.6082902038327,804.8791114413227,779.4102968592107
1730147919.4398222,781.3201998275151,805.7280887413519,802.6538130520098,777.828209306313
1730147919.441392,778.5854438205997,804.576898125821,800.1591813584039,775.251431177505
1730147919.4437246,775.2853297141274,803.2852217362819,799.0975220706536,772.876754645204
1730147919.4476273,774.0017011046021,801.9377691154436,800.3721824572781,772.0102678302546
1730147919.4515295,776.8069159163516,800.523427726782,803.4422523304846,773.2131477588384
1730147919.452596,783.2693929090734,799.0779436805627,806.5906823573473,776.0437866252535
1730147919.454948,790.42663853527,797.8945732498391,807.9026192491593,779.5118892829863
1730147919.455432,794.877515603339,797.5626067787977,806.3776706058218,782.8404005652952
1730147919.4569952,795.382049349821,798.7184477840783,802.5507993320832,785.9639725213921
1730147919.4593346,793.8597260644459,801.6511893125371,798.2259273155706,789.4236249342061
1730147919.463237,793.8876416256372,806.0443701932357,795.4034675607569,793.7498932386793
1730147919.4671395,797.8073934844722,811.0308151295342,795.0436571320062,798.7925357730145
1730147919.471042,804.7379922279318,815.5106412344762,796.5335894435726,803.5256062479347
1730147919.4714787,811.1201314521604,818.5464213326146,798.2800577486776,806.5497877632623
1730147919.4725986,813.3751567408938,819.6694000729024,798.9756229915918,807.0026404200144
1730147919.4749444,810.5509300662051,819.0055606390335,798.5335713985709,805.2449630146783
1730147919.4788468,804.8918810102247,817.1801630639263,797.9898013927357,802.8021004468305
1730147919.4827492,800.018186073794,815.0237570336058,798.5568820712008,801.5355122206565
1730147919.4866517,798.3000649136844,813.2160901027751,800.6733738081753,802.5342339080256
1730147919.488202,799.4823479439465,812.0723310471893,803.7713548989248,805.3948840065594
1730147919.4900844,801.3965975878632,811.580786716177,806.7989626753513,808.3309387688993
1730147919.4903617,801.8919311274454,811.5969360110286,808.9589270954073,809.106376883531
1730147919.490554,800.3687483932601,811.9896807305323,810.0995214737856,806.3550195133942
1730147919.4944563,797.9246562410331,812.6356772528546,810.5904362064828,800.5781385841055
1730147919.498359,796.341192572114,813.345338281698,810.9128539544723,794.1528907377754
1730147919.5022614,796.8712199337264,813.8696454715264,811.3189303448453,790.1448830433203
1730147919.5038052,799.5953492307069,814.0263984288831,811.7713379738843,790.4633479820301
1730147919.506164,803.4567101015359,813.8385065253901,812.1148236101027,794.4683998507975
1730147919.5092442,806.7093352601099,813.5441732633885,812.2665873023327,799.0566525013867
1730147919.5100665,807.6230839798598,813.4306929957419,812.2674697301453,800.4150322299474
1730147919.5139687,805.3719923302477,813.5800996512507,812.2128542651776,796.4753991173108
1730147919.5178714,800.7120959671632,813.7148267729959,812.1729851272686,788.4200761510897
1730147919.5194085,795.7790691352432,813.3149788877492,812.1670001095728,780.0584715659775
1730147919.5217738,792.8289183181688,811.9955881022845,812.1812882952524,775.4098612700551
1730147919.5252209,792.7959784277839,809.8808825735089,812.1970584328549,776.2601508456872
1730147919.5256765,794.9444168008258,807.6387581169852,812.2051702496532,781.4951858759215
1730147919.528127,797.9157880828034,806.0818954366235,812.2063961246467,788.4995825369998
1730147919.5295787,801.030030994471,805.6153251596257,812.20531282206,795.2097763171239
1730147919.5334811,804.4389430168635,805.9536571850041,812.2052900864352,801.0987463062859
1730147919.5350118,808.0757599183695,806.3031642269291,812.2070878756932,806.6196080005798
1730147919.5373836,810.823337667263,805.8374266456294,812.2098830651848,812.0904867007375
1730147919.541286,811.1904588177752,804.1299208438556,812.2126994747374,817.2619044714393
1730147919.5451884,809.0570151408579,801.329644394524,812.2151179032747,821.8220286137455
1730147919.5470097,806.6005084897542,798.0757709439235,812.2172330974641,826.0361909647893
1730147919.5490909,807.0604148590467,795.2385640887379,812.2193139612183,830.650960446918
1730147919.5506153,812.1479002147825,793.5596804130955,812.2215485605637,836.0637068465386
1730147919.5529935,820.4700888177634,793.289498937058,812.2239848987265,841.60323671286
1730147919.556896,828.5411730387178,794.0105921338534,812.2265927346228,845.7407224450327
1730147919.560357,833.4358849432884,794.8381853375685,812.2293385945034,847.1953191204491
1730147919.5607984,834.5940158228766,794.9666976709651,812.232219428792,846.0253579522306
1730147919.5647008,833.4424254666594,794.2109471837533,812.2352576362254,843.7066171960089
1730147919.5658927,831.7866614647828,793.0992651370383,812.2384832584955,842.006830527876
1730147919.5662186,830.6367164027196,792.3966522877798,812.2419226152133,841.5277974040649
1730147919.5686033,830.0847710653568,792.4386927225801,812.2455967935729,841.1997558805565
1730147919.5725057,829.788862185056,792.8605777077211,812.2495233443128,839.3033403235825
1730147919.576408,829.4399287838922,792.968570454255,812.2537146199973,835.2205110272652
1730147919.5803106,828.9380636668795,792.4166942228272,812.2581734003222,830.3030701312086
1730147919.581822,828.336304108439,791.5790815181058,812.2628943018892,826.9276043477159
1730147919.584213,827.7204904999813,791.2978623501465,812.2678800492779,826.4919672372257
1730147919.5847754,827.1369944263099,792.2361767078307,812.2731689711785,828.162303591366
1730147919.5881157,826.5862712454732,794.3708384766559,812.2788473909013,829.5155153525079
1730147919.592018,826.0487638151116,797.0033596828654,812.2850077157574,828.5102234612514
1730147919.5954938,825.5085356277572,799.2420380538881,812.2916407256853,825.1133008976796
1730147919.5959203,824.9611643051065,800.5645907382947,812.2985315228698,821.305579789618
1730147919.5974252,824.4099386644924,801.0502799970044,812.3053155548309,819.5421839093199
1730147919.599823,823.8594049417027,801.1643876676724,812.3118257744733,820.8713887278375
1730147919.6036582,823.311806438823,801.3417619056506,812.3186124672892,824.0913019765219
1730147919.6037254,822.766991737677,801.741761723263,812.3271090272574,826.5780321112683
1730147919.607628,822.2238711550066,802.3290748273666,812.3387328969417,826.2547743878504
1730147919.6115303,821.6816280606635,803.0947272199478,812.3528158375633,823.2782571516806
1730147919.6130283,821.1400668632094,804.1157311908968,812.3648186432532,820.0602668702879
1730147919.6154327,820.599371751165,805.3706521722337,812.3678006961179,819.4066524452155
1730147919.6193352,820.0597640907291,806.5306209551642,812.3593189663284,822.1175565942651
1730147919.622541,819.5213342473642,806.9961762342455,812.3509089090419,826.02961283219
1730147919.6232376,818.9840580499757,806.2071742382157,812.3697257232537,827.4545550336837
1730147919.62714,818.4478818239368,803.9966026737485,812.4393630527647,824.0123648707245
1730147919.6286318,817.9127721525333,800.7473119169192,812.5395034821904,816.6460872101338
1730147919.6306305,817.3786988322084,797.2909462326238,812.5731072871858,809.2096257634363
1730147919.6310425,816.8455883056857,794.6263496453373,812.3930870473937,805.9242704538389
1730147919.634945,816.3133198828311,793.5512872423936,811.910913758818,808.6263906186572
1730147919.6388474,815.7818188002583,794.3228959753211,811.2150068818772,815.8159456385416
1730147919.6414237,815.2512139064917,796.5339495144395,810.5769509029983,824.0710006651011
1730147919.64275,814.7218995882617,799.3480955520034,810.32530665525,830.5833068422386
1730147919.6442351,814.1942822411539,801.9835509139818,810.6896212532097,834.796456008571
1730147919.6466525,813.6681665364978,804.0969826090187,811.692944836816,837.9815475622146
1730147919.650555,813.1422011690069,805.7984431924871,813.1107473573737,841.3663667504604
1730147919.654457,812.6142708066686,807.36995373647,814.5383032212254,844.6390174135626
1730147919.6583598,812.083519072475,808.9860461413325,815.5803684578369,846.1961926207341
1730147919.6598384,811.553224032966,810.6251921163379,816.0319690012377,844.7877823118923
1730147919.6603065,811.0314760965912,812.1185410675218,815.8744717993942,840.8544249560516
1730147919.6622622,810.5257572861696,813.2185834486376,815.1092795449607,836.1962472515734
1730147919.665767,810.031211100191,813.6872379419309,813.6714031492214,832.3010094783496
1730147919.6661646,809.5212820169146,813.4471175295109,811.5864167215544,828.993247420478
1730147919.6700673,808.9574642241347,812.7119422139377,809.19549948231,824.7325257407942
1730147919.6739695,808.329302253946,811.9215669703033,807.1043624785781,818.273457872682
1730147919.6754415,807.7065182001039,811.4545975959354,805.8079128093576,810.1143550126128
1730147919.677872,807.2432461554314,811.3461602165519,805.3638606139433,802.4029321266361
1730147919.6791892,807.0636756356827,811.2821212631667,805.4434954506376,797.4145654164128
1730147919.6817744,807.0349172478462,810.8877996839369,805.646386180653,795.9681010709326
1730147919.6856768,806.5980997807047,810.0459357728355,805.7456910933696,797.099658120138
1730147919.6895795,804.9510343664618,808.9640146013426,805.7160337044762,799.1254677479728
1730147919.6910453,801.7028062348525,807.9629232746468,805.629646828158,801.0231029159758
1730147919.693482,797.5664109135375,807.2106934412254,805.5540083248969,802.8979087093242
1730147919.6973844,794.2452505872649,806.6434560682178,805.5118747441951,805.245534001245
1730147919.698072,793.2031745217585,806.1126097739449,805.4923909894554,807.8532201230527
1730147919.7009034,794.2520570446337,805.5819841048495,805.476979155439,809.4731812085956
1730147919.7012868,795.398691604936,805.1676364140903,805.4553279613892,808.6458917602654
1730147919.7051892,794.355262820727,804.9798555884422,805.4271119047951,804.981463104523
1730147919.7066486,790.5289676573994,804.9283510827574,805.3964945624837,799.7646650811462
1730147919.7090917,785.758982378533,804.6993376700068,805.3669622608289,795.2810314978273
1730147919.712994,783.0677186027556,803.9592630647116,805.3395269327382,793.310341573985
1730147919.7168963,784.3444891679173,802.6206318746587,805.3134996821636,793.9483993245926
1730147919.7169547,788.790371054321,800.927608643984,805.2878858548498,795.7034932951959
1730147919.720799,793.3780311699624,799.2704279657385,805.2621757434704,796.796286668634
1730147919.722252,794.9936596324834,797.8859952098409,805.2363818883822,796.5837594900313
1730147919.7247014,792.6205909757093,796.7067694093394,805.2107295816735,795.9151291115295
1730147919.7286038,787.9328569431389,795.4769203599445,805.1853913475042,796.1628833004208
1730147919.7325065,783.9350245310953,794.0150411169628,805.1604048034361,797.836436520106
1730147919.7358377,782.7657897039389,792.4063464158937,805.1357188153886,800.0149320877437
1730147919.73604,784.3394009759593,791.0143039548046,805.1112658271819,801.0620235620338
1730147919.7364087,786.778604407222,790.3531343909834,805.0870043269932,799.9731477025545
1730147919.7378552,788.2022728156418,790.9063488374278,805.0629299049759,797.2373079130435
1730147919.7403114,788.4077230044653,792.9395283970152,805.0390713358571,794.5647585175564
1730147919.7442138,789.0700531630558,796.3486662298335,805.0154743440561,793.7414899859848
1730147919.7481165,792.2344328024603,800.6175469471547,804.99216199272,795.4906628910713
1730147919.7520187,798.278394260006,804.9384368868647,804.9690763046272,799.1383336010657
1730147919.7534585,805.0649965415363,808.453017174755,804.9460512905928,803.2173525307825
1730147919.7547202,809.159381505965,810.4936448010554,804.9228998284808,806.4423095437163
1730147919.7559211,808.323667662807,810.7364934473031,804.8996446117792,808.3110845626378
1730147919.7598236,803.3683002167986,809.265889783047,804.8767523074853,809.0287764148753
1730147919.763726,797.8127632738378,806.5755026334609,804.8550354638176,809.0378222065756
1730147919.7676284,795.4749593217666,803.4813957240386,804.8349229684164,808.6266717022723
1730147919.7690618,797.7553998141723,800.8977389741323,804.8153208293662,807.8221495185287
1730147919.7711763,802.6714597153046,799.5036057519739,804.7931754990806,806.4674758215514
1730147919.7715309,806.3860547148382,799.454005478192,804.765306747545,804.3763599465053
1730147919.773603,806.0948846350133,800.3293413627893,804.7328569936872,801.5798658245576
1730147919.7754333,802.1126722496997,801.3964053727569,804.7053613799906,798.6053897774758
1730147919.7793355,797.5805627459141,802.0348218526419,804.6980226647846,796.4808115433877
1730147919.7832384,796.0041013825025,802.0497278948804,804.7171499293854,796.1764926045194
1730147919.784665,798.5332979624351,801.6848378210902,804.7392633428088,797.7026684867242
1730147919.7871408,803.1611602753961,801.3929807716594,804.7059480004687,799.6319630421966
1730147919.7910433,806.4991892913318,801.5754248904033,804.5631677434704,799.7192118691303
1730147919.7924857,806.643792551963,802.4387113639393,804.3479070470219,796.4223871351742
1730147919.7949457,804.7138756648983,803.9619077771757,804.2621738308629,790.2171904622335
1730147919.7988482,803.7855068242313,805.9107857552177,804.6198677298454,783.5614808677292
1730147919.8002684,806.187087161341,807.8960300444464,805.6053985122619,779.3781994001216
1730147919.8027506,811.4755736680345,809.5104336236499,806.989360525,779.1585197836761
1730147919.8063128,816.7496760109408,810.5113447532725,808.1079366444732,782.1303949163737
1730147919.806653,818.9417615081808,810.9234733859766,808.2376658186471,786.0535954215949
1730147919.8105557,817.1363490285889,810.9653044777524,807.1039778536986,788.8750307571088
1730147919.8113685,813.0612815249498,810.8600971153899,805.113908928401,789.878483226363
1730147919.814458,809.4762247258292,810.7122425279892,803.1389909788568,789.5573787751913
1730147919.8158717,807.8808155447296,810.5498833759765,801.9994827756708,788.6109543707017
1730147919.8183603,807.4401433792017,810.425869885682,801.9667056044624,787.1457729676023
1730147919.8222628,805.9663206839459,810.3903016165335,802.5771362303403,784.8163187822305
1730147919.8261654,802.0883353856509,810.3239384318326,802.8896719990062,781.6691092043098
1730147919.830068,796.7621281081035,809.8526976990245,802.0763864452628,778.769997175489
1730147919.8302512,792.8060095296958,808.5510643008761,800.0173670675931,777.8684987797209
1730147919.8314753,792.7589425451215,806.3569582712464,797.5119013328751,780.1957513593543
1730147919.8339703,796.7470638846967,803.8468957186675,795.9097729696235,785.2962987429906
1730147919.8378727,802.0980621834256,802.0530049264726,796.3335641837718,790.9107017038275
1730147919.8414495,805.1164207501743,801.857033502344,798.972119373187,794.2160086779649
1730147919.8417752,803.7463221017196,803.3858706760456,802.9318533285829,793.6756655405435
1730147919.8456776,799.1122898623797,805.9026069929378,806.776355326066,790.164471890014
1730147919.8470786,794.7398822673175,808.3205398260394,809.3901741685328,786.4538870408425
1730147919.849134,794.0111607266903,809.9432851172246,810.5568519860466,785.3266172114849
1730147919.84958,797.7397822259087,810.8250465070092,810.8726028331664,787.6459246990801
1730147919.8534825,803.63748328072,811.472958974007,811.145381424851,791.7988906866904
1730147919.8573847,808.0080243797186,812.1995805213525,811.7950667069432,794.9507657880755
1730147919.8612874,808.3666471572209,812.7412533264448,812.675770225409,795.1997032879877
1730147919.862682,805.0711554030559,812.5009162438245,813.3349355475716,793.024452940784
1730147919.8651898,800.873758935061,811.1876562597656,813.4094331671424,790.926297435487
1730147919.8680167,798.8701935330478,809.2487458140772,812.8621563444311,791.5230772105843
1730147919.8690922,800.4255837838474,807.6681987146246,811.966754945081,795.5378893845682
1730147919.872995,804.5247276305623,807.2722227490881,811.1206849663041,801.2199013218526
1730147919.876586,808.8289260541741,808.116249929439,810.6205744715514,805.6275691608865
1730147919.876897,811.4539838513658,809.4478110069085,810.5201512248755,806.7362444037832
1730147919.8782852,812.0599402056162,810.2468888288932,810.6459676317372,804.7039144367327
1730147919.8807998,811.5423953303141,809.8966367149724,810.7560886722324,801.392672230425
1730147919.8847022,810.8339572297891,808.4937589529949,810.718524469852,798.735340086897
1730147919.8868997,810.0248098664521,806.6398794572713,810.5556692827912,797.4259275406758
1730147919.8886046,808.5938694796449,804.9453847356663,810.3100270170066,796.9445208434363
1730147919.8925073,806.4101591684454,803.6342054869317,809.8596228791437,796.6222992276794
1730147919.8938885,804.3901575464487,802.5016722491285,808.8837221414042,796.5607763972487
1730147919.8964095,804.0210217863477,801.1988752761691,807.0634249254991,797.5111510263667
1730147919.900312,806.0732442297741,799.6051274014925,804.3894445943139,799.91052444521
1730147919.9042144,809.6658005793266,798.0242551365506,801.3291901007967,803.0822648291828
1730147919.9057825,812.6189606500243,797.0765221904006,798.6860181119988,805.4294489804907
1730147919.9081168,812.9459274433253,797.3465805850976,797.2068471783876,805.5459390329652
1730147919.9094918,810.3542469192992,798.9885887617761,797.1910381586764,803.3872005432097
1730147919.9117224,806.5611075766518,801.529826463972,798.3681490587326,800.579070545372
1730147919.9120193,804.1044638794733,804.0299507224382,800.1169124886794,799.5479095474332
1730147919.9159217,804.4878590239349,805.5538591219126,801.8374637714998,801.9713082877175
1730147919.9198244,807.0728650572339,805.6939481220684,803.1905449187284,807.5720260357085
1730147919.9237268,809.6340220091117,804.7998753407205,804.0792182901234,814.1548838123225
1730147919.9246652,810.194350538641,803.7455844811326,804.5067612690626,818.9911976787434
1730147919.925095,808.6658496053924,803.3840153489169,804.5224931832956,820.6527554402072
1730147919.9276292,806.9076593260808,804.0596831815654,804.2928577001526,819.9479424377489
1730147919.9315317,807.1072406852032,805.4939275138255,804.137095405746,819.1818171163446
1730147919.935434,809.8172238988548,807.0774072202194,804.3965421157636,820.236936740335
1730147919.9393363,813.3046875638034,808.3157636981813,805.2229829867755,822.9837051572599
1730147919.9406984,814.7985835358313,809.0896507589703,806.4986114071282,825.3783078595501
1730147919.943239,812.6586286984046,809.5674865478034,807.9747932839293,825.2743432730385
1730147919.943548,807.7319146686638,809.902223991838,809.4810280726896,822.4895919491414
1730147919.946859,802.8132792810702,810.0088618802812,810.978703631474,819.3188920822734
1730147919.9471414,800.6441005640547,809.6236150151084,812.407446260504,818.8806482891841
1730147919.9510438,802.0495133669878,808.5820976902218,813.5158795727441,822.5258803466924
1730147919.9549465,805.6505530959314,807.0545610827579,813.9217754212124,828.4818764966842
1730147919.9563017,809.1947238268021,805.5101397599864,813.4281079028685,833.0322970334955
1730147919.9588487,811.1957056379312,804.4194617190315,812.3279330939317,833.4330926122223
1730147919.9624307,811.5625468878674,803.9423763681075,811.3663590395677,830.177957113521
1730147919.9627512,811.0758703331659,803.871112643184,811.2982169167601,826.6281040677095
1730147919.9666538,810.5310513230784,803.8738324555113,812.3531706087375,826.2063506070556
1730147919.9705565,810.2823846318332,803.8064859928851,814.0351799991636,829.479595329192
1730147919.9719052,810.2893181002095,803.796124849923,815.4200576046952,833.6232946260969
1730147919.9744587,810.3721678682629,804.0206931496297,815.7197620216243,834.771009258546
1730147919.9783611,810.4054312718498,804.4131073282341,814.709270416618,831.3024183689078
1730147919.9813137,810.3658744642536,804.6046819449026,812.7728234103687,825.3068244789796
1730147919.981995,810.288927272758,804.1998324836753,810.6253170952565,820.9540157891238
1730147919.9822636,810.213164201213,803.1488191658368,808.9426485375916,821.0687016376173
1730147919.986166,810.1544365487716,801.8718763013611,808.1096920088531,824.7403158336356
1730147919.9875083,810.1089390125653,801.0000959224466,808.1625803519808,828.0083570416882
1730147919.9900684,810.0668055688117,800.9386111354376,808.8859450662713,827.1050876958171
1730147919.9939709,810.021738721805,801.6121047777068,809.9766797790476,821.5268208097509
1730147919.9978733,809.9729179690346,802.5916937200554,811.1916046692924,814.3303545111178
1730147920.0001962,809.9223974477421,803.4831804768492,812.4225308673338,809.49739192457
1730147920.0017755,809.8721909112863,804.2513740025071,813.6655996744333,808.7635100435908
1730147920.0031118,809.8230440050716,805.2130350724275,814.8879316255566,810.6112808918192
1730147920.0056782,809.7746992690952,806.6954611342154,815.8733530742073,812.0176570959568
1730147920.0095809,809.7266372238053,808.636229236015,816.209833905653,811.1425228450977
1730147920.0134833,809.6785583099563,810.481289171034,815.536455898264,808.6229515042688
1730147920.017132,809.6304508302297,811.5251352675931,813.936620376213,806.67462136037
1730147920.0173855,809.5824374077199,811.4564994785806,812.1211455659164,807.1243635028331
1730147920.0187151,809.5346235962387,810.6448343486672,811.0954874256237,810.1148170267367
1730147920.019079,809.4870471807776,809.8756155480183,811.4301577711979,814.3083617359688
1730147920.0212882,809.4397088382078,809.715228193007,812.706349812227,818.0708621577085
1730147920.0251906,809.3926185724226,810.0402289862643,813.6932416882909,820.510367642729
1730147920.029093,809.3458049527724,810.1482576144753,813.2277447830409,821.6624217963163
1730147920.0329957,809.2992746637957,809.3608381345479,811.115541814926,821.9684468464606
1730147920.0343184,809.2529584847642,807.599780940683,808.302254870474,821.7131078147046
1730147920.036898,809.2067174219465,805.4665534501595,806.1735557028567,820.9308270728064
1730147920.0379615,809.160471922211,803.8071837434585,805.564296829417,819.731132170146
1730147920.0408003,809.1144175386669,803.1597600700404,806.2571963365514,818.5944513621216
1730147920.0447028,809.0691219338767,803.5083312100232,807.3222792041399,818.2810768665231
1730147920.0486052,809.0252049343455,804.4574299010812,807.9838711842687,819.3905942368647
1730147920.0499218,808.9825164632897,805.6076056227954,808.3024767628273,821.8831595518006
1730147920.0522685,808.9393435255345,806.8028730570696,809.1073436137124,824.8559350294676
1730147920.0525076,808.8928381661148,808.07025390294,811.2212779282642,826.7332580727124
1730147920.0564103,808.8416634536153,809.347262564287,814.6231089037245,825.9215652726704
1730147920.0568445,808.7899526369321,810.2881862455368,818.2676189099651,821.7744514142512
1730147920.0603127,808.7485675435458,810.3831398360985,820.7220671285909,815.3347269005576
1730147920.0642152,808.7282436202497,809.3324718077588,821.0794240923087,809.1274119363078
1730147920.0655253,808.7238220671503,807.3495948069223,819.4255544405984,805.7650030966647
1730147920.0681176,808.700661134232,805.0986586667618,816.6095945620241,806.1567824790448
1730147920.07202,808.605851379377,803.2991351295648,813.6710054521487,808.7467040524814
1730147920.0757272,808.4207737613901,802.3228867183182,811.4163592833277,810.5994081192105
1730147920.0759225,808.2332526118444,802.0834586405242,810.2914605871271,809.6214217592606
1730147920.0798247,808.2498323307534,802.2324289018158,810.358668289528,806.1094880195124
1730147920.0811284,808.6491309156278,802.4407580073948,811.2381796612311,802.2848562314606
1730147920.0837274,809.2731797199016,802.5522521887842,812.1400481885984,800.2039141134526
1730147920.087405,809.3737560185468,802.567605250911,812.1813786050534,799.8942727293278
1730147920.0876298,807.8038109608163,802.5496298071902,810.9208611914408,799.39310221519
1730147920.0915322,803.8434112159587,802.5469988085392,808.7396319732469,796.6755417747872
1730147920.09461,798.1754926768846,802.5713719304192,806.7031352359579,791.763176437779
1730147920.095435,792.9926712866053,802.6110385643523,805.8944667856196,787.1158720129326
1730147920.096732,790.720106074565,802.6514973642908,806.6336651918699,785.8857799021583
1730147920.099337,792.2060685771055,802.6860822837344,808.148320103792,789.4348652606354
1730147920.1032398,795.9972350690731,802.7156460896808,808.9987140076082,796.1317682604513
1730147920.1071422,799.4718957170123,802.7437302213801,808.0394087737371,802.4017554479157
1730147920.1110446,800.9190275441454,802.7728099899425,805.278360592357,805.2268668614745
1730147920.1123352,800.7879333768577,802.8033472630538,802.0070960539111,804.1928373578831
1730147920.1134927,801.0804701954022,802.8346415193773,800.0595091208955,801.5443551877984
1730147920.1149473,803.465499024113,802.8659220380823,800.6745336859334,800.224096661752
1730147920.1188495,807.7268265147916,802.8968612782836,803.7192050895715,801.4159602963579
1730147920.1225414,811.807879242007,802.9275186948897,807.7641891247677,803.5369357872096
1730147920.122752,813.3819448217342,802.958074852961,810.9177371499584,803.534872453032
1730147920.1266544,811.6681749679426,802.9886415479364,811.8608967814843,799.5009969319149
1730147920.1279385,808.0463575344144,803.0192232450728,810.476072383819,792.4613561278676
1730147920.1305568,804.9881807091438,803.0497676604115,807.7750186886549,785.8098474271967
1730147920.1323757,804.1707526593397,803.0802230591223,805.2521609386697,782.8008312944564
1730147920.1344593,805.3141336677819,803.110562645873,804.0739043565488,784.1892600256414
1730147920.1383617,806.6987086442322,803.1407795769961,804.5494825019571,787.9884290274708
1730147920.142264,806.8809594228901,803.1708724678198,806.120981622758,791.4552574778968
1730147920.1435418,806.0453820260367,803.2008358758767,807.7855932781737,793.4519109032151
1730147920.1461666,805.7206377532679,803.2306588748079,808.6345059033218,795.0495967781285
1730147920.1500692,807.0725859622264,803.2603280022067,808.2103013212409,797.8982962741424
1730147920.1512582,809.3451148655281,803.2898302506278,806.5862383879391,801.9669473755206
1730147920.1539717,809.9890260742055,803.3191542130764,804.2464454630316,804.8711111047388
1730147920.157678,806.5847662825494,803.3482897240783,801.871520846525,803.605642916911
1730147920.157874,799.059395041669,803.3772270827225,800.0826388779599,797.3240618447117
1730147920.159145,790.2998191608526,803.4059565856084,799.20051751857,788.7472360119629
1730147920.1617763,784.4555911494103,803.4344684887199,799.1333855463295,782.791875890177
1730147920.165679,784.0903586675593,803.4627531811519,799.4937081953955,783.2909601873149
1730147920.1695814,788.3601002342052,803.490801344777,799.8907995911002,790.3097107247194
1730147920.170141,793.6671772046097,803.5186040112966,800.177749134978,800.1237623278507
1730147920.1734838,796.3085428988502,803.5461525425269,800.4442134254522,807.8080660220601
1730147920.1747484,795.0909841076146,803.5734385928489,800.7741441231177,810.4231399933925
1730147920.1773863,791.9684405043304,803.6004540902068,801.0214863676301,808.5388905195264
1730147920.1812887,790.3272839672102,803.6271912395714,800.8544582114603,805.2794995432104
1730147920.1851912,792.3163338236769,803.6536425361911,800.0656176401027,803.8900579232488
1730147920.1890235,797.2509959415333,803.6798007764796,798.8777575604978,805.6656520267159
1730147920.1890936,802.2085134318118,803.7056590621764,797.9456699011614,809.5163194054049
1730147920.1903515,804.2358518975764,803.7312108000364,797.9881166202642,813.0955699365769
1730147920.1928144,802.4336829607729,803.7564497018521,799.2839645274588,814.4029291128194
1730147920.1929965,798.4037890816045,803.7813697885194,801.3982515260565,812.7601547465334
1730147920.1968987,794.886670461611,803.8059653980059,803.3713924112346,808.8062305764129
1730147920.2008011,793.7753581978924,803.8302311916509,804.2869650511915,803.8783369484553
1730147920.2047036,795.0371779297084,803.8541621495943,803.8407434643253,799.3443489493258
1730147920.205955,797.2163093750567,803.877753550389,802.5009882259204,796.2173555412691
1730147920.2079065,798.896014755795,803.9010009459994,801.1510613357423,795.0595250957267
1730147920.208606,799.8412731179372,803.9239001642246,800.5175092433547,795.9946582628809
1730147920.2125084,800.9675173691497,803.9464473725184,800.8339169595049,798.6572285492066
1730147920.2164109,803.3004804137137,803.9686391925309,801.9215210807879,802.0925271255358
1730147920.2203133,806.8479171794148,803.9904727665205,803.4617602364297,804.8561197662352
1730147920.2215583,810.3084036943811,804.0119456153787,805.130258206457,805.5822406771124
1730147920.2242155,811.890134519786,804.0330552180817,806.54593534688,803.92592437628
1730147920.2267892,810.6641490080929,804.0537985539293,807.2853628978473,801.2384879893015
1730147920.227951,807.4021135375267,804.0741722228655,807.1336726617037,800.1740048040817
1730147920.2281182,804.1578196090516,804.0941737347181,806.3775381848956,803.0622271383452
1730147920.2320206,802.8359553798703,804.1138036424113,805.757319118488,810.0075082624898
1730147920.2359233,803.8963169655893,804.1330665359969,805.9630301176245,818.2787740491349
1730147920.237162,806.2687732615478,804.1519679393708,807.0325055326388,823.8271038620067
1730147920.2398255,808.4285424079935,804.1705061834547,808.1843330586587,824.05379963048
1730147920.2437282,809.5315697510132,804.1886644033681,808.2906969684235,819.7079252951767
1730147920.245672,809.6840447701009,804.2064144549888,806.6710469746474,814.2857805315545
1730147920.2476306,809.4508793526409,804.2237428659079,803.6313809315026,811.2931261324599
1730147920.251533,809.2919568535125,804.2406903221978,800.3633581492185,811.5387314613201
1730147920.2527652,809.3511732427434,804.2573652415864,798.265485375609,812.654813684844
1730147920.2554357,809.5520606661603,804.2738773228172,798.1366205329808,811.2314516617843
1730147920.259338,809.7729575489678,804.2901815116995,799.7791359663198,805.8254286956295
1730147920.2630875,809.9493618725655,804.3059403695768,802.2653091630705,798.3977058266871
1730147920.2632403,810.0818268882176,804.3206293243366,804.6332387338522,792.9793453153616
1730147920.264555,810.1985814451389,804.3340539856964,806.4566686744843,792.5511640543868
1730147920.2671428,810.3221298132089,804.3470741103282,807.8725782384612,796.5529281957214
1730147920.2683685,810.4584587606796,804.3617558881921,809.1496789857393,801.0176087617336
1730147920.2710452,810.6027144145987,804.379972727995,810.2750123504545,801.3449755439585
1730147920.2749476,810.7484140605418,804.4004301757037,810.9505937551176,795.6699881098758
1730147920.27885,810.8924224697151,804.416348542567,810.9433812189864,786.2651676838241
1730147920.2827525,811.0349985816794,804.4180418978141,810.3967477526043,777.9269768184535
1730147920.2834375,811.1776940386133,804.4031316720448,809.8015986217374,774.6618621204422
1730147920.2839718,811.3216412613948,804.3896507537987,809.6750841261484,777.2501355092747
1730147920.2866552,811.4670786504464,804.4167485138267,810.2190553027618,783.3912580757637
1730147920.2905576,811.6137047427587,804.5152946960549,811.1831764389449,789.9614791104117
1730147920.29446,811.7611683379873,804.6504792874429,812.002065803851,795.3444655986506
1730147920.298224,811.9093113344105,804.680531526461,812.1587852699855,800.0416795206037
1730147920.2983625,812.0581522721901,804.4062727086239,811.6073035761467,805.4019750705928
1730147920.299575,812.2077651204257,803.7394192965115,810.9530052723269,811.8390961511972
1730147920.3022647,812.3581849935498,802.8756381476414,811.1349293379911,818.1428152107901
1730147920.3023205,812.5093856071788,802.2733957481464,812.7168989607056,822.4213745558552
1730147920.3061674,812.6613127884918,802.3892917531991,815.3218147020737,823.8094290243196
1730147920.3100698,812.813939065541,803.3626328385535,817.74780871963,823.4322757445188
1730147920.3139722,812.967300865411,804.8719492680652,818.760928048911,823.6938577248641
1730147920.3151784,813.1214776283002,806.2309081293611,817.953651832892,826.3240422857907
1730147920.317875,813.2764899305174,806.6865112830969,815.9947205330308,830.7373491253128
1730147920.3212032,813.432160748225,805.8356068349591,814.1214278445965,834.1651612077534
1730147920.321777,813.5880852159215,803.9683747347611,813.3143390341529,833.6578780742523
1730147920.3256795,813.7438892879658,802.0629783025632,813.7485371923403,828.461821983397
1730147920.329582,813.8997817048228,801.2976497215725,814.8177808459828,820.8442519896115
1730147920.3307817,814.056986896066,802.3045933833255,815.6106748018743,814.6289731043472
1730147920.3333604,814.2172735499042,804.664356018865,815.4805151967307,812.5426557779333
1730147920.3334846,814.3810657390517,807.0469469226797,814.3730535965421,814.4122123718906
1730147920.337387,814.5450023168349,807.9839413879758,812.7686064198582,817.5600013934562
1730147920.340086,814.7017603035297,806.8129972074951,811.3227980621203,819.0354534336652
1730147920.3412895,814.845402292135,804.1776763675724,810.4601915240113,817.9375229819312
1730147920.345192,814.9818032961966,801.7031228012492,810.1958835771122,816.0376991976126
1730147920.346385,815.135741489517,800.9894541159825,810.2656261587344,816.2355414290219
1730147920.3490944,815.3399312816865,802.5625840434989,810.3860782278126,820.0863356667061
1730147920.3529968,815.598022733306,805.5189525324403,810.4162784336114,826.3912800889849
1730147920.3568993,815.8409294525068,808.1362887714531,810.3559413193495,831.9799254531354
1730147920.3589687,815.9314565986004,809.0008433164409,810.2626300219644,834.0239550337017
1730147920.3608017,815.775605992171,807.8247180324803,810.1818959702532,832.0170350076762
1730147920.3619883,815.5234433490502,805.4355775823419,810.1253696833559,827.9385194194282
1730147920.364704,815.6961109856901,803.1145833559235,810.0827377430076,824.6678647807969
1730147920.368497,816.986450210371,801.8834931586855,810.0406667074504,824.0395985767519
1730147920.3686066,819.6826109043295,802.1711046528109,809.992844981989,825.9765598817521
1730147920.372509,823.1807991091827,803.8261436386439,809.9399182711337,829.0651904338067
1730147920.3764117,826.2464222110302,806.2244113221604,809.8851167535397,831.7899083528733
1730147920.3775918,827.9237488590468,808.3963695597157,809.8307612346783,833.35298836995
1730147920.3778515,828.100173779071,809.3271327662364,809.7773297047704,833.6315937904616
1730147920.380314,827.0956761193709,808.4786557588973,809.7242075517534,832.6524345511277
1730147920.3842163,824.8688546206881,806.2366905396798,809.6706926869321,830.2523434436317
1730147920.388119,820.862295773672,803.840529776959,809.6164821741866,826.2243527083136
1730147920.3920214,814.7271331263322,802.677401458561,809.5616318070478,820.7305409948387
1730147920.3931952,807.2210831852484,803.3636446530256,809.5063142090252,814.6123742149387
1730147920.395924,800.416593511933,805.2838825801122,809.4506414140742,809.4302940261168
1730147920.3967342,796.942994623971,806.9760015326467,809.3946263529605,807.2084513472779
1730147920.3998263,798.6723826835731,807.1525919748323,809.3382288980479,809.7889050214309
1730147920.4036334,805.5843963075389,805.6716327046204,809.281410194365,817.7657244454053
1730147920.4037287,815.4810693588247,803.7353389454925,809.2241561117551,829.4659066605993
1730147920.4076312,824.8501110119595,803.0714079918089,809.1664702037796,840.93540606232
1730147920.4087985,830.5365573477235,804.5921463794659,809.1083543090903,847.534858177118
1730147920.4115336,831.2579637015081,807.5238055034032,809.0497951094676,846.4597219503241
1730147920.415436,827.9566363017293,809.7733817927055,808.9907685544939,838.4186358660969
1730147920.415617,822.7938975565663,809.3865127871933,808.9312641331376,827.1059107012135
1730147920.4193385,817.668510739195,806.0369241097006,808.8713144178469,816.8344269122942
1730147920.4232411,813.4523504098811,801.385978062909,808.8109959881874,810.1446634962424
1730147920.4244018,810.3289889941739,798.0089447949545,808.7503665121253,807.0133222571536
1730147920.4271436,808.512765521481,797.6929220551154,808.689347177382,805.7768126045596
1730147920.431046,808.3620486786964,800.3484495673965,808.6276490886714,804.5988932826824
1730147920.4344995,809.7124937154948,804.2391462877536,808.5649080853476,802.316221129101
1730147920.4349484,811.2469033313333,807.2327818185804,808.5011077018712,798.4555627645552
1730147920.43877,810.844334774938,808.1114995303572,808.4370574041604,793.0086833461495
1730147920.4388509,806.9593284852817,807.0750222961069,808.3743043430914,786.4793184959551
1730147920.4400053,799.9976555062037,805.2514036714545,808.3138555933537,780.0632866040995
1730147920.4427533,792.4086321201495,803.7465093337044,808.2539902620582,775.4148603963685
1730147920.4466558,787.1520011256264,802.9987045939877,808.1891337812115,773.8001903698773
1730147920.4505582,785.6173669724192,802.8154633891048,808.112837001461,775.2048205247064
1730147920.4533825,786.7052075984814,802.8299333436016,808.0259658873457,778.2557437505179
1730147920.4544606,787.9024117260539,802.8498254357728,807.9450819420533,781.156437630222
1730147920.4556084,787.4625371817896,802.8742169632955,807.8990019425534,782.8374173652853
1730147920.4583633,785.8042532761226,802.9506125063818,807.9026056301697,783.346039649359
1730147920.4622655,784.9451569203438,803.0872859873658,807.915010582795,783.3508358537341
1730147920.466168,786.5515217325394,803.2568521933264,807.8197935187686,783.4414056652131
1730147920.4700706,790.3631029905226,803.4292829933308,807.4779209815437,783.816739480631
1730147920.4712117,794.3152166670865,803.5907403957106,806.8503325079014,784.3837333550375
1730147920.4722652,796.144151671814,803.7425273230971,806.0734932251537,784.9819471425659
1730147920.4739065,795.0564659940349,803.8914919455609,805.3565138556067,785.5222539881732
1730147920.473973,792.1297499330794,804.0425409359681,804.7757502610124,786.0018667976515
1730147920.4778757,789.2788968983152,804.1966678124547,804.2222133792322,786.4568464609334
1730147920.481778,787.8183193668125,804.3525612128847,803.5824168409664,786.917414890689
1730147920.4856803,787.8267603622006,804.5087396857107,802.9182248107322,787.3923962606866
1730147920.486815,788.5796721276208,804.6645765325729,802.4229201784835,787.8759001651737
1730147920.4895828,789.3441446441001,804.8202064486059,802.2312540482342,788.359389190381
1730147920.491148,789.8083494955746,804.976009607881,802.312756407628,788.8385206759635
1730147920.4934852,790.0284625411848,805.1322363679976,802.529477542193,789.3134672566966
1730147920.4973876,790.1811886996989,805.2889268368158,802.7537783252585,789.7862339510498
1730147920.50129,790.3837976582063,805.446007414242,802.9310690885801,790.2583605602263
1730147920.5024185,790.654466775384,805.6034031675804,803.0686488995236,790.7302255871747
1730147920.5051925,790.9573339665259,805.7610869936331,803.1946817134242,791.2014742694513
1730147920.509043,791.2556881258058,805.9190710504939,803.3283206459786,791.6716631973909
1730147920.509095,791.5353824077042,806.0773785654183,803.4727552591678,792.1405950007644
1730147920.5100307,791.8008062786027,806.2360241472016,803.6222817494015,792.6083082402341
1730147920.5129974,792.0615752476485,806.3950091699294,803.7709262035712,793.0749213981574
1730147920.5169,792.3235461525745,806.5543264333849,803.9163289093576,793.5405098378257
1730147920.5180218,792.5873052123255,806.7139677986787,804.0591587263551,794.0050797881377
1730147920.5208025,792.8508127182936,806.8739320899676,804.2009701363851,794.4686156636276
1730147920.5247047,793.1121818947445,807.0342307927785,804.3427292653676,794.9311442311068
1730147920.5286074,793.3707790275108,807.1948854082808,804.4845482444814,795.3927580344629
1730147920.5289135,793.6269143257482,807.3559095965738,804.6261049087489,795.8535572372605
1730147920.5325098,793.8811197790866,807.5172800004269,804.7670948727035,796.3135184982843
1730147920.5336251,794.1337006267069,807.6789214764126,804.9074150527595,796.7723903689691
1730147920.5364122,794.3846855102588,807.8407467851019,805.0471169546677,797.2297931176205
1730147920.540315,794.6339808684475,808.0027655804133,805.1862899251222,797.6856390715528
1730147920.5441794,794.8815179661384,808.1651966590854,805.3249870660842,798.1406835666593
1730147920.544217,795.1273033117004,808.3284248759554,805.4632160489972,798.5965798566519
1730147920.5477962,795.3713900088883,808.492659313608,805.6009644979431,799.0547026669503
1730147920.5481195,795.6138253673231,808.6573932386366,805.7382254899487,799.5138187182401
1730147920.5492284,795.8546207236138,808.8211879147012,805.8750070955502,799.9684611878067
1730147920.552022,796.0937668567841,808.982524209401,806.011326351711,800.4113043975249
1730147920.5559244,796.3312922792562,809.1419007350079,806.1471953434093,800.8413926763222
1730147920.559827,796.5673251434965,809.30378275048,806.2826096785176,801.2740271458147
1730147920.5637295,796.8020818910965,809.4753728402612,806.4175512916654,801.7401388397908
1730147920.5648315,797.0357135301053,809.6597807655968,806.5520138493137,802.2621172901738
1730147920.566679,797.268049837631,809.8461112689901,806.6860418783243,802.8100136495319
1730147920.567632,797.4984775041524,810.0068507317188,806.8197462495775,803.2757943198474
1730147920.5715344,797.7263042035662,810.1162185579415,806.9532440205529,803.5271481611261
1730147920.5754368,797.9517217969724,810.1911845732286,807.0865106930906,803.5685622861871
1730147920.579316,798.1767626855352,810.3273407044366,807.2192434242883,803.7190490602399
1730147920.5793393,798.4048504090941,810.6760310820025,807.3509481180915,804.5740730402397
1730147920.580435,798.6377335387003,811.3274557118918,807.4814204296928,806.5325126115488
1730147920.5832417,798.8707891072617,812.1426348881976,807.611443890289,809.0354728213997
1730147920.5855618,799.0913600320442,812.6661465681799,807.7429783545236,810.263962812351
1730147920.587144,799.2865680918044,812.2593719494315,807.8778887266113,808.1230054051979
