timestamps,eeg_1,eeg_2,eeg_3,eeg_4
1730573643.390763,797.3752958232378,817.3879809381871,405.6165293234974,804.6578155593298
1730573643.3930304,800.0655237492743,551.3192928074511,345.22849768137104,810.7135299173176
1730573643.396939,803.58569672046,438.01458375065795,327.9996734060045,817.9072232758382
1730573643.4008477,807.4512123296596,511.75946909059905,362.22709952877204,826.0844519129954
1730573643.4047563,809.4400852666356,672.1169792179702,417.82691938616244,833.1396771793108
1730573643.4064684,806.7309061842693,779.4184696350669,455.0351499874824,835.6788677540258
1730573643.4086647,798.3571510794565,770.9823447637095,456.3511146736111,831.2153506862536
1730573643.4096668,787.3156798592375,693.3426602556473,433.20364470841025,820.8593076178992
1730573643.4125738,780.075107965222,631.3831342423676,406.8954189195707,810.2605191399757
1730573643.4164824,782.7227421078302,614.442385205688,387.82295146405403,806.9521068409208
1730573643.420391,795.9435158541402,594.1599094195725,373.200846899714,814.897345119384
1730573643.422063,812.866652158898,509.0987402133238,359.5917884586374,830.240836887778
1730573643.4242997,822.3270783626448,362.36858023430545,351.16649418658324,842.6037412618017
1730573643.4282084,815.9211416573459,230.65851339071514,353.6119873810869,842.1469956328011
1730573643.4285705,793.8475946648391,198.96217258570073,363.6789246426418,827.1317962467116
1730573643.432117,765.1329880846037,290.8179492497463,370.4070584857253,805.43955624607
1730573643.4360256,742.1543819838118,460.1973996894068,368.7198887065722,788.5317281090512
1730573643.4376578,733.6071200719687,639.4284231836118,368.2425100821837,783.0808753522288
1730573643.4399345,740.623223832009,782.7596038532588,383.06276241941737,787.2840601765844
1730573643.443843,757.7078090329235,866.2717266124639,410.97140159395184,794.1153881915017
1730573643.447474,776.7280272281185,867.6029796880287,427.17902593793195,797.5900744017872
1730573643.4477515,791.0451694582727,771.8329824690657,405.33590888360374,796.4317367936809
1730573643.4516604,797.9141227484467,605.6909875974998,347.84013320445206,793.0603660773374
1730573643.4532526,798.7428183097871,450.4197245170114,292.242906725052,790.2613396079907
1730573643.455569,797.6298319673482,394.9985902962277,281.4637334811869,789.0972397373214
1730573643.4594777,798.945681990383,459.8671905756577,323.44953225630115,789.3779418290295
1730573643.4633863,804.9830602417011,568.2256803231709,380.48035142769066,791.2463502426415
1730573643.4663775,814.7680053924871,606.6454335340682,401.4860021768486,795.7918986801974
1730573643.4672947,824.6833386572797,527.7542569910415,368.06804774686645,804.0996855004995
1730573643.4688475,830.6030291378647,397.2788327908283,310.29610213736925,815.8220517592783
1730573643.4712036,830.2448371416738,334.8550915412447,277.79207335220167,828.5981326521505
1730573643.4751122,824.1993544954217,401.91462350456703,295.34973347050385,838.6836688329224
1730573643.4790208,815.0586818681672,545.2944698387394,345.4945414276299,842.3492252684805
1730573643.4829297,805.612278323267,651.090869602931,390.7917601412785,837.5436024827361
1730573643.4844422,797.7002672033608,652.8756103703931,409.3607886806461,825.3062878177352
1730573643.4852817,792.3164636138437,586.7125141324925,408.74929203526375,810.003709167944
1730573643.486838,790.1151888572024,545.0786260112926,410.3438858314379,797.5413530958326
1730573643.490747,791.3165371296304,585.796991249467,425.95641904900674,792.1348874891188
1730573643.4946556,795.1884741848955,688.9205899992626,450.1111645693941,793.9680124964817
1730573643.4985642,800.1655760916299,791.623763353874,470.11025232507495,799.8876282503387
1730573643.500037,805.0179050113787,848.9942132782327,478.7705707193056,806.6558168757978
1730573643.5024729,810.0265283390685,859.3916057133806,477.83282941269516,813.6530664877057
1730573643.5041852,816.6687328278425,847.2974409949653,473.20009154368836,822.3222855036337
1730573643.5063815,825.6638784820911,835.9403074487102,469.45208337000395,833.0243595903737
1730573643.51029,835.1135256536734,834.4117584766884,467.9254161722028,842.8557992364658
1730573643.5141988,840.7882220608939,840.3438441406231,467.7884465809425,847.107050127863
1730573643.5156317,838.7962787325746,848.0194068804033,467.8169888433682,843.1906408457095
1730573643.5181074,828.6639829574191,853.8854877465092,467.3894732388688,833.1821609840507
1730573643.522016,814.4060555549878,857.5496369997428,466.5338093278759,822.4649174662964
1730573643.5230887,802.6936086862574,860.2264655975024,465.540297401346,815.760643037761
1730573643.5259247,799.1974181161204,863.0635504088845,464.6308350483297,814.064584798669
1730573643.5298336,805.2567920172951,866.463024881464,463.8593206816118,814.7972759513402
1730573643.5312264,816.9198935422359,870.2555217226532,463.17376197214526,814.5437134819617
1730573643.5337422,827.2107286974923,874.1319477380646,462.50911257415055,811.8581273214714
1730573643.5376508,830.4625735566049,877.9163411734721,461.8353183369298,807.9613063203375
1730573643.5415597,825.8502427903778,881.5999487279609,461.1560951214655,805.082646898866
1730573643.5419924,817.5006124038704,885.2513923243658,460.48730000429737,804.1658867838255
1730573643.545468,811.0601444213287,888.9297288414184,459.84005355601494,804.1239238085327
1730573643.546821,809.4011981734218,892.6530904038957,459.2164518382456,803.2851196674314
1730573643.5493767,810.7823676124816,896.4107872687446,458.61335460901876,801.4775130104528
1730573643.5532854,810.7178593125022,900.1864568438559,458.02724672284234,800.5812458735383
1730573643.557194,805.8853683735454,903.9714105653666,457.4564985343941,803.0087232995062
1730573643.5608962,796.9648971731318,907.7654365926551,456.9011221736031,809.6428622225908
1730573643.5611026,788.2888744997177,911.57192446335,456.36171040658826,819.0831539122795
1730573643.5612545,784.6555137456575,915.393978419545,455.83882593421123,828.5447764734594
1730573643.5624158,787.7335304625279,919.2336002167098,455.33297769714045,835.2956020709998
1730573643.5650113,794.7252571714401,923.0922151874752,454.84456367442016,837.5289401051158
1730573643.56892,800.2645182494953,926.970032670926,454.37324459921683,834.59231329278
1730573643.5728288,800.1665291461986,930.863788376929,453.9170581196167,827.127632857091
1730573643.5767374,794.3525038849548,934.7656516457594,453.4725877558776,817.3302498266801
1730573643.5780106,786.9573865479297,938.6676869023429,453.03757277591114,808.8221711159326
1730573643.5798,783.6559853669319,942.5730539865382,452.61543086388775,805.4802546810462
1730573643.580646,788.023023742706,946.5063085910326,452.2175790419015,809.2950957601128
1730573643.584555,799.1596549140942,950.5062668622626,451.85718416134176,818.4800308425496
1730573643.5884633,811.9356474565466,954.5885083250786,451.53203266147375,827.5672290274933
1730573643.592372,819.7388967580962,958.6917728670336,451.2069990143558,830.2476339600181
1730573643.5936055,818.2875491826011,962.6649002503555,450.82108637809006,823.5558480587906
1730573643.5962806,808.3934145771871,966.3671444351348,450.3414125353847,810.4139553905176
1730573643.5963333,795.9676526359832,969.8864496938004,449.8479386661637,798.2504206485008
1730573643.5987036,788.9937608455207,973.714861554728,449.5665517145647,794.2262525674743
1730573643.6001892,792.9956209705837,978.5692483077128,449.733903776469,800.351114962946
1730573643.6040978,807.6379523253537,984.6475890464238,450.2673379551327,812.1335014788759
1730573643.6080067,826.6228672653572,990.6536969979196,450.46125562362016,821.8725051387684
1730573643.6092002,841.0334159601589,993.7024275520001,449.1866576293749,824.0881490059102
1730573643.611915,844.0526126633308,991.4156864270049,445.97208672324757,818.8572775216178
1730573643.615824,834.2546876880393,986.0823630264719,442.5663460453546,810.6630886596729
1730573643.6176074,815.8620446958715,987.6155671928946,443.35813829983266,804.3147777505988
1730573643.6197326,796.2840822979265,1009.5444348955168,452.5501537919255,801.8460188526276
1730573643.6236413,782.4949831521751,1055.0321445271125,467.9637696883044,802.7520532057505
1730573643.624795,778.0327159569624,1101.2604951997905,476.2368875434554,806.2204915578805
1730573643.62755,781.9704341097504,1103.2468025403573,457.883280017136,812.217977419304
1730573643.6314125,790.280526386439,1029.3940877337357,404.45450289498626,820.2608441783833
1730573643.6314583,798.6863057217047,902.3664077357997,333.6921648400143,827.9144826743844
1730573643.6353672,805.0732227680296,794.2189599610293,282.2092562892958,831.6012929350552
1730573643.6365108,809.7878835187041,763.5770940200463,275.58284441920995,829.4671262449215
1730573643.6392758,813.811925958637,792.3895057465502,303.49562546131494,823.2864947154509
1730573643.6403897,816.6259667128367,793.6043230660315,327.3034998926621,817.1232730304941
1730573643.643185,815.9187446700611,692.9052540127661,315.5081172456811,813.9678835980334
1730573643.6470933,809.6607431388823,507.5195699626416,273.07391201926947,813.7363882398962
1730573643.651002,798.8057946313513,340.6264164779125,235.57169876719274,814.3283487594472
1730573643.6549106,788.076500242507,291.0012451047795,234.19249725823917,814.068319647632
1730573643.6554146,783.7195567289097,363.3175850854808,266.54361961090586,812.8708327049292
1730573643.6559844,789.5294334365942,466.3475316943184,301.3584474774984,811.5591258347683
1730573643.6588192,803.8352609457706,501.0279833310772,310.74054122296957,810.7536459537021
1730573643.6627278,819.6122496354709,453.49644383852706,297.0451647068685,810.4854106404996
1730573643.666491,827.9897125783057,405.2016047863841,288.72805395225015,810.4577479670254
1730573643.6666365,823.3500670829723,453.4529231331851,311.19359728733644,810.4006354870804
1730573643.670545,806.9947606482034,620.0851581331951,362.3144326549526,810.2184076747565
1730573643.6715791,786.794334041806,832.999570611449,415.602642592476,809.9482193104698
1730573643.6743183,772.5338571456758,992.7527891653851,445.7725574534645,809.6604757767725
1730573643.6744535,769.7172963840552,1057.0133554515182,450.47845191290736,809.3956739482662
1730573643.6783624,776.1632733848588,1063.764064514899,447.80750992391495,809.1560776008305
1730573643.6822712,784.0676291685296,1076.194648664251,454.0649437787712,808.9260726374063
1730573643.68618,786.0768622503258,1107.2033119973712,465.41496404390597,808.6921014597935
1730573643.6871738,780.6162724150689,1100.0502624007586,462.21081352682586,808.4499512366059
1730573643.6900885,772.3419268110115,987.4713410434374,431.7000979707628,808.2020495708325
1730573643.693222,767.7886151675648,773.9193834682686,385.78815779543856,807.9521539344772
1730573643.6939971,770.2536457009712,557.4824795612451,354.3573638015717,807.7022388086109
1730573643.6979058,778.0969978744569,460.45773652521467,358.48862714579116,807.452272266208
1730573643.7015698,787.149875907309,525.9135025189103,389.129836342875,807.2013738206756
1730573643.7018144,794.3983971933874,676.7401215296995,413.4771925736201,806.9488422732343
1730573643.7027688,799.7257719840185,779.8717028453862,404.8442895967301,806.6944856203996
1730573643.705723,804.9674179007999,759.1704250393748,367.6172104855599,806.4384457151501
1730573643.7096317,811.9173288129222,653.1878223401111,332.3184780084154,806.1809165905007
1730573643.7121258,821.0625966526645,567.0310571266705,324.96906025343077,805.9219934272061
1730573643.7135403,831.3916439292386,568.9255360560471,341.0170313642854,805.6616697611772
1730573643.7174487,840.7033696705375,632.1084025576332,350.33044670337654,805.3998950795869
1730573643.7183635,846.1970936405953,674.3500078811181,329.1429685065249,805.1366182164342
1730573643.7213578,845.6086993761929,650.5123701360011,287.51158039131207,804.8718015411879
1730573643.7252665,838.6816136786829,603.0987903940709,264.08975303406817,804.6054309568776
1730573643.729175,827.8657312120408,619.5378898684127,291.32301238042027,804.3375407976432
1730573643.7310293,817.2215743148674,738.9116918609252,363.3836628289617,804.0682324809169
1730573643.7330835,809.9093054378019,902.380787992144,437.70757821434717,803.7976308884702
1730573643.7339582,806.0947000413598,999.7623831791582,469.9033070522546,803.5257447132475
1730573643.7366488,803.086116656171,970.2688798786396,450.66576128667793,803.2523035404615
1730573643.7369924,797.8272459474802,860.5739292156426,411.3887289991942,802.9767816070408
1730573643.740901,789.8471021326638,782.1610824002042,393.83906559825084,802.6988257652712
1730573643.7448096,782.1691200250937,806.3719796453205,411.9280898349699,802.4190035764966
1730573643.7487185,779.2256073784857,897.3837994848321,440.564159219022,802.1392083009105
1730573643.749553,783.4042321834537,948.9415469204081,441.43647557932184,801.8616758028743
1730573643.749933,793.1830372666352,890.4478082910207,401.17900470286605,801.5862004578622
1730573643.752627,804.4496536741351,759.0383860147938,345.6598510705083,801.3072082144301
1730573643.7565355,813.6592857529789,666.2814499982342,316.7566388941981,801.014752822219
1730573643.7604444,819.853568365368,691.5642274415468,333.96410848226583,800.703192707237
1730573643.764353,823.9260764079825,806.5958044840123,377.67388542062776,800.3851275685428
1730573643.7651477,826.4033231824562,904.150294477033,409.37430779676436,800.0973242417297
1730573643.7682617,826.33996042275,901.2233995699324,407.88795879194447,799.8794275487692
1730573643.7688367,822.455112263007,815.644622946097,386.4027608916876,799.7204152257324
1730573643.7717276,815.1667077364951,744.1848178044087,375.77357280465003,799.5081937537454
1730573643.7721703,807.3239777502312,766.5711695124937,392.8495623572862,799.0608422884783
1730573643.7760787,802.815153836678,868.7736529220543,425.2155611557986,798.3056816147393
1730573643.7799876,804.205629283879,957.5276291080827,445.41826055935564,797.5520637085212
1730573643.7807424,811.2574742445601,950.0070114444626,438.5087551516532,797.6167607809832
1730573643.7838962,821.2352481205671,851.4968183173531,415.0767340475004,799.519841586321
1730573643.7877405,830.4620388399948,746.1089869403412,397.77634613439415,803.7973359057136
1730573643.7878048,835.9479680828107,709.8202399270095,396.1683296675769,809.9375084328528
1730573643.7917137,836.3197178597362,731.8839850060539,396.2686381227288,816.4169769035591
1730573643.795622,831.991816864295,724.8508372093925,376.26259436231754,821.2717192199528
1730573643.7963371,824.8276729977867,616.9899610518241,332.81060698971015,822.8219361234678
1730573643.799531,817.4619838784652,436.408711449681,290.1127698284345,820.3442921727319
1730573643.8034396,812.406586598285,299.80455074663143,279.96042340577947,814.607926381466
1730573643.8066442,811.1624719676968,311.6275250366698,310.8187556976368,807.9625288648948
1730573643.8068063,813.6198668123138,470.01857607516155,357.3562440307664,803.5329567057724
1730573643.8073485,817.9706376807825,671.0770091717011,383.1836683468009,803.5551533717914
1730573643.811257,821.2840235682881,805.7717404769272,375.8303980224091,807.774047980506
1730573643.811932,820.760841351383,852.3740684663718,358.57027801281384,813.2227286118966
1730573643.8151655,815.2992121397566,874.5039498151909,365.41163577350716,815.9562710620303
1730573643.8190742,806.5117725868512,932.7885842645078,403.22968412419044,813.8130928163544
1730573643.8229828,798.3004350104084,1006.210226562491,440.0637558542606,808.2366341410741
1730573643.8255477,794.89073655147,1007.5860051953222,433.8418257016857,803.6009767709527
1730573643.8268914,798.3901002363303,879.0424803353064,374.984010555898,804.2324389809451
1730573643.8275268,807.4590683667533,669.0593587089081,300.7929544101529,811.1734959781433
1730573643.8308,818.0143486803291,508.0616945671335,265.5955908883554,821.1720742179864
1730573643.8347087,825.4806170859342,498.96844428022416,292.98161400315115,828.7965331850104
1730573643.8386176,827.0631748038004,624.1462052132774,354.07528840502704,830.0736803899076
1730573643.841885,822.6341762298078,757.9235747048835,392.0358139087908,824.792168071525
1730573643.8425262,813.9824882719305,776.1532301993599,370.8867854956577,815.8590548803003
1730573643.8431215,803.386660120968,664.4234703351859,305.6047776589297,806.7140530434694
1730573643.8444514,792.7268283326327,528.6258642405985,248.51212529076,799.2574304835895
1730573643.8464348,783.5511851887203,501.91608348098794,246.19568600200964,793.7499591076681
1730573643.8503437,777.51588559592,634.5810663415876,305.2102247418775,789.9987171094978
1730573643.854252,776.3416790689096,862.2632284980949,393.2817255029791,788.1576745009941
1730573643.8581607,780.9973102132161,1069.5233464534272,468.9500578740354,788.3914892431724
1730573643.8587162,790.6287432994799,1179.8091812295638,509.77341362618057,790.1100997159522
1730573643.8620694,802.1558666280283,1191.6310868663384,517.215060817035,791.8507218156402
1730573643.8633552,811.1821761127675,1145.5565965128228,502.6654909848306,792.0569048880017
1730573643.865978,814.0389382340168,1073.142651768576,474.6789285744419,790.1321464074476
1730573643.8698866,809.8983597219124,981.5371360255185,439.05521927925264,787.0502717199654
1730573643.8737955,801.5845399162774,875.9049768139066,404.98324131453353,785.20589515131
1730573643.874311,794.3124486848787,779.5619355113987,384.27072652024367,787.4710444889257
1730573643.876964,792.7897978756235,721.6223138903039,381.77705751947644,795.6111469732323
1730573643.877704,798.2291447114,705.4854549838853,388.4354371642545,808.7017443149317
1730573643.8816128,807.1676671648353,697.275285945868,387.4984921221085,822.7227298804329
1730573643.882259,813.1805687683119,654.1816242604838,370.4740392431731,832.170619022997
1730573643.8855214,810.7944872709879,569.6586889233727,347.2586957543475,833.0888692618175
1730573643.88943,799.2244736237434,490.01219549075273,338.62682681816557,825.5835849339753
1730573643.8899057,783.3660959485934,479.2924057035592,355.94677311469684,814.0631913462805
1730573643.893339,771.1966902570808,558.5020632941187,386.89812485905964,805.0007400228096
1730573643.8972473,769.1938585257457,675.5655651263029,402.8669491531411,803.5675607631678
1730573643.901156,778.7112458482902,741.3853130133967,384.51948597865487,810.9945888517207
1730573643.9011626,795.5130293226902,707.4199431214566,343.2904327669787,824.0179356623115
1730573643.9050646,812.501739293938,615.3553618306624,316.66945140297605,836.6831128016863
1730573643.9055004,823.6795849474541,567.2711765152292,337.19273128562685,843.5054063507176
1730573643.9089732,826.8778291193477,636.193649118039,400.6866017542533,842.15572908794
1730573643.9120429,823.9115019692586,796.6051682542385,463.7382868627344,834.1759836557393
1730573643.912882,818.5873233176226,941.105114320969,476.3011945247241,823.622197390681
1730573643.9167907,814.1820523883895,970.3421856439663,422.9468585686919,814.8469436529276
1730573643.920066,811.9898219731649,873.5155663031927,336.2480825747263,810.7774075270761
1730573643.9206994,811.5020552344887,726.1626792435667,269.61642698457376,812.1624781642487
1730573643.9210951,811.5571434598404,612.6892674862772,253.64748703436973,817.510527476789
1730573643.924608,811.3451715777932,552.6133655696145,274.8782520059278,823.5604487326023
1730573643.9285166,810.6899209049756,500.8580176068031,294.37247225577534,826.5169761241735
1730573643.9324253,809.7929381409496,415.1621687750281,286.5610035376533,823.8991451686543
1730573643.936334,808.8906581194274,317.570502162127,261.7894808718337,815.9167651017907
1730573643.93669,808.0862584210716,286.3896440842062,253.91647637398296,805.2218257181147
1730573643.93897,807.3609858189344,386.1147081977491,287.7373460975838,795.2169325457197
1730573643.9402423,806.6553210604436,603.2592642532745,357.5270987351114,788.4053716092674
1730573643.9441512,805.9293740664265,849.0435844862313,434.1423698330065,785.9412873295063
1730573643.947122,805.1765911307724,1026.0539350967192,490.1964884951711,788.0554258037362
1730573643.9480598,804.4088220358346,1097.8576023204473,518.3513121907815,794.2925095263126
1730573643.951969,803.6384050333373,1101.8503708375804,528.4549798876128,803.264406101596
1730573643.9522848,802.8701632030492,1101.6881850341235,531.5333718394147,812.6552028170128
1730573643.9558773,802.1026617755006,1129.9396735906835,529.3293235291068,820.0775382905613
1730573643.9578736,801.3326603850516,1172.3586178435962,518.2405541212008,824.301718277032
1730573643.959786,800.5581564051906,1196.9518376453684,499.1393224678064,825.7845110856921
1730573643.9636946,799.7789205824132,1187.3340118660212,479.16162367645717,826.0458202381218
1730573643.9676032,798.9956196930377,1145.1057000701821,463.01073184790846,826.5180017855208
1730573643.9678795,798.2088805291629,1069.033560209207,445.492857731418,827.8436734807696
1730573643.9715118,797.4189154026434,947.7440780909889,416.90790951167486,829.9838822710774
1730573643.9754205,796.6256254597047,783.695636674248,377.82205937649,832.6869879488758
1730573643.9767773,795.8288450575753,621.737253472651,346.4994187280773,835.6691665890395
1730573643.979329,795.0284888281042,538.899372303279,346.94418296636945,838.3687603644345
1730573643.9822006,794.2245546454695,587.27532011196,385.19315509075534,839.7690451490148
1730573643.9832375,793.4170555981398,735.5600218317272,436.3575236376629,838.8193408126047
1730573643.9834745,792.605974616328,869.8659994309296,458.4231961913166,835.2814956006295
1730573643.9871464,791.7912939377976,868.8616912203903,425.0176533692389,830.1228037922712
1730573643.9910553,790.9730823546985,699.6636868434776,349.87103371720366,824.823928017378
1730573643.994964,790.1515497401672,453.2567904373467,279.7876290247145,820.1470853311085
1730573643.995681,789.3269453250361,282.37759207228714,259.1026172126939,815.7225408239219
1730573643.9988725,788.499256968783,287.0851707996835,294.5656802508525,811.0790031319156
1730573643.999069,787.6678983694865,441.82701297318897,351.3341864846747,807.0328693944047
1730573644.0027812,786.8318268391978,625.8080629477084,384.5301134864318,805.6508483545088
1730573644.0066898,785.9904888322458,729.2197756221472,378.67285442882223,808.3984179666888
1730573644.0105984,785.145312841686,739.9536271416655,359.06422784877685,814.2025811025956
1730573644.0145073,784.3003035783531,733.7559202576774,364.46104730943324,819.5557735825033
1730573644.0145843,783.4596815965831,782.0702431511297,406.7734632398154,820.8759358527722
1730573644.0146637,782.6220812778747,870.4292153469072,456.33975674498254,817.1297267989347
1730573644.0172794,781.7751769684484,909.0895907140615,467.5557625049002,810.4941363275432
1730573644.0184157,780.8991180391034,826.2460599555774,421.57565448146687,804.6426246258009
1730573644.0223243,779.9854667414979,651.844627109714,346.5234767692867,802.2126747512876
1730573644.026233,779.0646807745158,507.86488079324755,296.4405651668513,803.4497325021985
1730573644.0301418,778.2135456456093,511.1996853976649,308.1874305432695,806.802932004775
1730573644.0302584,777.5052216190924,678.6979928214236,374.6677263927631,810.5447125488238
1730573644.0334885,776.8986025307248,919.4495919749795,455.6848346004806,813.75658883415
1730573644.0340505,776.1479493177575,1114.985166730818,512.6122747069892,815.9334579688514
1730573644.037959,774.8929947784735,1209.062582571112,534.1845850749406,816.1485384609911
1730573644.0418675,773.0438929434243,1228.9009616261242,533.7692031254389,813.3200039682596
1730573644.0457764,771.3108614915238,1231.4678257972387,527.2913663086599,807.7224256360198
1730573644.0458534,771.3568944375692,1238.0175224605462,516.8607786659733,801.9660127808297
1730573644.049685,775.0249634296181,1222.7447833922283,495.1603997381468,799.6908184518774
1730573644.0523584,782.8558418173175,1160.1031748723572,462.3476522948252,802.5874959237574
1730573644.052392,793.1510477745489,1073.1566240528714,434.2916654202106,808.5212505835859
1730573644.0535936,802.7153767528011,1023.9876982525163,430.6385097546935,812.8601415316515
1730573644.0575025,808.84757427213,1048.6227981561906,453.3468900312265,812.0708840973961
1730573644.061411,810.875500422382,1102.5143961472713,478.4543570969319,806.4318391879183
1730573644.061448,810.0308774637168,1081.8403293211845,472.8187227023718,799.6244412458383
1730573644.0653195,808.0879969642061,914.7854960994805,423.18162227669126,795.9152469241902
1730573644.0692284,806.2089251595029,641.9264930663644,350.97080051977673,797.5511132430689
1730573644.0712955,804.9070817733424,403.40157460711856,297.47286509130544,804.1994772595535
1730573644.073137,804.6443953867969,332.4280645202768,290.97302037181987,814.0286425146587
1730573644.0770428,805.8849065408083,445.48071627337697,324.9409541588757,824.7791178862594
1730573644.0770457,808.2306498067682,629.37168000831,366.95142131054666,833.9263310420072
1730573644.0809543,809.6515711435637,739.3471914818409,389.46430452972885,838.5911086078781
1730573644.0848627,807.1327524439926,719.6276985052496,392.86065420068945,836.3510795651889
1730573644.0874372,798.7870664409218,637.8926839637684,399.0630267117384,826.9774809251365
1730573644.0887716,785.8979021422446,607.9846497908584,423.5738998479976,813.6234213801083
1730573644.0901997,773.1134192891568,679.6005941897722,455.4488175218132,801.8598417574166
1730573644.0926375,766.347236897484,799.2667884625613,466.46643258993396,796.6104717692488
1730573644.0926802,769.608384507476,872.663500648312,440.67819421056413,799.0804494705183
1730573644.0965889,782.6877421885198,859.9376364067374,393.8824116336213,806.2244204994041
1730573644.1004975,801.0570924514163,807.9542295161622,361.5276838384183,813.4147164627202
1730573644.1044064,818.0184261502671,790.5200543763148,365.08755400192234,818.1518325244882
1730573644.1082325,827.8742568858212,821.9480270454147,389.97932248251146,821.5240675998167
1730573644.108315,828.3769351537184,836.9727786617575,398.6196336862878,826.0780235958294
1730573644.109103,821.2525769360798,762.1900492808151,368.0659148549528,832.2235669384422
1730573644.1122236,810.8127202813381,607.884231544351,316.200559652165,836.8619178217407
1730573644.1161325,801.7052385371744,482.2012644044316,289.4168012012761,835.8454823550439
1730573644.120041,797.0357868418716,502.3086433052987,320.6106005843427,828.0978534128112
1730573644.122516,797.492779436117,680.2157930106451,395.2662038019712,817.469097007589
1730573644.123827,801.4444301287367,893.1935583031034,458.09681321558037,810.367520191566
1730573644.1239495,805.7924917417514,975.7927899862384,457.12994389352747,810.984007780526
1730573644.1278582,807.4348227981566,858.145996969433,387.93462361766257,818.0468288122696
1730573644.1280067,804.9160505742113,628.4791295955526,299.05033585444494,825.7341733780312
1730573644.1317668,799.3117143813993,462.75023490763664,253.3374181555497,827.9157552534873
1730573644.1356754,793.5015290763845,483.22805225384434,279.09868824933073,822.323738243775
1730573644.1394217,790.1970204115964,670.0021265878199,352.9692513399156,811.6463467952127
1730573644.139584,790.3463438393277,896.6125140098177,425.95538084404586,801.2557626127385
1730573644.1434927,793.2724556224279,1045.711204607789,464.81528355531964,795.7526388374497
1730573644.1469104,798.1114083167507,1094.432424128896,471.2057612793691,796.7986787707032
1730573644.1474016,804.7215968225814,1100.4808708488072,467.25045023934445,803.1454667183948
1730573644.1513102,812.8849902009317,1119.7457918507437,468.711672705957,812.079719337312
1730573644.155017,820.6793471904268,1144.5895139370662,473.4422048606158,820.9188072840155
1730573644.1552188,824.1163219207691,1119.3571551727343,471.32105965856454,827.6864079533162
1730573644.157595,819.1534189063351,1007.7754380404607,459.0456984015777,830.9962528230586
1730573644.1591277,804.9154546347684,838.4166548463431,443.0284095687142,829.8143610564395
1730573644.163036,785.5557718674587,681.997149596864,431.35731211932705,823.7581990856804
1730573644.1658142,768.938787476509,585.747595870157,426.78603490295944,813.9171409696945
1730573644.1669447,762.6160149030263,533.8050958031736,426.87437150622804,803.3552649218823
1730573644.1706114,769.5922406303678,475.8625198483997,427.92868607709556,796.2943422368959
1730573644.1708534,786.6580263916252,395.2982183361867,427.8470783742629,795.8972370424323
1730573644.174762,806.4079415461523,343.636501602438,426.4674563908678,801.9978627025155
1730573644.1786706,821.5658963811917,398.22204888042063,424.54400686566953,810.6892061298178
1730573644.1825795,828.6516762636443,578.8510937910946,422.74738547844174,816.5071533459035
1730573644.184718,828.6517359891425,807.7035940874408,421.2912771293396,815.8220830892348
1730573644.186206,824.8285348151388,961.0178570226915,420.0587468993877,808.93505055093
1730573644.1864882,819.9930901349545,971.2574749978471,418.86356318618476,799.4109919642495
1730573644.1903968,815.4767409533351,884.5918121702329,417.6059591925616,791.4202061332405
1730573644.1926737,811.9309515714376,817.5107666914759,416.28560095184486,787.2587570250257
1730573644.1943054,810.269159247643,852.01064317481,414.94504364575005,786.6851570647046
1730573644.198214,811.3719370483403,966.581933819464,413.6186279496915,787.9987251484695
1730573644.2018008,814.9960959455099,1063.77169301424,412.3156423363036,789.5596248449515
1730573644.2021227,819.4378073994352,1062.4675516461573,411.02873860088914,790.6021331802265
1730573644.2036214,822.631930763587,965.5639729372299,409.74795353790216,791.1509061038761
1730573644.206031,823.6353388703893,843.3899463139663,408.4683862408218,791.5341706471152
1730573644.20994,823.0088058985474,756.4187258310689,407.19034096969557,791.99879244063
1730573644.2138486,821.9479895947704,696.8466449698246,405.91610590475204,792.6002076597504
1730573644.2173955,821.2702481802952,607.0424908519185,404.6472548436836,793.2762030243246
1730573644.2177572,821.1098475937841,455.7787989266641,403.3838622437784,793.9526202734337
1730573644.221666,821.2102793059724,293.8784228484193,402.12513797651263,794.5964106875725
1730573644.2225251,821.3030500552458,227.85976625814374,400.87046984881056,795.21280382482
1730573644.2255747,821.2808997095597,330.0327115697608,399.6201051085602,795.8201900329485
1730573644.2277524,821.1724575540437,568.9014544302996,398.3750149123824,796.4311069335052
1730573644.2294834,821.0467472997116,827.7513991399472,397.13578248778094,797.0477262366139
1730573644.2329905,820.9469995623249,995.7562943027168,395.9009862401289,797.6663919824789
1730573644.233392,820.8783497889125,1047.936547434199,394.6665664808583,798.2832132214273
1730573644.2373006,820.8263621305385,1044.6730799328172,393.42818232986633,798.8966151463761
1730573644.2412093,820.7772215289749,1060.3448504484786,392.18700551763584,799.5069886864571
1730573644.2414289,820.7260238096004,1113.3956040838546,390.9551066186671,800.1153120127709
1730573644.245118,820.6747693466045,1159.0346708973539,389.75211858440525,800.7221920550212
1730573644.248585,820.6271845299498,1140.7182215647795,388.5864934911963,801.3276862414351
1730573644.2490263,820.585415475635,1045.1848802418453,387.4281676569601,801.931571133105
1730573644.2529352,820.5495922955022,911.7930898414864,386.2009637976792,802.5336337199687
1730573644.2568438,820.518899155827,794.8762314340386,384.8319465493189,803.1337871478612
1730573644.2603326,820.4926224339946,719.3795771350551,383.36153238590276,803.7320361559057
1730573644.260753,820.4705342438435,670.8389990830515,382.03488981936385,804.3284024732219
1730573644.2628314,820.4527512841855,624.8353373429744,381.21696956714027,804.9228910174356
1730573644.2641797,820.4394582339918,582.3878051141933,381.02079809904933,805.5155092026143
1730573644.2646613,820.4307477730225,572.0561943959731,380.809238391083,806.1062975528182
1730573644.26857,820.4266101151027,614.1392467952217,379.12733813265964,806.695313432034
1730573644.2724786,820.4269875823649,685.4624597234612,374.73690248236846,807.2825424354322
1730573644.2763872,820.4318135902781,728.7747317244963,368.7179499595026,807.867793144199
1730573644.2792363,820.4410163024777,705.9255343762998,366.0173450919825,808.4507189280054
1730573644.279775,820.4545188095456,641.8280608074987,373.5212777496628,809.0311040687881
1730573644.2802958,820.472273864506,606.9576675264192,393.0307865252688,809.6093437525243
1730573644.2842045,820.4943269621128,648.1072264075088,413.1700798722814,810.1866729949314
1730573644.288113,820.5208339948679,737.0692427645657,410.8053378153194,810.7644773671516
1730573644.2920218,820.5519324329063,794.7118451077594,368.7284954332168,811.3424703071807
1730573644.2953694,820.5874552962911,769.6055520199277,297.4588668181667,811.916884363986
1730573644.2959304,820.6266987467642,689.4768554319875,235.74675015996985,812.4813249531021
1730573644.2979102,820.6686567806746,629.8046969720384,221.28781776556767,813.0325777765194
1730573644.2981398,820.7130036085206,631.3991557524915,256.5258127331289,813.5794997916112
1730573644.2998393,820.7613872861072,654.10673191861,304.18234249422045,814.1461628687342
1730573644.303748,820.8175658661225,617.9312631849012,319.7093872794822,814.7570675105069
1730573644.3076563,820.884651794938,492.98113345736664,291.58618194592145,815.4021716892453
1730573644.310964,820.9596335401937,347.25592895302293,251.975611959433,816.0059038970991
1730573644.3115652,821.0295244659156,299.442625036891,247.86676723733598,816.4508222942644
1730573644.3154738,821.0768890975337,416.3001722868952,299.72624451381853,816.6950354817658
1730573644.3170435,821.0991309057249,650.5256369370823,385.4054608592479,816.9402031800436
1730573644.3193824,821.1316905649061,878.4302578857449,461.7820822070124,817.682632797629
1730573644.3232913,821.2464105516342,1001.7483564741291,500.9921547843321,819.4477760639795
1730573644.3265588,821.4938596381091,1018.4507680166665,507.3022168864751,822.2653495709907
1730573644.3271997,821.7971481990953,1002.3436518338468,503.3045485710277,825.4257325139414
1730573644.3311083,821.8811770240434,1022.4648753834883,504.55853574425123,828.0637816336059
1730573644.332989,821.3685059501166,1085.7846978022535,508.8720671658395,830.1361365178344
1730573644.335017,820.0660768218789,1150.2292582584048,506.2790402406133,832.5410256289482
1730573644.3359473,818.2028491776023,1177.4745063012967,493.5595577227782,835.9946925295826
1730573644.3389258,816.3076911134591,1164.70847786219,477.013327016592,839.9321268390248
1730573644.3421535,814.8044522111111,1134.3028289970175,464.569252650345,842.8287708131365
1730573644.3428345,813.7543502001115,1107.7394824748321,458.95541276347757,843.65599945133
1730573644.346743,812.9529660232527,1092.3803625338517,457.8400044767169,842.7956844485991
1730573644.3506515,812.1749823247019,1084.5578954708308,457.65639854528945,841.3639182867834
1730573644.3545604,811.3156396884606,1078.0380463891556,456.3676307706895,839.7868712386992
1730573644.354851,810.3837516955094,1069.3405615810018,453.8122571424749,837.3526266968335
1730573644.3577485,809.4301898329908,1058.3307735862054,450.7179873044146,833.2662509156232
1730573644.358469,808.4916618667759,1046.3918958501426,447.7341327058097,827.9093227132873
1730573644.3623776,807.5756548972744,1034.693727433393,445.0686122323041,822.7462794533011
1730573644.3662865,806.6723052406908,1023.5827339765681,442.6089928510203,818.9255407142905
1730573644.368068,805.7703686425988,1012.8346244450344,440.1750954869385,816.1807986379747
1730573644.370195,804.8649557882234,1002.1196375221563,437.6700367637249,813.3221425784907
1730573644.373343,803.9568889838571,991.2684668917113,435.093150050556,809.7898509014973
1730573644.3737547,803.0488574798303,980.2863172649002,432.4854361255687,806.5130769951197
1730573644.3741038,802.1425984975889,969.2499117327744,429.8800881290337,805.0669114535909
1730573644.3780124,801.23828044177,958.2185398489974,427.2861081104894,806.0080659963899
1730573644.3819213,800.3352181436705,947.2067201991933,424.696383087109,808.1969337581731
1730573644.3858297,799.4327137937156,936.200427585397,422.10122793370977,809.8738477666097
1730573644.388938,798.5304263261224,925.1819061549794,419.4958159653574,810.3935594078156
1730573644.3897383,797.6283069965482,914.1426690877931,416.88033945886076,810.8238082955551
1730573644.3926582,796.7263885363683,903.0832981566933,414.25694508089214,812.7709492385461
1730573644.393647,795.8246435467635,892.007695068739,411.62719801719885,816.5618532645844
1730573644.3975556,794.9229625387579,880.918540373124,408.9913579558443,820.5214431577457
1730573644.4014642,794.0211988374447,869.8161092777109,406.3488863616717,822.0412151285932
1730573644.4031467,793.1192142043438,858.69927062185,403.69916610992124,819.5298496904983
1730573644.404533,792.2168924258085,847.5668000961787,401.0418627281483,813.6387074072682
1730573644.4053729,791.3141234611495,836.4180077275843,398.37690577207934,806.8423862716876
1730573644.4092815,790.4107804035807,825.2526783794459,395.70431853288113,801.7821210632427
1730573644.411562,789.506716225934,814.0707549454289,393.0240892728144,799.6359318655665
1730573644.4131904,788.6017973480397,802.8721112955822,390.33614155450493,799.6289275561188
1730573644.417099,787.6959616360764,791.6565088328606,387.6403665743679,799.9023435629979
1730573644.4201274,786.7892449844466,780.423659998878,384.93666187490663,798.9976014716456
1730573644.4210076,785.8816984039161,769.1732929183527,382.2249465818786,796.8228408804753
1730573644.4249165,784.9731744671168,757.9051649961289,379.5051535221313,794.4291933008095
1730573644.428825,784.0631222278339,746.6190377485091,376.77721460540585,792.9104730892473
1730573644.4304657,783.1507000972815,735.314661593581,374.0410575053351,792.4498948818198
1730573644.4327335,782.2354636752764,723.9918147702801,371.296622883074,792.3348164459654
1730573644.435722,781.3183907841903,712.6503919762877,368.54389351940256,791.8333531230713
1730573644.4366422,780.4022008430928,701.2904607691547,365.7829047320495,791.0556343927129
1730573644.4382255,779.4895684672305,689.9121546228598,363.0136976066802,791.0021235574443
1730573644.4405508,778.5790351442324,678.515345030815,360.2362102331944,792.7738499152152
1730573644.4444594,777.6615090537939,667.0992823729488,357.45018474287406,796.6226305145079
1730573644.448368,776.7232224731132,655.662690090738,354.655246574776,801.5838658763322
1730573644.4493694,775.7594169490142,644.2047775835106,351.85126873681537,805.9317278232157
1730573644.4513168,774.7931025958109,632.7269176783155,349.03886915220437,808.0976340079977
1730573644.4522767,773.8783819721223,621.2334314026052,346.2194945668159,807.4073608224397
1730573644.4561856,773.0631224219769,609.7291553823596,343.3944207927371,804.1798443337098
1730573644.4600942,772.3115953063722,598.2130609583483,340.5626853534743,799.2803057036051
1730573644.4640028,771.4473004089932,586.671964184685,337.7195417837896,793.6916199486213
1730573644.4669116,770.2285278339791,575.0835916612738,334.85837460930793,788.5232898671887
1730573644.4679115,768.6310780987063,563.4369567068002,331.97788192674386,785.1611535642019
1730573644.4682732,767.2244379434113,551.7633882639951,329.09107196307156,784.8507645559753
1730573644.47182,767.2804319745749,540.1472375685404,326.22540168987325,787.6431211979567
1730573644.4733045,770.2439744623721,528.6737406577565,323.4021056659828,791.7294996542806
1730573644.4757288,776.6528849488467,517.3064645017686,320.59715990377794,794.2778159694275
1730573644.4796374,785.2315150929768,505.77908473364937,317.71626605517514,793.4732838683717
1730573644.4825065,793.0313443456406,493.6778340935106,314.63882131872435,789.9902942755114
1730573644.483546,796.8568342715915,480.84771573310206,311.35847247351234,786.4010320424577
1730573644.487177,795.2388809090281,467.9615114980195,308.1440701125092,785.0027005692062
1730573644.487455,789.6519695193375,456.6405427835053,305.51415722556567,786.1430582292521
1730573644.4913635,783.9971563817787,448.3575364502005,303.8148810467584,788.5709094481698
1730573644.4952722,782.475033134082,442.1025047540315,302.4893231282926,791.221815276929
1730573644.498101,787.1192857381942,432.56872729935594,299.69255297799646,794.4591387915583
1730573644.4991808,796.5766619337348,412.2008615727846,293.275165751591,799.5414199759541
1730573644.5030894,806.9232010779807,379.29745768923374,283.53488820272577,807.0235421447342
1730573644.5060804,813.9777518077382,348.5632837604681,276.1247508224672,815.8024484326834
1730573644.506998,815.635759247397,352.4600696576784,281.2304729636771,823.6772080368993
1730573644.5083833,812.7803572056066,420.53545116701827,305.6716290992058,828.7269297711035
1730573644.5109067,808.291267374482,541.7184890930206,341.27661206040716,830.2136341275419
1730573644.513696,804.9564069295805,646.8593682277489,362.75078485339753,828.4873843351106
1730573644.514815,803.8019871884143,652.3725085108316,346.1936752281488,824.4095859950005
1730573644.518724,803.9271022923856,544.1489201641331,296.33074402774133,818.9965238818315
1730573644.5226326,803.7086805751991,413.5515119436947,251.50413479542482,813.4020862730782
1730573644.524984,802.2756725492183,388.6960174470114,253.68075648660863,808.8868181025456
1730573644.5265412,800.1658955831737,517.492100855065,310.4881941744962,806.5154411214844
1730573644.529291,798.8457740867195,719.3314970029453,388.002096250605,806.6763798332818
1730573644.53045,799.5504472303676,856.5375018362104,441.6391572453172,808.7301271461693
1730573644.5343587,802.240572036978,856.978867486614,454.0472153697604,811.113689253506
1730573644.5382674,805.3697648750499,770.4176878682247,443.9966186213142,812.0556098252786
1730573644.542176,806.7066411178733,709.0740283298263,441.32432813429625,810.618355626179
1730573644.543462,804.7861049141471,735.9320934574015,456.11873076456715,807.3247131493737
1730573644.543888,800.0577248683863,810.7540148488971,472.7714270031863,803.7395109059294
1730573644.5448854,794.9130860940334,841.8307421469257,471.56452257872894,801.2608978693689
1730573644.5460846,792.4980786792146,785.7432181318817,452.2183726148544,800.2413468898447
1730573644.5499933,794.9863711103059,692.4866164343705,433.6689488448679,800.3245605266414
1730573644.553902,802.2802033565052,652.2093616265065,431.2529453114939,801.5584453715595
1730573644.5578103,811.865130670531,701.9715345137924,437.7258922414649,804.8511163619098
1730573644.56048,819.9900473385471,791.1313460782169,430.8250132647722,810.9918516662871
1730573644.5617192,823.6412040612798,839.9503492074789,400.5278958775385,819.1982020774085
1730573644.5627916,822.1913719287479,825.8648446776532,365.61683289856296,826.9316011139362
1730573644.5656278,817.6265783221845,803.3554563514764,358.5407839083731,831.4814576950026
1730573644.5695367,813.145930750415,836.4321310237636,391.3335245086141,831.9041925741338
1730573644.573445,811.1398183409485,917.3194666887749,437.5026651675066,829.4989947314824
1730573644.5760748,812.007666913523,960.0743248155513,450.8805279602668,826.5001143560486
1730573644.577354,814.5061741367477,879.9569725444366,406.04799664414634,824.3460835865155
1730573644.578541,817.0417140266021,681.1511823173009,322.9393910111804,823.0422478459291
1730573644.5812626,818.7094964044022,465.52379604648047,252.18710987965957,821.8595285047928
1730573644.5816953,819.3620042998224,350.55581745253033,233.6292470399691,820.3810409721754
1730573644.5851712,818.9524409055518,370.83023202983713,264.4615942563123,818.8646373743079
1730573644.58908,816.9783098226451,453.5971779461664,304.58143295300306,817.819049672348
1730573644.5916696,812.6948819821141,490.9718180398267,313.6119766947434,817.4620275191567
1730573644.5929885,806.086193564285,442.0495317477293,286.42417424520323,817.607625778777
1730573644.5968971,798.8058141311429,370.3398708303481,256.0856990402973,817.9193582692781
1730573644.6005988,793.9680382815924,382.6928185585145,263.09929383980204,818.1685452503496
1730573644.6008058,794.3076126351751,528.763406922249,320.04084063605734,818.3034803122372
1730573644.6047146,799.7380264234702,755.4073049080649,402.9586975393184,818.376864562659
1730573644.6072645,806.4775528500323,954.2161792392503,473.8930394252088,818.4520708066956
1730573644.6086233,809.134839088837,1050.9078575396345,510.39053918043805,818.5570599430927
1730573644.612532,804.5856254755148,1052.5890343693725,515.7520968097546,818.6869831325992
1730573644.6136198,794.5051497107117,1019.9104595783822,506.636789464513,818.8258923387481
1730573644.6164403,784.3170216958607,1005.2739682581682,495.82029781197764,818.9630362411539
1730573644.6195023,779.4382897531091,1018.8234082652373,486.55154006980473,819.0966262198292
1730573644.6203492,781.9484710890011,1041.0441923782078,477.8820454306584,819.2298567591458
1730573644.6228592,790.077103001039,1052.7516537422482,470.0504900392427,819.366080839158
1730573644.6242578,800.25713711305,1049.987199580698,464.4513205892839,819.5066360718312
1730573644.6281664,809.6269761319663,1039.5582648111554,461.50141749555365,819.6511688863322
1730573644.6320753,817.1286205643624,1029.0884520082834,460.22298693239907,819.7988307685247
1730573644.6359837,822.89257081384,1021.8637805004041,459.3166293670536,819.9491022094714
1730573644.6384065,826.9009188830322,1017.2774220350705,458.04844521786487,820.1019401931245
1730573644.638454,828.2317851354223,1013.4368734877661,456.35110554416445,820.2575389352513
1730573644.6398923,825.5818732972126,1009.0825897572108,454.4745651570651,820.416070433365
1730573644.6438012,818.6801987466109,1004.0154299519583,452.64540526054157,820.5775808965456
1730573644.6477098,809.3566643247428,998.6172394465405,450.9375242137659,820.7420314986206
1730573644.6486986,801.1609625607152,993.2815741968236,449.3127720931325,820.9093936257249
1730573644.6516185,797.5946280866835,988.1616263229191,447.7086902063883,821.0797122706833
1730573644.6540487,800.2339400264224,983.2120339701396,446.0914956976151,821.2530823633106
1730573644.655527,808.0996390847085,978.3308979099509,444.4609627968673,821.4295293847993
1730573644.65731,818.4867756314873,973.4561364976244,442.83155905894284,821.608865120893
1730573644.6594355,828.2934431527585,968.58200930247,441.21515581819546,821.790683684111
1730573644.6633444,834.8501779482903,963.731002743163,439.6152162091829,821.9746699160617
1730573644.667253,836.1950502349744,958.9240956468504,438.02954725629047,822.161175331189
1730573644.6696434,831.4096157027517,954.168907070924,436.4550130824519,822.3515789900806
1730573644.6711617,821.2161825598365,949.4629355444598,434.8901459095311,822.5476278937198
1730573644.6750703,808.1717984731655,944.8012605717742,433.3352219142694,822.7493658142043
1730573644.6762135,795.7505371217336,940.1813495920693,431.7911999159193,822.9527900317879
1730573644.6789787,786.6362633254626,935.6036168988951,430.25883433527235,823.1502807201103
1730573644.6828878,781.5066734946761,931.0698071024096,428.73841723916024,823.3368557429045
1730573644.6837776,779.3192750105499,926.5814533102422,427.22995189769074,823.5208852679215
1730573644.685238,778.8080446424683,922.1393305394928,425.7334033031843,823.7296060975997
1730573644.6867964,779.8371035669553,917.7436781609558,424.2488251425914,823.9945199227604
1730573644.6907053,783.4078037896927,913.3946136165747,422.7763542124901,824.3112126074303
1730573644.6946137,790.3039851419355,909.0923695775689,421.31615125377107,824.5980584610123
1730573644.6951172,799.5733080249394,904.837306865354,419.86835573894524,824.712314922089
1730573644.6985223,808.3003366617223,900.6298229483801,418.4330750753814,824.576197236751
1730573644.7008328,813.1667520009805,896.4702729158649,417.01039556077006,824.3751083630755
1730573644.702431,812.7639889025616,892.3589452471347,415.60039578887694,824.6342118615472
1730573644.7063396,808.7516318606441,888.2960757520777,414.2031520800484,825.8964584567384
1730573644.7102482,804.6853771326412,884.2818679461154,412.81873594677506,827.9285303639117
1730573644.714021,803.311404699847,880.3165021814444,411.447209052216,828.9430951538164
1730573644.7141569,804.5953187760157,876.4001346820722,410.08862161685835,825.867514594787
1730573644.7164276,806.1580194337881,872.5328965734874,408.7430174007007,816.351062445506
1730573644.7180655,805.586312917595,868.7148994318212,407.4104428475824,801.5323437883193
1730573644.7188563,802.4845445950798,864.94624254806,406.0909510826425,786.9468903540579
1730573644.7219744,798.6680623146408,861.2270070931058,404.78458854467067,779.7838359296185
1730573644.725883,796.7484244732966,857.5572253805443,403.49136163807856,784.0280879552782
1730573644.7297916,798.5031618453773,853.9368373964824,402.2112059846348,797.4108417661821
1730573644.7320223,804.0224549943445,850.3656826459769,400.944006482597,812.7558041773689
1730573644.7329247,811.6479297246894,846.8435873011942,399.6897061986163,822.5862890681606
1730573644.7337005,818.3769116015806,843.3705467891365,398.4484634424763,823.3771643713799
1730573644.737609,820.7140958411278,839.9468649109781,397.22069254303744,816.6098789670029
1730573644.7415175,816.0748179271512,836.5729895128505,396.0067748192872,806.6870004086084
1730573644.7454262,804.3724091663032,833.2488812085237,394.80642247978824,798.0081313701131
1730573644.7476172,788.8554254430511,829.9732137687618,393.61815979423704,793.3246863274154
1730573644.7493348,775.3198993283758,826.7433457003546,392.4398313446346,793.5855216694995
1730573644.7518284,769.6519970783179,823.5571277680768,391.27076098507086,798.1279749599444
1730573644.7532434,774.7671960377922,820.4163547235921,390.1146127859352,804.6035689326021
1730573644.753935,788.7118413204403,817.3290249900627,388.979726268143,809.4150495825069
1730573644.757152,805.4036858826519,814.3055425677079,387.8730882188216,809.5653047740578
1730573644.761061,818.0045982011455,811.3463470813213,386.78826304738936,805.1468889363425
1730573644.763212,822.9148940531034,808.4275838655834,385.6968133397941,800.13969183557
1730573644.7649696,821.4955961019162,805.5030464202347,384.560313218692,799.9664924341391
1730573644.7688782,818.147399669348,802.5411553641565,383.37281041050574,807.1750449490175
1730573644.7707322,816.4016355497081,799.5897000595148,382.2124093340934,818.8450087324549
1730573644.7727869,816.381627183615,796.8110712145362,381.23911277244457,828.2895687607653
1730573644.7766955,815.5474879282139,794.397666253543,380.5708442441851,829.9271779185908
1730573644.7788067,811.5103451472535,792.3316210932628,380.0565078515892,823.266977856838
1730573644.780604,804.121889996797,790.1320490399155,379.1401074638974,812.6810511807918
1730573644.7845128,795.3306618178699,786.9419140952537,377.13641264580826,803.4406565696917
1730573644.7884214,787.6249742010987,782.2826705444458,374.07002887026704,797.7815861896989
1730573644.789014,782.7660496493527,777.277411314083,371.6259859032078,794.4265926905994
1730573644.7896357,781.5435689506676,775.2226721048743,373.04094535753893,791.4582652786523
1730573644.79233,784.0148999678349,779.92664503547,380.88178004122256,789.2276021634652
1730573644.7944014,789.5203455909464,791.6142534731867,393.7348325862576,790.2060424934464
1730573644.796239,796.5506883120423,804.1937141264337,405.8996431874135,795.9920381940053
1730573644.8001475,803.0738446358791,810.6145634987437,413.00825694322776,804.7003609426442
1730573644.8040562,807.4576253320097,815.3187222984071,418.44631855318477,811.6740085054205
1730573644.8079648,809.28145533969,836.36391546907,430.715259645678,813.1621904665005
1730573644.8085394,809.2966806976327,882.281908638517,451.5536228366508,809.5996695517991
1730573644.809996,808.6540032669689,922.826649907257,468.700407910188,805.3773366255082
1730573644.8118734,808.1513975812551,896.0478223292367,465.0560977235814,805.2120490364044
1730573644.815782,808.0100255544169,762.5920170763103,437.32128639679456,810.2759216952312
1730573644.8196907,808.0888060764256,559.6386590118502,403.9374629732551,817.3539118561911
1730573644.823599,808.1868843477399,392.6789648578748,391.0710927615298,821.5670964611577
1730573644.8240929,808.2057554627734,358.7957125726855,408.2372548879057,820.2186333203921
1730573644.8255908,808.1532959551361,466.3930635018945,437.7559510021471,814.6339552374367
1730573644.8274431,808.0784726620034,627.4880425373976,450.29472334420075,808.7952849309015
1730573644.827508,808.0174242341207,733.402145313555,433.0813509905396,806.2134492863329
1730573644.8314166,807.9782421859715,745.3997699909677,403.4282637705322,807.6158005948207
1730573644.8353257,807.951934643073,717.0551194893214,392.97683448600293,810.9884554386317
1730573644.839234,807.9278063420476,730.7029381538714,416.47942245188085,813.4628914089797
1730573644.8411856,807.9011310770189,812.6941423006771,455.34105145605935,813.2685371505569
1730573644.8431427,807.8727186054301,910.4542523743723,473.2416374121146,810.3751120769256
1730573644.8463469,807.8452686373926,950.9705815298992,450.3266307739616,805.8843390249996
1730573644.8470514,807.8206221123055,919.0680194839017,403.59653654901314,801.2332966602471
1730573644.85096,807.7991156768666,875.1973526098942,373.2324066170963,797.9697865241162
1730573644.854869,807.780243516843,893.3872396244014,386.74370081891146,797.7983724230203
1730573644.8567803,807.7634675822541,979.614910506456,434.359977329681,802.0907440166752
1730573644.8587773,807.7485853335569,1052.225896856339,478.71797266201986,810.733612467351
1730573644.859172,807.7356775123146,1009.096744512602,488.59445618716734,821.2922640633884
1730573644.862686,807.7249080230644,823.9214557838563,463.218679428105,829.6745920708172
1730573644.8652506,807.7163852816682,582.6002686304284,425.94758115829984,832.3378742454281
1730573644.8665946,807.7101366106591,421.4864755461774,399.7472421555119,828.5600289463979
1730573644.8705032,807.7061472185553,418.9617278624259,391.41777328117917,820.9217759030562
1730573644.8723752,807.7044025808906,537.6440934826117,394.2989424832758,813.4897534587052
1730573644.874412,807.7049058011884,669.218382987771,399.0386612065719,809.1360694252868
1730573644.8783207,807.7076733666638,736.4678819729763,400.62406574737287,808.1063567938156
1730573644.882229,807.7127242598931,752.5746223811808,398.9265888544572,808.6759093429804
1730573644.884154,807.7200730030999,782.969322869047,395.9605195291365,808.8593286288649
1730573644.886138,807.7297287291264,855.5287987708716,393.3904912267398,807.576979687908
1730573644.88797,807.7416974369344,917.3624988633999,391.6866616265435,804.761623629317
1730573644.8900466,807.7559842530427,886.3423661098313,390.5105503498038,801.1155769764287
1730573644.8939552,807.7725943369439,744.851869200368,389.38699466266155,798.1679489467966
1730573644.8942506,807.7915326319904,576.2194517054893,388.07865350635547,798.2332830035948
1730573644.897864,807.8128031390904,500.11273469284276,386.59847189023566,803.4122527349948
1730573644.9017725,807.8364081993525,565.7108167209949,385.05868208556836,813.7673578237095
1730573644.9030578,807.8623481008449,706.5825509702022,383.5438696961088,826.2128590480971
1730573644.9035647,807.8906213928568,802.6984928121707,382.0736848222084,835.620329268502
1730573644.9056811,807.9212262149099,791.0050003450475,380.6273827958714,837.7616288007157
1730573644.9095898,807.954162186354,718.9588212473019,379.17961848138293,831.8248275358291
1730573644.9134986,807.9894310417505,690.3581677323782,377.71873328340183,820.4797319861403
1730573644.9174073,808.0270335282563,756.1036506652451,376.24610229556356,807.7211462054092
1730573644.9191594,808.0669621286715,855.9213998711188,374.76772083736887,796.5973395201319
1730573644.921316,808.1091946269946,870.0129337427168,373.287633646875,788.5274293560909
1730573644.9219615,808.1536989748953,735.2744769970973,371.8061790889794,783.963195235036
1730573644.9252243,808.2004573886576,516.8296255787083,370.32142838750315,782.9826589249058
1730573644.9291332,808.2495001867297,364.3385264771234,368.83134440909026,785.0914281335693
1730573644.9293294,808.3009131332392,390.00412900233414,367.33529491916306,788.8548307582694
1730573644.9330418,808.3547724973373,579.3352833315703,365.8345097875286,792.2705221252046
1730573644.934754,808.4110063720295,813.7301618818066,364.33119459644547,793.8313207570153
1730573644.9369504,808.4692860604076,977.0203524218152,362.8261011232523,793.3172567612321
1730573644.9408593,808.5291453356866,1042.6226101223651,361.3155122596711,791.5721722572264
1730573644.9408653,808.5904565229914,1066.3941726385397,359.7906968609337,789.5624923021593
1730573644.9447677,808.6540446981303,1107.458846875348,358.24368684443937,787.7084878643466
1730573644.9486763,808.721730402012,1163.7343767034881,356.67942756708044,786.094110598245
1730573644.9503489,808.7949807251123,1181.475249726935,355.1252364626964,785.127356550776
1730573644.9525852,808.8722836748083,1117.4780559922917,353.6203381528967,785.660856402939
1730573644.956494,808.9473691459235,984.5867439508417,352.17426966093797,788.1763006195563
1730573644.959769,809.0119858181832,837.6749150610228,350.7132975767273,791.8386157350646
1730573644.9604025,809.0652410718594,722.1287673328611,349.076811607599,794.6740629288925
1730573644.9643111,809.1246333091784,642.0803713688481,347.135230094695,795.1055212383205
1730573644.9644084,809.2249861341346,579.8873230855377,345.01923587687463,793.5223608838805
1730573644.9659438,809.3907913073123,541.3430115296352,343.27486508149406,792.2285023541809
1730573644.9682198,809.5869099421169,571.0319349650849,342.62085821471203,793.5920390231898
1730573644.9721284,809.6906463910359,710.8366835264128,343.13405988588875,798.0688271905818
1730573644.976037,809.554319639753,936.5942815539781,343.2903667354457,803.9768318509017
1730573644.9786725,809.1879656771706,1141.6319064629236,340.0700307534435,809.1597410425571
1730573644.9799457,808.9576120999649,1201.2165755903864,331.40540460739436,812.8384329090052
1730573644.9815383,809.5367092660421,1074.2245041796327,320.57944389209683,815.9242842610627
1730573644.9838543,811.3697423559345,851.6251977170867,318.95092997019833,819.7150960262736
1730573644.9877627,813.829469030864,698.3826115161554,341.38589561750854,824.3547698042039
1730573644.9916718,814.9039724677023,729.5615893664917,393.08622786287714,828.380208911819
1730573644.9955804,812.2379263817901,924.5317064256731,458.0271942073173,829.5613771862447
1730573644.9971333,805.0736613704914,1151.0689550661725,504.9254021847838,826.3308669883015
1730573644.9975762,795.3536455273236,1273.0070915793797,511.2080812913812,818.9410211837813
1730573644.9994872,786.7751047598074,1245.7405384242134,482.26589537102586,809.7363052009198
1730573644.9994893,782.481573602643,1125.3250767401023,444.9413675717207,802.2653882023374
1730573645.0033977,783.2215995834235,999.4454342293475,422.0058638220078,799.4937293005141
1730573645.0073063,787.2191117404847,911.2951423754942,413.95223414742156,802.0945895180153
1730573645.011215,791.5285568173534,840.6183240877617,404.4737420916753,808.073160312046
1730573645.012728,793.6996413258939,747.0528468994432,380.9676512645756,814.1649474415813
1730573645.0151236,792.7956393118858,626.1071860141338,348.2622126007319,817.9593071463379
1730573645.01648,789.5906587547893,522.8792543870227,323.29175388007127,819.0445281257229
1730573645.0190322,786.1177644254642,493.11758862480906,318.41982854082653,818.5094548885593
1730573645.0229409,784.591946480091,552.181263554768,330.9985338550439,817.6727902767711
1730573645.0268495,785.9032367190117,661.215478002772,348.0052872860195,817.2367805564372
1730573645.0283227,788.5754016211255,759.8297558749624,358.3734788937288,817.2352683789633
1730573645.0307584,789.3156803203788,809.8982833452827,359.9950088174676,817.4051573493514
1730573645.034566,785.2340832177133,812.0070705391339,357.23857587800035,817.5238616405185
1730573645.034667,776.2763698705538,790.0067117369507,354.8917320596008,817.5265179031641
1730573645.0353837,766.0084111486339,766.881090311095,354.85589521379234,817.4569967232469
1730573645.0385756,760.0783820568673,752.4350345191832,356.53175110056156,817.3786395942406
1730573645.0424843,763.2879463747971,745.1874864419264,358.59613457663863,817.3236390427346
1730573645.0439174,776.9068337962157,739.8959080888654,360.2338905010365,817.2907158178065
1730573645.046393,797.5515066249549,733.0298745698018,361.3550843859855,817.2650256416733
1730573645.0503016,818.2489888884402,724.0179437128808,362.23689981089757,817.2351885258819
1730573645.0542102,831.4582199130257,713.9230223916082,363.14087777887414,817.1984428136518
1730573645.0542874,832.7430766699119,703.8480207942691,364.1583516970751,817.1574751606764
1730573645.0581188,823.0254527642614,694.2243482573587,365.2504242109196,817.1156535519438
1730573645.059512,807.9015279721067,684.9252851369972,366.3465451905826,817.0745525142212
1730573645.0620277,794.4213394944159,675.6633431800537,367.40667058398503,817.0340098950016
1730573645.0659363,787.5130856594053,666.2614953276739,368.4289244887507,816.9932362769782
1730573645.0696447,788.2813627073164,656.7007378326722,369.429048336063,816.9516836237033
1730573645.069845,794.7760431455906,647.0417892308037,370.4205638445797,816.909267659837
1730573645.0731907,804.0862322958167,637.3416095572939,371.40763741509755,816.8661735018543
1730573645.0737536,814.1050805734573,627.6198775019677,372.3878623761122,816.822603589992
1730573645.075107,824.0049450304562,617.8679486592459,373.3575656619999,816.7786583026651
1730573645.0776622,833.5055807778429,608.0705402790172,374.3148837161509,816.7343481795359
1730573645.0815709,841.782927013482,598.2193144473808,375.2599575777568,816.6896550583326
1730573645.0854795,847.1003123560856,588.314299975609,376.19376777358787,816.644576019392
1730573645.089388,847.7400992526357,578.3588914940577,377.11711250262425,816.5991324697058
1730573645.0907018,843.660122393899,568.3550836438351,378.03028580619554,816.5533585593791
1730573645.092095,837.342907772967,558.3022570978799,378.9332576216477,816.5072879476917
1730573645.0932968,832.6328509134397,548.1994354077341,379.8259569768964,816.4609481187971
1730573645.0972054,832.005819818849,538.0487435127145,380.70842250461965,816.4143614687946
1730573645.101114,834.3028210211274,527.8565606284577,381.58080184026403,816.3675485832282
1730573645.1047237,834.9560199998298,517.6291176156403,382.4432864088884,816.3205303755257
1730573645.105023,829.0067322511076,507.36279568791514,383.2960591098096,816.2733284194703
1730573645.1062963,815.0931101356988,497.03654903326833,384.1392800528328,816.2259643979918
1730573645.1089315,797.6094134739819,486.6200371166572,384.9730972890585,816.1784596467787
1730573645.1109984,785.0838586396025,476.1061351047724,385.79766136779693,816.1308350240098
1730573645.1128402,785.1408184887496,465.5527251908955,386.6131325576419,816.0831106898627
1730573645.1167488,798.9984780830429,455.0853368584867,387.41968098573295,816.0353053926536
1730573645.1206574,819.4811451934568,444.80494478521354,388.217484341366,815.9874355981697
1730573645.1218913,834.6173317178309,434.6092098897962,389.0067257812422,815.9395157362599
1730573645.124566,834.8272436580774,424.0722244647635,389.7875911298542,815.8915608781136
1730573645.1284747,818.6660462207268,412.6351892988427,390.560263889986,815.8435912331468
1730573645.129902,793.0590657039459,400.24334929367626,391.32492036825647,815.7956343038796
1730573645.132383,768.4073453226714,388.0954629079548,392.08173235546036,815.7477184033851
1730573645.136292,752.8417433306885,378.5662545786916,392.83088438600674,815.6998554724431
1730573645.137486,749.7154216295702,373.3195733825224,393.5726003208143,815.6520239829423
1730573645.1398025,758.7253254952923,369.9613842981017,394.30715284614485,815.6041769115602
1730573645.1402006,777.8028035566945,360.1806155513261,395.0348189537282,815.5562964646442
1730573645.1441095,803.2329538072112,334.1140630272493,395.7557740006474,815.5084780281479
1730573645.148018,828.5537254996236,293.03073431464776,396.46999655841665,815.460960080046
1730573645.148806,845.0245114255445,263.4991432502777,397.17733647888343,815.4139849069538
1730573645.1519268,845.2417781642894,296.15299212137325,397.87786356789667,815.3674681672518
1730573645.1530807,827.928304372106,435.7812801057435,398.57236203819315,815.320704097124
1730573645.1558354,799.7810116566943,677.6760159967594,399.262445107096,815.2725821975621
1730573645.159744,772.096674259295,954.164852546797,399.9496190100186,815.2226789211647
1730573645.163653,754.2788969440189,1176.3877092374355,400.63326318504204,815.1727981187289
1730573645.1675613,749.0787747510315,1295.04858403034,401.30902484729387,815.1273162292947
1730573645.1677094,752.8492367799022,1318.275158355434,401.9705112217659,815.090244901461
1730573645.1686754,759.7896250422555,1275.0956663183395,402.61619367743936,815.0589267232073
1730573645.17147,766.2298249712115,1176.2315659413161,403.2584008117767,815.0190624038851
1730573645.1748817,771.8469504050149,1021.4039445278864,403.9240981500289,814.9500650347846
1730573645.1753786,777.9414912765941,840.3294698706595,404.63542549524755,814.8466585532433
1730573645.1792872,785.2323805444354,708.0095058638901,405.3714323850893,814.746875472391
1730573645.183196,793.199506653705,698.3557830772111,406.0416953689481,814.7342552026271
1730573645.18427,800.8515544175758,810.4509105903135,406.5259320814339,814.8768621553312
1730573645.186613,807.4306817228611,944.0274831658043,406.80957578537124,815.1080807764494
1730573645.1871047,812.2493231152782,965.5151792825618,407.1455322795592,815.1456057516122
1730573645.191013,814.4103296396754,820.3427141018383,408.0417398745465,814.6181828450187
1730573645.194922,813.4891274006305,592.6164846892923,409.86164270933216,813.4949067800195
1730573645.1988306,810.8578252819555,449.28566646013275,412.1052047519528,812.6050061926617
1730573645.199865,809.9227487899104,507.95588419549307,412.99286614435636,813.6452898761959
1730573645.2027392,814.0605395981013,741.9032045379054,410.362151900454,818.0855375347878
1730573645.2055168,823.3387730176015,1007.0422487637376,404.32419053178734,825.2922703312852
1730573645.206648,832.9513284588222,1165.3023436452106,400.1817961092998,831.547383900209
1730573645.2099602,835.5300334312349,1190.885194949194,407.8027994937566,831.7112116794578
1730573645.2105565,826.3027019584201,1165.116039517699,433.93027651694985,823.0230636870979
1730573645.2144651,807.1679789011414,1173.2729325638852,470.07830949556427,807.8766496107144
1730573645.2154598,786.0801855029548,1208.7784853264163,488.4997534768909,792.6695622255281
1730573645.2183738,771.8786553774255,1178.9785030903697,458.9665365369428,783.3738155038666
1730573645.2222826,768.6605652648007,1005.4456082298659,379.015468439914,781.709620851062
1730573645.2244203,774.2174390820331,719.1327955932453,287.7275641032203,785.2014896905941
1730573645.2261913,783.389308428448,455.1612784037909,241.3876385220888,790.5563900901864
1730573645.2301,792.8613058814972,348.0850038943175,267.54341367589944,796.7339239335284
1730573645.2310543,803.0070849018471,423.6883329581017,340.1081896966041,804.7999035756716
1730573645.2340086,815.5662993252888,586.6338045235659,400.99116776355487,815.1749238306761
1730573645.2379172,829.9621126975433,711.9058184446292,409.56040358943295,825.5103103886369
1730573645.2418258,842.0722680904266,751.2227596860947,374.80612203532496,831.6047646706419
1730573645.2433245,846.6203696716362,757.283415025561,342.4713117741161,830.5530609517365
1730573645.245039,840.9327746587503,813.3264889464718,352.19952133390916,823.0638907647959
1730573645.2457345,826.815462425514,945.2987690849012,405.39325828006173,812.7973837657845
1730573645.2466493,809.225177331888,1101.447994766983,470.1945089597837,803.5302337596022
1730573645.249643,793.1178994636124,1209.5901905780904,513.3158136248557,796.8754962769102
1730573645.2535515,781.0513436954818,1245.9450483218116,526.0282222759394,792.3895545855531
1730573645.2574604,773.1501504923988,1245.6313889801274,522.3055275658257,789.3735853103339
1730573645.2613692,768.9418788050194,1250.5890396776986,516.6698055350064,788.1869166211684
1730573645.2622278,769.0352067826443,1255.425322776522,507.66038757771037,789.7742990006221
1730573645.262244,774.8593542822167,1211.3528793530784,483.89264689307225,794.1696870648327
1730573645.265278,786.5744458151049,1086.3892994913167,444.5073744513349,799.7322209002624
1730573645.2691865,801.2072473252341,919.400011863965,409.9957626732293,803.9495827865759
1730573645.2730951,813.198727511751,806.4049429067918,408.35039054474674,805.0462288027588
1730573645.2770038,817.5042795728463,821.0616377447012,446.8145462173705,803.0352234487224
1730573645.2778387,812.9475683677449,938.8801745273507,496.79779708993544,799.5494540500642
1730573645.280118,803.0695032286759,1040.8216393087873,510.7334352391395,796.7739670960816
1730573645.2809124,793.7667012951212,1004.8663564652952,460.6705419443049,796.2155723604849
1730573645.2811315,789.6434008189021,811.6342733839925,365.54529880150017,797.9462780660256
1730573645.284821,791.8018794291143,570.0199084602006,280.59915215725283,800.7151993383235
1730573645.2887297,798.2807334041356,435.65766584799695,255.28292236487218,802.9398404056595
1730573645.2926383,806.1636538967988,491.11340338780286,295.69490114971563,803.9872339616999
1730573645.2934334,813.4347658615957,691.3472308902307,364.6067922472087,804.7511135455998
1730573645.2965472,819.3972188644215,916.0851359497915,417.28434579430814,806.9124808118237
1730573645.3000352,823.8861705836994,1072.1288284192892,438.09880405079815,811.3447676379692
1730573645.3004558,826.3614986800003,1149.9412234821812,444.52450365173553,816.9784079220573
1730573645.3043644,825.7929220489086,1193.8061075103617,459.1989765631794,821.213248502236
1730573645.3082733,821.410903796606,1231.7545123801467,481.68741572918304,821.733052271979
1730573645.3090284,813.6211346318896,1242.2764681387466,488.7139276912141,818.3330019676382
1730573645.3121817,804.2656433980279,1186.3353211871963,460.45856076192075,813.2212144420616
1730573645.3151968,795.9953557287382,1062.57661695028,404.3189687014112,809.4387027705448
1730573645.3160903,791.2105962280843,922.6958854262015,351.5025580865584,808.618327802454
1730573645.318939,791.198823930614,828.6252239666286,329.7197909946245,809.8986010261324
1730573645.319999,795.7561815786135,795.2063251446097,338.8574655161574,810.8665279956793
1730573645.3239076,803.2421832607604,779.2753515266212,353.531905341101,809.721045858605
1730573645.324623,810.9910171421732,730.4824495374403,350.0847328652406,806.8521153140886
1730573645.3278162,816.0788815193368,653.8511733716779,331.1452322863245,804.5338796790913
1730573645.331725,816.3452101891489,615.9320674816358,322.762821046598,804.9921312070873
1730573645.3356338,811.3465195089047,680.4953258592479,346.79514913101036,808.4410857687911
1730573645.3378427,802.8213211379768,835.7138440963657,397.1013007624942,812.7131895609872
1730573645.3395424,794.352834827595,991.0954971406718,444.3736577006557,814.8207614047243
1730573645.3402178,790.1758265954782,1054.8020548976906,464.24812995060495,813.2538330313242
1730573645.343451,793.4293382439524,1017.981547550289,459.15225217269915,809.2670285807696
1730573645.3473597,804.5212476400524,962.0622371805734,452.15145212743175,806.1966113391662
1730573645.3502755,820.4298920601714,980.4033559948042,461.139000923034,807.250325381715
1730573645.3512683,835.5004763772506,1089.1777285609298,480.9104350313283,813.1894499506838
1730573645.3551767,843.6136119420756,1210.3719377853645,490.0640297300859,821.3725187596875
1730573645.3558123,840.8342267568995,1239.2567854013355,473.33521407684145,826.8886215746074
1730573645.3567462,827.247963287914,1132.463635361407,436.1986039280786,825.3543179827368
1730573645.3590856,806.971161708973,940.6399497748074,399.017482699921,815.8482618246401
1730573645.3629942,786.2361973484717,764.2079886583088,378.864597711918,802.0611939019053
1730573645.3669028,770.554242900628,676.4856325406472,377.1133344273321,790.6020174442154
1730573645.3708117,762.5505323196301,679.2139925952758,382.78380517690596,787.26761418025
1730573645.3714073,761.6458743241361,720.4279761917761,385.84938852033287,793.6569463398473
1730573645.3747203,765.4909045413496,749.3122701062989,386.4396292720093,806.4105896134861
1730573645.37565,771.8536305744681,755.6162574542295,391.4675049194418,819.5014165953379
1730573645.378629,779.5074026455015,763.084612424189,403.5688933611411,827.8498626889925
1730573645.3825376,787.7302039240624,793.3791117521249,415.5900592552714,829.8136097373732
1730573645.3853545,795.3682111005767,842.5407812565848,418.2438099245119,827.2400580228464
1730573645.3864462,800.7635812897371,891.8280949027107,413.18338187057003,823.6019375938881
1730573645.387002,802.8282022438458,932.8912968123478,414.8702379678165,821.724206866838
1730573645.3903549,802.1778124955581,972.0813419848108,434.7644249421174,822.3230446173849
1730573645.3942635,800.9715888905229,1008.1657960873999,462.569186645875,823.7937354839374
1730573645.3945537,801.2859389396306,1015.7025359544514,467.5335543124202,823.1710506889054
1730573645.398172,803.3401175860586,963.7106424292506,424.7622175369413,817.8949869245378
1730573645.4020808,805.2108886890157,855.2758939126963,343.37642253529873,807.6362598925348
1730573645.4025967,804.4630409149688,740.9902548552424,266.4422438654331,795.160263509569
1730573645.4059894,800.4131424196913,681.4606657504627,237.86297735380558,785.4859509127084
1730573645.409898,795.03340129701,690.916696494643,264.87356891733884,783.4664616406193
1730573645.4134574,791.5287151589799,720.763445089027,311.6458417223813,790.9365682659727
1730573645.413807,791.6678834254373,704.6487039149713,331.48763791023407,805.1443888831756
1730573645.4177155,794.2457118085056,622.3331723400179,309.10190893336147,819.7821380757374
1730573645.4181914,796.2396918014367,517.8733781994742,274.6955762901021,828.427889855614
1730573645.4204333,795.7933361225109,454.99591553638436,276.7915495732617,828.3865631964147
1730573645.4216242,794.2728114698028,459.2514644053163,337.0789655402875,822.2442339570496
1730573645.4255328,795.2252839057677,505.5470911646765,426.6258632335883,815.8313919694768
1730573645.4294417,800.8661756527641,552.3137112960177,485.11770014610215,813.9576980616683
1730573645.4323611,809.282856296281,576.71787345805,468.4231066179023,817.1400470735159
1730573645.43335,815.3026506488742,580.8385153189794,385.0764249173619,821.8763765711795
1730573645.4337864,814.7781409772364,577.5683119224099,290.7060752366689,824.1096874680437
1730573645.4372587,808.6623299090456,576.8486750879485,245.08123097862037,822.7607977922926
1730573645.4411674,802.998989284928,581.289014161498,268.6039650820483,820.1561395479532
1730573645.445076,804.4019051930466,588.764856867258,334.1717998775516,819.1045258081848
1730573645.4489846,814.6851990327672,596.4598933804705,396.85277347215305,819.6228436773368
1730573645.449381,829.1890479736883,603.025039566898,430.3156342585468,818.6787443320167
1730573645.4512646,840.1911272976915,608.5862450712627,437.87895937678115,813.3693237571639
1730573645.4528935,842.5471349063683,613.8250847366195,435.495671230628,804.5612708676631
1730573645.455512,837.0707822086664,619.2360402915191,430.95514116798296,797.4237102288587
1730573645.456802,829.2387945015593,624.924046472744,421.2103004148895,797.963504364692
1730573645.4607108,824.5767879942401,630.7608363077732,405.1656438313107,808.1739923273132
1730573645.4646194,824.5203877342714,636.5978482780853,392.0725903876755,823.7608973878423
1730573645.4649758,825.9376087904409,642.3704298268456,393.65328891612205,836.52957917415
1730573645.468528,824.4646476215369,648.0902134139075,409.468848377581,839.8943516657611
1730573645.4701684,818.7552222698318,653.7941796682679,424.3762746282814,833.4396624917275
1730573645.472437,812.0873799908497,659.5069033126058,423.86730084741754,823.0385054345896
1730573645.4763453,810.0127740253638,665.2320307169709,412.4440406155771,816.37002470179
1730573645.480254,815.9770991468298,670.9616654112775,414.4485914922813,817.2632046078003
1730573645.4805706,828.3746842912283,676.687678819879,452.5247519798353,823.2423848847934
1730573645.4841626,841.1668999371677,682.4069117440652,521.2581446692105,828.0154232550505
1730573645.4880712,847.3590677570326,688.1205300054793,581.2512597253528,826.5372153071331
1730573645.489072,842.7771900095303,693.8310230619878,583.659947767399,818.339476150905
1730573645.490591,827.942476171482,699.5395326305004,508.7204647799458,806.8020405487357
1730573645.49198,807.5123308474567,705.2445703785181,386.479651895154,795.912966793714
1730573645.4958887,788.0880694833081,710.9425822572442,279.1990216671779,787.97216270134
1730573645.4961653,775.5264022051329,716.6307755809128,236.57468729651387,783.9500602780201
1730573645.499797,772.7252038138234,722.3115209868795,260.42935895907505,784.9742653496264
1730573645.503706,778.6832018824466,727.9948792690434,309.4236692103468,792.2844842315129
1730573645.5076146,789.3038757189535,733.6936042728577,338.89434701520076,805.1440385106351
1730573645.5079758,799.6384277151293,739.4079479472895,338.7925352248591,819.1240912137225
1730573645.5115232,806.3506708158244,745.1086430231426,335.7719145818166,827.456051775336
1730573645.51176,808.9201656358541,750.7402163245425,360.86409253104637,825.2361575998247
1730573645.515432,808.8979026057217,756.2667304424776,416.35613091890906,813.1592722185675
1730573645.5193405,807.9057839752802,761.7497697407849,473.4343362020656,797.4491670166657
1730573645.5232491,805.9942154534925,767.3881215906703,500.26652489685597,785.8430048030702
1730573645.5256698,801.7075946619216,773.4106787554305,491.2515210276999,782.802286722457
1730573645.5268795,793.8731557644485,779.783535836019,469.34691259131597,787.5344542044478
1730573645.527158,783.6410864449444,785.9105599286197,461.15520138975324,795.8105974581541
1730573645.5273547,774.8507829494708,790.753976224918,470.65003242893073,803.5196821960287
1730573645.531067,771.987931911594,793.756612740397,477.35276895279134,808.9931587101221
1730573645.5349753,777.0891247006693,796.2878866592545,459.7668812798406,812.7511253118702
1730573645.538884,788.1004251651583,802.204163024848,419.8333967595425,815.6897470921216
1730573645.5427926,800.1132276750079,815.527583568475,383.45591198637095,817.7338506579165
1730573645.5429497,808.4346333694857,834.7751967756983,376.28011178086535,818.0056691780314
1730573645.545783,810.9820723978744,847.6771020920294,398.9642034942771,815.8745078720141
1730573645.5467012,808.4223913136667,834.2886468189366,427.10186936935605,811.6158901555137
1730573645.5506098,802.6903347964225,784.52545722758,436.44571558404334,806.2553065999954
1730573645.5545185,795.6952796275945,721.9726065706132,428.16141541830393,801.2319936196545
1730573645.558427,789.1740231536672,706.0622388098295,427.54569765179303,798.4033253374347
1730573645.5585444,785.0176096804277,788.6048150657631,455.3807599182004,799.8758198830001
1730573645.5607486,784.902031554478,948.395018217788,499.5767156664174,806.8359331780773
1730573645.5623355,789.1444257301656,1074.9371538377584,517.6539128377153,817.8142786852494
1730573645.5646868,796.0038762776489,1044.4184983235564,472.8752617975884,828.2754053977671
1730573645.5662446,802.541839270901,835.4839740807093,372.88928100469496,832.9012884767468
1730573645.5701532,806.6280171935341,572.397763586722,272.48297973425593,829.3379967340935
1730573645.574062,808.3484295714086,436.6683359994978,232.21028914204024,820.1822178575485
1730573645.574139,809.4785325497957,513.8373018703417,267.30355230464625,811.1524771499799
1730573645.5779705,811.5511292606114,715.9270897437018,334.87537826075027,806.894707159
1730573645.5818791,814.4488614549022,859.0879497534924,374.0428726371204,808.0781925886278
1730573645.5835905,816.8166573002582,829.8438451804667,362.1994094327581,811.9823059114723
1730573645.5857878,817.5846360488364,684.5277450580952,332.9202335077123,815.3557769211944
1730573645.5896964,816.8648392227284,587.8836435244655,337.83323482159307,816.6719398575699
1730573645.5897338,815.5429382045726,651.7346505288617,390.7665390950288,816.3026567570954
1730573645.593605,814.3922753625753,830.0950639130025,450.53152164208785,815.3627422845217
1730573645.5958276,813.6532257713384,968.858556490967,459.9489804264217,814.6558475755177
1730573645.5975137,813.1766843057853,956.0322077429435,402.42360647681323,814.3712022622055
1730573645.6014223,812.7359828778832,823.7453277742359,320.00889232596336,814.3226799249665
1730573645.6024942,812.211661563049,706.082550822703,275.0292284181578,814.2813762296643
1730573645.6053286,811.604628259018,700.3314077043866,292.53982336490793,814.1437562758746
1730573645.6053312,810.9668421685251,771.5168128564634,339.210567909554,813.9250957387864
1730573645.6092398,810.3396986556519,793.8022442798763,358.4602254233183,813.6822633899496
1730573645.6131485,809.7341715734949,685.4514754872022,326.92799639580903,813.4544900696561
1730573645.617057,809.1412947936494,500.79338531740166,276.7956201985807,813.2489136316822
1730573645.6209233,808.5491295813151,384.6724620604581,262.2705159293628,813.0544131998544
1730573645.6209655,807.951916228299,431.93155387714916,303.81456777403446,812.8589625112096
1730573645.621398,807.3501475106951,591.0053989544479,365.78566178065125,812.6576541418692
1730573645.6248744,806.7466940309602,709.2631396702184,389.9610598633635,812.4517004694383
1730573645.628783,806.1436534195271,678.4205865866968,352.1737275035349,812.2441806065461
1730573645.6309063,805.5414792165751,539.6676671328297,286.96913226618506,812.0370461978736
1730573645.6326916,804.9396338484107,447.27735398727896,256.9208096723387,811.8305391951533
1730573645.636518,804.3374889310795,525.8443074584317,296.40588140166136,811.6240100977159
1730573645.6366005,803.7347699343289,755.8460882539612,382.35316018291195,811.416826784047
1730573645.6403017,803.1315277193096,991.8446378888358,456.9951828748248,811.2087543679484
1730573645.640509,802.5279241707899,1091.8936684495288,478.870010370953,810.9998704980986
1730573645.6444178,801.92406995341,1036.4438494117182,454.5716960951743,810.7903343134603
1730573645.6483264,801.3199832316662,930.0839171112032,424.64382849851125,810.5802372742953
1730573645.652113,800.7156253572252,890.5899317183962,420.3645678023819,810.3695822212435
1730573645.652235,800.110952359826,932.9724146101446,433.5578418313995,810.158329363188
1730573645.6561437,799.5059523667313,958.0488660009419,427.1876392272445,809.9464403206329
1730573645.6592052,798.9006630964994,855.1505582836098,375.11210755466243,809.7338930767121
1730573645.6600523,798.2951613469696,620.3477836201128,292.0116221754499,809.5206783108467
1730573645.6639607,797.6895089658466,377.52606920093723,224.73325462070255,809.3067977915379
1730573645.665985,797.0836624180452,283.04278549939806,213.96887622074556,809.0922717069566
1730573645.6677077,796.4774153584556,403.60998356368725,263.0997313736524,808.8771403872821
1730573645.6678696,795.8704962827379,675.2019555198643,341.585868217489,808.6614370295448
1730573645.6717782,795.2628867511153,966.2826743547796,414.47099489221387,808.4451285599173
1730573645.6756868,794.6551938051828,1173.0985744086497,465.7175628215938,808.228070861967
1730573645.6781087,794.048609252303,1262.2376877320255,495.10569116664954,808.0100662931618
1730573645.6795957,793.443967151836,1245.2585910155499,500.2271953944189,807.7910775304283
1730573645.6833024,792.8400725741109,1138.1364400031807,470.2181993295202,807.571494215345
1730573645.6835043,792.2327637170318,956.1533290639221,400.91756734942925,807.3521339482533
1730573645.687413,791.6170434150229,738.7074618601016,313.2968660265926,807.1336231106548
1730573645.6913216,790.9932534526733,558.4659408168046,250.17888346257166,806.9152347607559
1730573645.6952302,790.3736799136311,487.29019769768786,247.82354034491308,806.6941528906139
1730573645.697013,789.7805614391789,542.3761123630022,305.84800352307786,806.466798368149
1730573645.6988971,789.2269980800362,664.1297101053332,383.65325185042144,806.2330240224389
1730573645.6991389,788.6858509032347,754.3644948641272,429.3933964331825,806.0008864518081
1730573645.701064,788.0759751586934,750.5413287112126,418.9730936701685,805.7858226177204
1730573645.7030475,787.308987464121,675.8890725877512,372.9940793195834,805.5980053564075
1730573645.706956,786.4094797140301,620.2410716066298,337.7128220972046,805.4205761880875
1730573645.7108648,785.6331930608495,664.4943144370268,346.8199165992985,805.1982912960949
1730573645.7144918,785.4143112863928,813.269963602613,397.00606278441415,804.8668828421044
1730573645.7147734,786.0299995192297,994.5356741883079,456.47190625596886,804.4344127191554
1730573645.7159164,787.2035299695335,1122.878976230948,494.7310985597972,804.0651687074426
1730573645.718682,788.1672358016255,1165.0550268380953,504.51151243073593,804.0470352987421
1730573645.7225907,788.3426286622162,1150.4227523691839,498.5061546390371,804.5337173547293
1730573645.7264996,787.9581797485557,1127.190128692722,490.2626386156519,805.1333265654296
1730573645.7300866,787.8168951225331,1114.8953083956576,481.3258401555238,804.7235903680427
1730573645.7304082,788.4347838813046,1096.8950064472644,465.37204384799935,802.0198533887318
1730573645.7343168,789.616191456818,1049.518126052875,440.3841327135907,796.9362433173898
1730573645.73482,791.0345828559388,970.383323020469,413.523247658124,791.6516573436011
1730573645.7361429,793.1145324479481,878.072570563597,394.2920243468723,789.8147543422506
1730573645.7382257,797.0175093161217,790.6027191870214,385.29245997239065,793.8965121890134
1730573645.742134,803.4405777268191,710.8646857687825,381.3978433918066,802.9802009165553
1730573645.7456813,811.256108788253,634.8923384703853,377.54982948416796,813.1986719436113
1730573645.7460427,817.3740079165475,570.6791948343781,375.42834745964205,820.4231604754316
1730573645.7499514,818.2975463729349,542.0581025526441,380.67217982404145,822.7857772513985
1730573645.7537236,812.5149994939059,567.3052761763378,393.1850063460109,821.2125746110073
1730573645.75386,802.1076605456458,630.6943793484172,401.7258282792224,818.180907517345
1730573645.7577689,792.2261961912632,678.9108550926283,391.1634478873117,816.0724593562389
1730573645.761276,788.3446939389602,656.7715897521929,358.3272270055011,816.0582728477438
1730573645.7616775,792.8504641337189,559.3758073981459,321.72273522189494,817.6278782688497
1730573645.765586,803.3796205678814,453.503771497841,312.59706854955357,818.7729589599701
1730573645.7694948,814.3409128564958,437.91202758489567,350.38141027187316,817.0575333405084
1730573645.7712216,820.6873589080005,564.0903785585151,421.8653076959703,811.385475775269
1730573645.7726274,821.1266665716104,782.1893444939454,484.55594464140523,803.33837944192
1730573645.7734034,818.3610504111081,965.7394142658552,496.2112613564224,796.7114409613571
1730573645.776871,816.3854220778034,1003.9827267630449,448.55331363279026,795.0706377834529
1730573645.777312,817.2372059413696,887.0156193097387,375.7754798013183,798.9899367598354
1730573645.781221,819.8183684632866,708.7283228940671,327.66943674804014,805.3287008117629
1730573645.7851293,821.3850534754455,583.5814174463641,328.7646930395152,809.4539390256224
1730573645.789038,819.9784741802288,553.260829246186,359.7630834299672,808.7308996856614
1730573645.791531,815.618511733786,569.5855271777255,378.86683661679615,804.3415061121374
1730573645.7924657,809.6974520652958,565.5223930611162,363.41401294607545,799.9572109605688
1730573645.7929466,803.7773065459378,538.3695379544704,332.2986020875572,798.6412554326525
1730573645.7968554,799.0887480813117,557.9769224538211,327.8432702342594,800.7438444984911
1730573645.800764,796.7252438278376,691.4294018957086,375.0680396139312,804.2394430390118
1730573645.8046727,797.5887067636135,922.8079675640417,457.6607442659849,806.5783962064232
1730573645.8063006,801.6085713451615,1151.6064511545774,532.3450096182905,806.1890938256962
1730573645.8080604,806.9098723433293,1272.629553012116,565.5952705093982,802.8286650673884
1730573645.8085814,810.0689087484872,1259.7817616875993,557.331282432427,797.3605023686945
1730573645.8104348,807.8510389573884,1177.0217426299976,532.754430691266,791.6239796218282
1730573645.81249,799.5420843154096,1114.2943328488725,515.6483832928956,788.1773236147428
1730573645.8163986,788.2291310397187,1114.7209206252705,510.91181646273577,789.3419693967957
1730573645.8203073,779.7797576405468,1157.1074829396896,509.62098634067155,795.7487976328325
1730573645.8236551,779.6804878763724,1196.147066994343,505.3552966470403,805.4969618515718
1730573645.824216,789.5251285183642,1208.4684441415407,501.60096906409126,814.8850091673511
1730573645.8281243,805.6110385841448,1197.6749013285757,503.2527382319961,820.4848036656721
1730573645.8293383,820.9526203117764,1163.4308645288388,504.19863030754715,821.191687070467
1730573645.8320332,829.5321554519957,1080.2570724665582,487.47895786863967,818.7723435633053
1730573645.835942,829.7387535974076,918.878171596649,440.7329178373178,816.4502684651698
1730573645.8392498,824.5407443301176,692.0894442231852,372.33233303673677,816.5257817397775
1730573645.839851,818.6530872991041,473.00158077970104,310.5823271899669,818.854420138784
1730573645.8413794,815.2976617041019,354.71609974973666,283.53624834576357,821.3984798035015
1730573645.8437593,814.9764452120988,379.6430048408535,296.5065328307836,822.296948177474
1730573645.847668,816.4595814720049,504.33900588681564,328.81882993347676,821.4921894862988
1730573645.848242,818.3517490959796,638.234686451115,354.2345054004267,820.3987538820982
1730573645.8515766,819.7834024411725,723.2306817260544,365.85008989143466,820.1100919456685
1730573645.8548446,820.2459010371837,777.696816983708,380.35830640162106,820.134269904434
1730573645.8554852,819.4374473427886,861.8237705377751,416.54238200668357,818.9860616024257
1730573645.8593938,817.4552499357333,1000.9537797468907,469.7810190886205,815.8901615211466
1730573645.8633025,814.8338217154958,1147.2679485768438,510.05558388549343,811.6966612097921
1730573645.8671458,812.0675816811307,1221.1861822192252,508.1245734903659,808.0898166743065
1730573645.867211,809.1315164529309,1191.249970183985,465.3683109737122,806.0773810399498
1730573645.8704393,805.7788886665502,1109.6916370938939,416.83601970242813,805.4561112104225
1730573645.8711195,802.4889087312196,1063.3720780119158,401.40836994430475,805.7722763731523
1730573645.8750286,800.9167013901126,1084.965615421491,425.15905180197143,807.5748429370493
1730573645.8764582,802.9304500571067,1112.865112954658,452.89643982373383,812.3453654736725
1730573645.8789372,808.7591181536634,1045.3212554234435,438.46281861883176,820.8606459758472
1730573645.882846,815.941327277046,843.5667961089778,368.1963131587308,831.5437795998018
1730573645.8860345,820.3690212004901,586.8208178578739,277.91999279961874,840.7108889364495
1730573645.8860495,818.9918277102792,421.2088574578818,226.23507251195397,844.9880769235331
1730573645.8867545,812.1915906360069,441.4948061838531,246.23765843277386,843.9858370773479
1730573645.8906631,803.8488509336852,609.8760329272385,318.09158047975444,840.7224362868809
1730573645.8945718,798.8252691346847,786.7825845577112,386.7704838716927,839.10751542586
1730573645.8984804,799.6726715383303,847.9509439379356,408.5610554281525,840.5519558206819
1730573645.901629,805.0788607077401,782.8254768676758,384.3964676832415,842.8203861256961
1730573645.902389,811.1581605893729,688.4046589250368,352.08313357528493,842.3205169611015
1730573645.9049532,814.3612356259558,672.6821830195303,348.91549546132444,837.7697312376243
1730573645.9062977,813.6154120008397,763.5867740670756,381.6391166924522,831.7699407367039
1730573645.9102063,810.2897736275389,902.3575629592264,428.2596155986829,828.7395847192093
1730573645.9115372,806.5884653379156,1009.3737145422717,462.4818237421639,831.0487694899775
1730573645.9141152,804.0465597064094,1047.3459821736233,473.7503550636995,836.7866733987627
1730573645.9172237,803.1686188824118,1030.826665995705,468.2448033232599,840.9955283226449
1730573645.9180238,803.9040228828381,995.2255117570892,457.74360229221105,839.1818046711799
1730573645.9219325,806.0349748550731,966.0670850225906,449.9878516327636,830.2699773407951
1730573645.9238567,809.0515042984642,949.7680468337308,446.4440040233265,817.0136686921398
1730573645.925841,811.9145245057971,940.8765174797609,445.0618905350333,804.0426171652402
1730573645.9297495,813.321344385991,932.3604203608749,443.59217149051744,795.2794499836505
1730573645.9328184,812.5048593624745,920.9392795669582,441.1154747390793,792.4245449227539
1730573645.9336584,809.8664590465502,907.0065675465706,437.86174934960843,794.9929849025697
1730573645.937567,806.7056596303614,892.2925173166004,434.41224456773244,801.1887850401826
1730573645.9414756,804.1454192432337,878.0216265049669,431.1362697761005,808.6670229201882
1730573645.9427605,802.2428346509801,864.4358459400949,428.0812921043524,814.9116238266625
1730573645.9453845,800.1814689401077,851.2032880560954,425.12672070768696,817.6488486914784
1730573645.946616,797.3572456700641,837.952372212987,422.15499286367134,815.6570307968635
1730573645.9484131,794.2613897700463,824.5261955625376,419.1232125154608,809.6441360226825
1730573645.949293,792.318250295086,810.9577226801888,416.0472845419704,802.345785164293
1730573645.9532018,792.8936991072039,797.3404720232738,412.95835026848977,797.3048357311457
1730573645.9571104,796.3725646686479,783.7350811822636,409.87454023667897,796.8296353014457
1730573645.961019,801.954264994392,770.1496979963391,406.7969699691622,800.5455755849446
1730573645.9616642,808.1572900962059,756.5644097172167,403.7186713719746,805.8006275309755
1730573645.964008,813.6467329335568,742.9593846891082,400.6335070849049,809.8048957853306
1730573645.9649277,817.9392290697433,729.3269918612167,397.53948306981624,811.8170747600514
1730573645.9688363,821.5188137718029,715.6692859087259,394.43752973471976,813.4395066548469
1730573645.9727447,825.0563065875111,701.9905254526069,391.32905303117315,816.6526756891976
1730573645.9766536,828.103102652614,688.292174259888,388.21453028152416,821.3392447334104
1730573645.9796026,828.4572929388455,674.5725639117554,385.0936156839802,824.6725874346022
1730573645.9805622,823.2991640199917,660.8297855701071,381.9660714338399,823.1237397752514
1730573645.980568,811.7319979435764,647.0649682167474,378.83250010921205,815.4447643510383
1730573645.9816947,796.7197956592545,633.2828226232637,375.6940223996328,804.0794475764159
1730573645.9844708,784.3732528809819,619.4872009893251,372.55067922607253,793.8112339196512
1730573645.9883797,780.4995628262764,605.6727740291459,369.3995572319272,788.739713640251
1730573645.9922884,786.6957890855193,591.8198559059617,366.2349872142767,789.8866031918832
1730573645.9951975,798.9277492592781,577.903600733291,363.0531118705291,795.0356588624152
1730573645.996197,809.8623600320493,563.9228488498268,359.8598497061039,800.6125008543653
1730573645.9994717,813.5054979973639,549.9326237853344,356.67515024024163,804.0200897672385
1730573646.0001056,808.9662141792257,536.037955779476,353.5224641400341,804.8090801228002
1730573646.0040145,800.6865622389081,522.3068252614705,350.39916033554834,804.1853105822793
1730573646.007923,794.9912198325239,508.6215528195641,347.2456383514284,803.6514292804402
1730573646.0107925,795.6035584471808,494.60302069214254,343.9563057556213,804.0617050692514
1730573646.0118315,801.5956534712626,479.8144855232145,340.47199331765864,805.7394047280734
1730573646.0157402,809.144202463177,464.3196108139528,336.92750018170864,809.1559137656877
1730573646.0167737,815.1357089033332,449.2535244821884,333.7129516281026,815.0559695610275
1730573646.0183752,819.2210743055483,436.5944565652507,331.24556048119064,823.4902751742137
1730573646.0196488,822.7715411170843,427.40875076655374,329.39977799745895,832.5552143395665
1730573646.0235574,826.382090411638,419.0992739163358,326.9721530935109,838.4086410862794
1730573646.026387,828.7922614422235,404.3472497008418,322.0082259705024,837.2818638423852
1730573646.0274663,828.2319685045102,375.5693273944114,313.67008842181474,828.2412104497332
1730573646.0313747,824.4606781849639,335.84119443767383,305.00523857407495,814.3024763818037
1730573646.0352836,819.15231374977,309.3380916237025,303.884907541,800.6470381971357
1730573646.037279,814.2630785029093,336.5564801314246,318.6199476258784,791.286860032663
1730573646.0391922,810.2096456366435,444.40457014542346,348.49112183193387,786.9774070243523
1730573646.0419817,805.7092310117316,607.1163198927269,377.46934285129527,785.9236725517267
1730573646.0431008,799.2567559076375,740.726392872687,382.3973841951075,786.1759884254608
1730573646.0470097,790.6764142531887,757.8318478315882,354.32496573577737,787.2982722441385
1730573646.050918,781.4382462836368,646.6680340838093,313.0977783392942,790.0436235387721
1730573646.0518525,773.7777933933463,497.3611885463746,296.0548960178664,794.890408179673
1730573646.0548267,769.5255657386981,438.56956744701364,326.70147426730136,801.1415506821892
1730573646.0561826,769.3653336698763,534.6356265179325,391.64622176623016,807.3083714390134
1730573646.0575764,772.6658418274517,734.5374590153831,448.5455385759877,812.0825534103687
1730573646.0587354,777.7913834347412,916.5217116610872,459.4197367708444,814.8765490181067
1730573646.062644,782.8090256209902,985.1639410156537,420.3162412970561,815.7086553433465
1730573646.0665529,786.3430852280236,934.7892212401551,361.7044812309443,814.9434752082733
1730573646.0704615,788.078592305699,830.8804293249184,320.529478346553,813.2572705880694
1730573646.0731711,788.5828563247968,738.8792403492732,310.0425789816376,811.5825251165938
1730573646.07437,788.6758770374735,673.547778270656,314.4286421853027,810.6262585767801
1730573646.0750864,788.8970064455615,613.3409380861851,311.1432736784939,810.1269628221107
1730573646.0782788,789.3745440499919,554.3591135370625,297.42698364599437,808.6286271108867
1730573646.0821874,789.9950774099094,538.0205711793078,294.1311579173278,804.3520445423296
1730573646.086096,790.6170762134611,616.7204502730183,323.32605031757,796.7194284927206
1730573646.0869312,791.1769467242012,791.3148344068915,383.02699253342024,787.2380493533137
1730573646.088766,791.6848397372958,989.4536748146277,445.31105459479727,778.8121063740452
1730573646.0900047,792.1764203720122,1115.1960290866016,479.99243947719367,773.9720903614641
1730573646.0939133,792.6760820090315,1126.918681760978,480.122086892486,773.5738653685318
1730573646.09399,793.1881413491375,1069.2626070912602,464.65705811211546,777.0232416734514
1730573646.097822,793.7055870490454,1028.5682103242586,457.49435172716335,783.4855117898283
1730573646.1017306,794.2209149760787,1054.6602773190652,464.914889266466,792.5755689361449
1730573646.1043606,794.7310927907484,1121.2389013700727,472.6373293724848,803.7463686844568
1730573646.1056397,795.2369001517114,1156.7391522906657,462.5239388419469,815.1620906266274
1730573646.109548,795.7402642228442,1111.2110204337678,430.5470941110456,823.5342462084341
1730573646.1128936,796.2423986105688,996.3324459862134,389.1021930837768,825.5571280404489
1730573646.1134567,796.7434502126902,866.4385391010366,353.7812669047446,820.1427788194976
1730573646.1173654,797.2430139775888,764.3240687048689,329.2320478192969,809.9000418297983
1730573646.1199555,797.7406981140482,685.2328567359507,307.8933982145304,800.6155665879993
1730573646.121274,798.2363581136585,592.3707624084079,281.8888409043016,798.5225137726635
1730573646.1220102,798.7300449818331,467.4064105282286,255.45519170244404,806.4876265135401
1730573646.1251826,799.2218675261985,344.8899300457715,244.64351121792143,821.4058634123681
1730573646.1290913,799.7119057956778,293.3688440461211,263.33735846084153,835.0629375274684
1730573646.1317973,800.2001938342036,357.91794359548595,308.7927497014245,838.7361285570437
1730573646.133,800.6867255918426,519.1989286483038,361.86893573259385,828.8093893004657
1730573646.1355505,801.1714502057749,709.9042599497645,403.2552077737109,809.3048036494185
1730573646.1369083,801.6542745339476,871.7610150081877,429.98556635881994,789.2588948209665
1730573646.1408172,802.1351231329303,994.9614139387277,454.6332999203582,776.9122166192952
1730573646.144726,802.6140695124205,1102.448231193254,486.9459654763268,775.14120080659
1730573646.148635,803.0914433665718,1202.2099354450706,517.2242618581504,781.2076521832214
1730573646.150701,803.5677161256638,1264.3460992709984,520.819179385454,790.1333775051006
1730573646.151145,804.0430287430993,1249.2159393123225,481.7615410202741,798.3592607723756
1730573646.1525433,804.5165710783546,1153.9830753431681,412.36206209588346,804.9402324978092
1730573646.156452,804.9865197803497,1023.6975068068364,347.4172130253047,810.2586268773417
1730573646.157089,805.4513681743445,912.0069462495728,315.9545987951886,814.2968104122899
1730573646.1603606,805.912562616653,831.8143346318587,316.3891233342688,816.2375869882018
1730573646.1642692,806.3763458094983,748.3647740305323,319.2647114285447,815.350819976365
1730573646.1667397,806.8510746580208,624.2975715318946,296.18883529197603,811.8438883523984
1730573646.1681778,807.337907313328,472.6247164121657,248.49557509090036,806.7587610666842
1730573646.1696048,807.8195991400098,363.05041264646206,208.85887857288662,801.308476294665
1730573646.1720865,808.2611791947234,370.2728610620806,214.09815686660747,796.5990887576875
1730573646.175995,808.6372618478418,509.1255236666241,273.97748633368775,793.9012839189805
1730573646.1799035,808.9815556483002,716.6348530860424,363.55520106905584,794.6663234933053
1730573646.1823344,809.4158359875596,898.7516252666068,443.5911940585771,799.7067320549099
1730573646.1838126,810.0883819189211,999.0555895871025,488.2245264233499,808.1748881685215
1730573646.1877213,810.9893025201937,1027.8476791145365,496.2790962533413,817.5744791159805
1730573646.1885085,811.7418420414577,1031.6908454642921,482.0281188405948,825.1074690610772
1730573646.19163,811.6225367517484,1041.6140687717625,460.0832826450103,829.2184907141401
1730573646.1921678,810.0271575054376,1052.2782319029495,438.68231732009923,829.9962974227378
1730573646.1955383,807.2055204426376,1043.6728775874883,421.6394035512724,828.3950989236841
1730573646.1979291,804.6246682417143,1011.2019561599482,410.9624381997339,825.468278168761
1730573646.1994472,804.4251720832663,970.3035868438425,406.6856222766213,822.4791940143076
1730573646.2033558,808.1611989872705,938.8359014937048,406.64691097693697,821.3083731662518
1730573646.2072644,815.593837929681,922.5962519470958,407.98659481391803,823.8667131173877
1730573646.207412,824.2614518763148,916.1962673899606,408.85090983961095,830.3061393691183
1730573646.2111733,830.1890701391899,911.7050136563562,408.8205304266875,837.624031428519
1730573646.213524,829.6821917371257,904.696413788484,408.3040387814397,840.6468482479263
1730573646.2150817,821.509113508267,894.9003809692639,407.79423844276903,835.4783355469918
1730573646.2189903,808.0842274275743,883.9644810862759,407.50703040621136,822.8965650665357
1730573646.2228992,794.437356321936,873.3191759495085,407.4028357141497,808.5907824993892
1730573646.2263155,785.3033119793142,863.4042099807453,407.356612321437,799.5625276318843
1730573646.2268078,782.4322898145339,853.9578223934926,407.28471374155146,799.4140952572197
1730573646.2272468,784.2519176903808,844.5802577145598,407.1736736080011,806.3304486167642
1730573646.2291188,787.9537408136906,835.0624877992041,407.0487663867861,815.2029677870008
1730573646.2307165,791.9110094441357,825.4084298562833,406.9362989967613,821.7639787641649
1730573646.234625,796.2505284160133,815.7114731875911,406.8467586362525,825.1078657560779
1730573646.2385335,801.3889651401673,806.0455019609159,406.77744948284084,826.7888442995275
1730573646.2424424,806.3135546338216,796.4302196334589,406.7218568030018,827.9597216963925
1730573646.2447135,808.4705569850134,786.8500740980088,406.6760552424789,827.6762564383928
1730573646.2452197,805.4803021823137,777.2844301615573,406.63985168220233,824.0748992020276
1730573646.246351,797.229946295619,767.7237876138214,406.6149588584361,817.1085647418313
1730573646.2502596,786.5856315956032,758.1699080946217,406.60302735097196,809.8792450657879
1730573646.2541685,778.0100635686003,748.6288723527449,406.6048150575744,806.9337894780888
1730573646.2580771,774.8717339803617,739.105204202602,406.620320943031,810.8446445638133
1730573646.2603085,777.2545791069728,729.5998605417632,406.6492407216293,820.0746329233594
1730573646.2619858,781.954027522665,720.1111856547692,406.69136061383387,829.9680408190748
1730573646.2623255,784.9124726088959,710.6372446272057,406.7468572431999,835.9599904875429
1730573646.2641232,784.4233315518809,701.1784960934721,406.8165080561457,836.3721038151891
1730573646.2658944,782.6089497746112,691.739564959833,406.9015745963717,832.8429008914418
1730573646.269803,783.9013267163988,682.3278868299728,407.0030018561393,828.5723558982039
1730573646.2737117,791.6179121711473,672.9473426162638,407.1200353954873,826.1005501288198
1730573646.275903,805.1700519902195,663.589067239433,407.24940901599115,826.1583642024551
1730573646.2776203,819.8345031065222,654.2285757073884,407.3870386272313,827.8256599244605
1730573646.2815287,829.1614051503623,644.8415685464556,407.53311925251865,829.2817215142092
1730573646.2830267,828.5606093367261,635.4402627265773,407.6977588049379,828.6032119538809
1730573646.2854376,818.1223465305212,626.104780864854,407.89967894784075,824.6970368515551
1730573646.2893462,803.0833164169126,616.9574899487324,408.15066885569274,818.3811138459201
1730573646.2914977,791.363815949758,608.0419246902032,408.4294837350387,812.7779098353535
1730573646.2932549,789.2102642120672,599.1557092146573,408.66912573131907,811.9023802170309
1730573646.2971635,797.4533584437548,589.8193171415417,408.79375003101705,817.6699117152523
1730573646.2974043,810.9196364665822,579.6062904350063,408.8173802126354,827.5471304506519
1730573646.3010724,821.6014991795126,568.8344399366123,408.94293344073975,835.3595326511919
1730573646.3019304,823.5633340366998,559.0923099569184,409.51804234797964,835.371391013437
1730573646.304981,816.3451697889259,552.6177280574279,410.7220163009122,826.6583219606285
1730573646.3070924,804.7882151337335,549.91113221245,412.0826151173897,814.1344518146931
1730573646.3088896,795.7189742817178,546.7178202032945,412.30015071980824,805.2545261426219
1730573646.3127985,793.8405556368858,533.9481917778743,410.0447998699862,804.9681905136217
1730573646.316707,799.3290492632264,504.6087555732413,405.86676853623874,812.7219603898227
1730573646.3206155,808.298891595823,467.1513480868408,403.94241049022304,823.3352508071175
1730573646.3208342,815.5603169404095,454.9117986847593,410.9731524016265,830.5193263817051
1730573646.3226871,817.8941794503594,514.4613703348193,430.28486156679253,830.3288534405795
1730573646.3245242,815.8755437497056,667.1588445154922,454.02740649972816,822.6415604079908
1730573646.3284328,813.1412848688555,872.3852790921671,462.8485022745849,810.4958527402202
1730573646.3323414,813.5727962226939,1041.021423708023,440.22873667111105,798.2361701410099
1730573646.3324833,818.3122186143712,1105.2070269014416,392.1580906663636,789.5708467661265
1730573646.3362503,824.7994675687031,1078.3726652108953,349.52931407402286,786.3269336747462
1730573646.338282,828.6602255064533,1036.9804750075828,343.8748755203417,788.2546811797826
1730573646.339738,827.0921895579953,1039.3424459660037,377.0396837813742,793.7286326887761
1730573646.3401587,821.0757741321634,1067.3353936977162,416.2817738314494,800.7429910753104
1730573646.3440676,814.5315124870815,1052.257804173367,423.01768646263247,807.5398492189377
1730573646.3479762,811.0373587359002,956.6892897482194,389.3642882723823,812.6694660465984
1730573646.3518848,810.8573206364462,825.3216681475973,346.8491218484934,814.8800552649576
1730573646.3538768,810.8290750912241,748.677826681217,337.27640866693116,813.3666050583969
1730573646.3557937,807.1701192882944,773.0892127061513,372.6913463620682,808.3910743369477
1730573646.3586416,798.7418265569257,848.7052695705444,423.20974077632974,801.6419366108474
1730573646.359702,788.053948885594,873.940040659497,445.37542900972903,795.6830804590287
1730573646.3636107,779.3991021766341,798.7920226627307,424.3297346587539,792.6168076302937
1730573646.3675194,775.9207121055101,685.1084941569385,388.8865687145128,792.9366547711355
1730573646.367562,778.0135629366586,656.9908063979709,383.94584232912655,795.5318447897621
1730573646.3694715,783.9549066675712,780.2926757116887,425.57299797719844,798.8033693687596
1730573646.371428,791.6670162849384,984.6724467165864,481.49127745524083,801.8362053354738
1730573646.375337,799.8490983252024,1108.9628682930786,496.907553265151,804.6345451126776
1730573646.3775454,807.7611914210424,1037.1412200807854,443.53386950572923,807.5053630798119
1730573646.3792455,814.4418296076618,804.0308533688022,347.3818568099371,810.5287603153504
1730573646.3831542,818.5815374658505,572.5305906293288,269.49353915578797,813.6898797075571
1730573646.3850665,819.3500330661151,499.8086223778821,256.6079940688892,817.1768923788736
1730573646.3870628,817.2690412311576,611.1953334704965,305.9294620596603,821.020469767143
1730573646.3909714,814.0391286051846,791.7532167334778,373.8889500994643,824.20246537168
1730573646.39488,811.2698552759051,895.8498713612897,417.2594244804967,824.4183289035759
1730573646.3964489,809.2413700542064,869.8367000678641,426.831204286422,819.3503716947979
1730573646.3987887,806.8954833352946,779.5857569425098,425.1115909809704,808.7179498599829
1730573646.400661,803.1000930959331,729.725590989304,436.19903866704954,795.2291861715452
1730573646.4026408,797.9968044915613,760.5072561126357,460.75010335382257,783.2439248785331
1730573646.402697,793.1643982880654,820.366270425739,479.54254697052545,775.9823493520278
1730573646.406606,790.4808110707983,832.3046807616472,478.03628900000746,773.5860213219665
1730573646.4105146,790.787803313793,779.8926274692357,463.58974629185974,773.7623437392862
1730573646.4144237,793.5654238768411,722.8544970668102,456.5045080298478,774.46945982794
1730573646.4153526,797.7767695928617,727.6386462993248,465.1518473804838,776.1599488778897
1730573646.4162557,802.9369129619627,788.9100885361718,473.6121158735104,781.4099008798722
1730573646.418332,809.342857429388,829.3046608721883,457.8349897686705,792.1700847467872
1730573646.4222407,817.2822628166055,782.7420112882269,415.3755568990416,807.146825880483
1730573646.4261494,826.0156386998044,675.988946430016,376.8237597821795,821.7661483963129
1730573646.430058,833.5356160653286,620.2643043091091,383.26999127276474,830.867981035095
1730573646.4318504,837.4485559688341,714.0636417508027,448.236181212132,831.9422214701875
1730573646.4339666,836.398179022062,947.9424582588138,539.9005145220609,826.4367994973447
1730573646.4342563,830.9817691796337,1201.3548369304012,602.1506220680509,818.4137795669193
1730573646.4377198,823.4377053184045,1334.7512858397718,597.6178918548969,811.85119924128
1730573646.4378753,816.2930124291711,1294.4281156365869,535.9103594285608,808.6062208935164
1730573646.441784,810.992183396184,1141.7393178656614,463.5579746984601,808.2018228257405
1730573646.4456923,807.5663760791534,990.5869095132666,425.7886270746664,809.054420638829
1730573646.4474452,805.4830511646661,916.8337713343853,433.90551005382275,809.8447464095694
1730573646.4496012,804.6984050424386,919.3576764869324,465.0488764524325,810.0919762433692
1730573646.45316,805.7580036354557,955.3395218272666,490.3810169912983,809.943764104494
1730573646.45351,808.8523887426041,999.968753971955,501.98035549693054,809.7151276859975
1730573646.457419,812.948529403165,1063.6381032393306,512.4101316095044,809.5927720723272
1730573646.4613273,816.0993752460535,1152.5923247942878,530.2469203861294,809.5904818247138
1730573646.46304,816.7455121833993,1224.9463542631968,540.301574504065,809.6387440724023
1730573646.465236,814.7236446583103,1202.1263796991761,512.5864536227929,809.6755618898515
1730573646.4691446,811.0388913523149,1036.2743710406971,433.5880850593528,809.6808716730981
1730573646.4720638,806.7978026073274,769.8468173318635,328.4418267884468,809.6651616102534
1730573646.4727986,802.4722953562397,523.5098298726673,249.36101414312162,809.6454988633569
1730573646.4730532,798.0708767828088,414.56903037133526,237.8899698386184,809.6311180746957
1730573646.476962,793.6717370023877,474.5137063333854,294.04648345893264,809.6221224936222
1730573646.4786348,789.5006920910164,635.5076844175223,379.1000719063607,809.6146321462145
1730573646.4808705,785.5585450491485,792.3034727035132,447.55282856511593,809.6054860299691
1730573646.4847791,781.5803092480874,880.6101956702248,478.71168881872154,809.5938143426305
1730573646.488688,777.7709740844118,905.6260842945383,482.10807226050224,809.5802830303468
1730573646.4909675,775.6504643296731,906.3197054697698,477.39347037192414,809.5658102562286
1730573646.4925966,777.8113509170933,899.5300895780861,471.5856557938944,809.5508584702081
1730573646.4942296,786.2143717356136,860.8032277243784,455.3230280915245,809.5354164148068
1730573646.4965053,800.1174444184477,758.9937024421649,419.12197249939385,809.5192878913197
1730573646.500414,815.4147815145753,607.6882965317031,370.9812219867737,809.5023295523423
1730573646.5043223,826.2947553549495,478.15645139727695,335.98997330647416,809.4845161073547
1730573646.507877,828.3481887460663,454.2154152944302,337.08849442688484,809.4658922370631
1730573646.5082312,821.063507031043,566.8225022657937,375.6295608033263,809.4465137803144
1730573646.5098245,808.0458591795407,768.7704796617736,430.9676280414038,809.4264320806556
1730573646.509871,794.9219959747415,972.9759708658498,478.98952171161983,809.4057088602966
1730573646.5121398,786.3919027630584,1117.5282711273949,510.49443908572687,809.3844133741236
1730573646.5160484,784.203401351576,1197.8474672974078,531.6799192887255,809.3625682457639
1730573646.5199573,786.9789294567362,1242.867485622758,548.7783954337322,809.3400720275323
1730573646.5238657,791.6248871206114,1268.4505672301323,555.5582604553624,809.3167002706429
1730573646.525419,795.3069600769874,1259.0246163688594,538.2986177468587,809.2922963803854
1730573646.5277746,796.9379541105549,1192.4521063132793,492.9358834375952,809.2671249055777
1730573646.5287747,797.5323502789307,1074.9871192755818,435.0165736471283,809.2420840739476
1730573646.5316832,799.3033054024127,944.162094392353,389.84951170054563,809.218278497681
1730573646.5355918,803.9594490251303,834.4119074528156,370.7752986832892,809.1957238829664
1730573646.5395005,811.2469524272475,742.2970846325567,366.72384582785975,809.1719162694255
1730573646.5410137,818.8934348132486,631.6435383021844,352.6659707763588,809.1421670389565
1730573646.5429564,824.2259237448297,479.76123131610615,314.9829576324663,809.1035595507402
1730573646.543409,826.270046487196,321.56796677304897,268.50928319614377,809.0615801188093
1730573646.5473175,826.4676587875134,243.00968068440307,248.0651605342586,809.0333324392901
1730573646.5476785,827.2093176873318,318.7754010023848,280.2359651321002,809.0381340423702
1730573646.5512264,829.4008320745451,544.6704762741771,359.95943524177665,809.0724379181856
1730573646.555135,831.338809195581,827.4594750016129,452.65656253569,809.0847777948734
1730573646.5566084,830.0794235064784,1046.4491812531912,519.2193055495576,808.9872991983806
1730573646.5590436,824.1374876771209,1135.1235984135903,541.163504827097,808.735980821618
1730573646.5629525,815.0025157680566,1113.4003032449102,526.0325039324495,808.4550791412101
1730573646.5665822,806.0291149073839,1049.7783571535488,493.75485767480717,808.486724815864
1730573646.5668612,799.7814848420192,997.2406708773117,460.48694908924267,809.2040337041428
1730573646.5707698,796.3569786719103,962.5402192222106,433.0565215305355,810.5784236998818
1730573646.5722034,794.1144814843904,925.5523328682041,412.63353515529974,811.8521347873879
1730573646.5746784,791.7973737035713,874.4036476501453,398.8534663409615,811.8500295086491
1730573646.578035,789.8188268877881,815.3086381185714,390.5451953512705,809.9736356853101
1730573646.5785873,789.5659312354379,753.1972042176936,385.52048015357,807.0598517848247
1730573646.5824957,791.6135271365473,674.6010908263473,381.44963960693065,805.1289311865422
1730573646.585486,794.6478972736609,559.5866608456103,376.939417064379,805.9965956042018
1730573646.5864043,796.0840077012932,412.8519592354283,371.72043804848033,809.857120589739
1730573646.587798,793.8683927003302,277.5204036597307,366.12608815682904,815.0803704751035
1730573646.590313,788.0708185963159,208.94979650225446,360.5245888469593,819.4141612175423
1730573646.5942216,781.0591732220805,227.43802253056037,355.06375781024366,821.5185468808297
1730573646.5981302,776.077625549094,295.36406008105945,349.70248097891755,821.5506408441998
1730573646.6020389,775.2499141849853,346.0339398026832,344.3434248937033,820.561261366684
1730573646.6033928,778.505613553488,342.4818862694118,338.9255845317864,819.5307540819623
1730573646.6043894,784.1299050635109,312.0450488553088,333.44149517766675,818.8718052008358
1730573646.6059475,790.1720242644848,321.4772352950944,327.91122932851374,818.5186627299262
1730573646.6098564,795.2730946708018,413.1146961377224,322.354040208561,818.2486393307178
1730573646.613114,798.3500269392081,561.8923690512779,316.77670154186956,817.9132274910412
1730573646.613765,798.0474464637282,695.0800108493875,311.1763039376922,817.4894200560536
1730573646.6176736,793.2322280653857,755.9700221753459,305.54751614933406,817.0228101065917
1730573646.6189876,784.5198485261474,748.8118823693501,299.8872333878976,816.5600940577004
1730573646.6215825,775.2375711304929,721.1282978110013,294.19520997473086,816.119313206926
1730573646.6232932,770.2085235575032,704.2506386161724,288.47258092204913,815.6949489087089
1730573646.625491,772.6357139935229,677.1694947062974,282.72039154797403,815.2748276859429
1730573646.6293995,781.4752681184247,594.9367562971748,276.9390099440994,814.8515438177811
1730573646.6333082,791.8164059114589,453.72886084767305,271.1282318947548,814.4243894423375
1730573646.6345823,798.4347952400778,321.95493445615784,265.28760817561283,813.9959986783974
1730573646.6372168,799.7826438308063,296.7003629801283,259.4167708224729,813.5688162893194
1730573646.6411254,798.9870783400391,419.4021716220464,253.51577981307878,813.1436974177998
1730573646.642197,800.9081517010644,629.5427041798522,247.58543181801116,812.7202991020465
1730573646.6450343,807.8729016110148,804.316472678893,241.62715517173453,812.2979990025347
1730573646.648193,817.9050045020043,853.7525707427075,235.64201420888756,811.8764678447781
1730573646.6489427,826.7672908340077,788.972000803172,229.6289709607251,811.4557335587602
1730573646.650177,831.4733402447619,704.9468254200275,223.5838856992274,811.0359808098187
1730573646.6528516,831.9915362494364,695.982546311298,217.5016913678737,810.6173548445407
1730573646.6567602,830.2790796698384,780.6854785161904,211.38281865478783,810.1998903093473
1730573646.6606688,828.3347196461926,900.0222874239466,205.24019130887362,809.783556051889
1730573646.6611006,827.0854379468352,981.6768120832056,199.09738409759385,809.3683537875205
1730573646.6645775,826.4700833426939,1004.1319405122192,192.96889296042278,808.9543968000855
1730573646.6657715,826.0577893116479,1000.5203391629651,186.82746352392238,808.5418911081772
1730573646.668486,825.5334348269776,1005.7225846824554,180.58880286048048,808.1309688422676
1730573646.6723948,824.8302930904595,1006.7555576878246,174.15896279671134,807.721434422444
1730573646.6763034,824.0306424300595,951.3663888758343,167.55866520538666,807.3126661848444
1730573646.6800044,823.2295534656978,809.0579116955979,161.04594935488845,806.9040078698099
1730573646.680212,822.4682220519094,622.3661432862496,155.0567598755909,806.4957233312487
1730573646.6813664,821.7389359691831,490.237079369828,149.80875338372974,806.0898741632465
1730573646.6832716,821.0177559790816,488.7631918118658,144.69880725664052,805.6897456696458
1730573646.684121,820.2886980365938,598.6093650030302,138.10038368672988,805.2967325774168
