timestamps,eeg_1,eeg_2,eeg_3,eeg_4
1731655832.1171105,827.7404363127514,807.604531428783,806.8360071625918,821.7596550872533
1731655832.131084,826.4706789121858,807.6833150140604,806.6288374129539,821.0590560586512
1731655832.1481369,823.3863460111863,807.43121757636,805.9127534515973,818.1314755345445
1731655832.149958,819.911268345786,806.8583065745871,804.7287904898845,813.8833089386773
1731655832.152,820.6174164908089,806.3944203972806,803.8159664003067,812.6365356755391
1731655832.1637266,829.0969906436726,806.643784638519,804.2068897987209,818.7569102654752
1731655832.1688323,842.8598810803708,808.0067440627516,806.5159068225972,831.9579305263815
1731655832.1713676,852.3331347137615,810.4617799576739,810.4325093530471,845.5458293242817
1731655832.175264,846.7271431823012,813.6457767334168,814.8230680169738,850.3076585659668
1731655832.1791606,823.5609268338891,817.0757003647885,818.3632730995525,841.9289546470128
1731655832.1793163,793.8479044144385,820.2260715568533,820.1851281666991,825.6992574549324
1731655832.1830573,776.7286440757397,822.4090578624172,820.0903609515026,813.4372549253951
1731655832.1868896,785.7753152639318,822.7672025762072,818.3861483112433,814.1474870460595
1731655832.1869538,817.390745546297,820.6875960892037,815.728529208417,826.1510871281303
1731655832.1877067,851.6436594036882,816.4483044631648,813.1191524895564,837.9736229080562
1731655832.1908505,866.3764055236575,811.4499399846655,811.7635709793886,837.889077444513
1731655832.1947467,854.08783659699,807.6004613155995,812.5282320872581,824.2198080918107
1731655832.1949062,827.8418011019055,806.2072460256833,815.27808565894,807.4127161206878
1731655832.1986432,810.7503622573204,807.2603959890185,818.7552002071184,801.7309426339305
1731655832.2025397,817.0496436231144,809.6490984962579,821.3039090765969,813.3167605818606
1731655832.2064362,840.1645042033058,811.9771758053982,821.9440842149838,834.6749391572863
1731655832.2065809,857.838318106591,813.1716238535479,820.8956167031397,850.3505320366886
1731655832.2103326,850.4486805813492,812.4933208894217,819.1311080075858,849.1886321640783
1731655832.210496,817.6294062776423,809.3483659546599,817.4307316757609,833.0878412468957
1731655832.214229,779.5346803213995,803.526426804516,815.8389589800049,815.1705715335606
1731655832.2181258,761.5469582940905,795.8694579218588,813.9680508990326,809.0578822681587
1731655832.221779,774.6463227545977,788.6143927741408,811.7350799999042,818.0354292886204
1731655832.2220223,807.0876015631695,784.6850009024643,809.7166749467332,832.6844476501783
1731655832.225455,833.880957868293,786.113839397333,808.7359125021972,838.6244150107922
1731655832.2259188,836.4091050110644,792.6786957516997,809.0983825863476,828.1497836041167
1731655832.226086,816.6163492337901,801.8359073978799,810.2548359645233,806.7066893751872
1731655832.2298152,794.6383846140499,810.0922961949261,811.2362939652887,789.1591911509126
1731655832.2337115,791.9513409698615,814.8789128413345,811.4360290175331,788.5496385022218
1731655832.2376082,813.7176498152468,815.650918641794,810.9907330987518,805.932346431993
1731655832.241505,844.6345097127227,813.5912313078164,810.4637697439064,829.3523333467793
1731655832.2416756,861.523370765314,810.3908392896212,810.2660215126583,843.1029274661693
1731655832.2443297,852.1852101307932,807.1845076125517,810.4606576838169,840.1356380262563
1731655832.2454014,825.1108718785201,804.3371987433846,811.0590417001517,827.6260027935517
1731655832.249298,802.3945526621472,801.8698370799729,812.2732222411444,820.9124090991528
1731655832.2531943,801.9060760484675,799.8550238327215,814.246022546114,830.3889632619749
1731655832.2566688,823.1876225571342,798.4721379799424,816.5087794119848,851.9260032690593
1731655832.2570908,848.2278805793505,797.950862543128,817.9313077443851,868.9810813523667
1731655832.257265,856.2630296111336,798.6159810290893,817.5139445035018,865.3460332231685
1731655832.2609873,840.6237703075415,800.8398603795554,815.3956417759221,838.6398128988326
1731655832.2632036,814.0215352358119,804.6685695416297,813.015613010131,803.4630751839312
1731655832.2648838,797.883824038635,809.3882583303562,812.0566475713238,781.0413149360679
1731655832.2687802,804.3712900175651,813.6190673679374,812.9920311184799,783.220385748565
1731655832.2726767,826.0499095202629,816.0763215193341,814.5534081206907,803.714781360163
1731655832.2728553,842.1106262670439,816.3765426916237,814.6942996019045,823.8186315976934
1731655832.2765734,836.0830153834479,815.1450783178933,812.3008403864193,827.7687913997585
1731655832.28047,810.0707709345634,813.3886871503361,808.2058768657303,814.9347642760774
1731655832.2820778,783.4630669816032,811.7935601086716,804.6289136016868,799.0276093768543
1731655832.2843664,777.2725216860787,810.528850260552,803.4979505215518,795.6955673610839
1731655832.2882628,797.1274248951469,809.4998964921482,805.0422447834989,809.2756406303309
1731655832.288445,828.6274689658546,808.6067186206925,807.7703171916011,829.4027206319777
1731655832.2915585,848.4347653351755,807.7670921497349,809.7341387149238,839.5770332582076
1731655832.2921593,842.0556853817959,806.8559206132439,809.9258254152207,830.3028434384412
1731655832.2960558,814.4134912934135,805.7843777079505,808.6760937847488,806.3809834370544
1731655832.2999525,785.2594639642266,804.6847192261137,806.9303994766086,783.0327008586182
1731655832.300952,773.4258290787513,803.9564752713219,805.2800964770801,774.3532146980594
1731655832.303849,782.6627499642589,804.019453510852,803.6898378672336,783.2988430330738
1731655832.3040347,800.3168672237082,804.9063381512523,802.0115119505699,800.7356435353571
1731655832.3077457,809.3915980069025,806.0407549104625,800.5476740086432,813.5969403405446
1731655832.311642,803.4462696102383,806.4905382101367,799.9786253002703,815.1253607543038
1731655832.3155384,791.7823440413106,805.644332451887,800.7483178789561,809.1581278622479
1731655832.319435,790.9539725653013,803.8377652724511,802.5881471900327,805.7821968258311
1731655832.319625,810.0881471994754,802.332259172902,804.6472950580511,812.552315663761
1731655832.3198264,842.1510636363619,802.4762832967161,806.0514199790221,828.3638434583087
1731655832.3233314,868.082018079267,804.6080236045595,806.3814041866825,844.4168341918383
1731655832.3264482,870.6120767660797,807.619514867228,805.7883314993278,851.1564262539231
1731655832.327228,847.3038798462132,809.6415737529953,804.8326724985046,845.6884523424845
1731655832.3311243,812.7583366137801,809.3577452124206,804.2303899815997,833.8005673118718
1731655832.335021,787.8086311950634,806.9010238394867,804.5461520382139,824.79440571038
1731655832.3352144,783.6591483844383,803.6681171404284,805.8227297996862,823.2553733158537
1731655832.3387003,793.5960216865147,801.303818180116,807.312058749847,824.9153527997618
1731655832.3389175,799.4348218097841,800.6800190576056,807.636871990418,820.6628987277281
1731655832.342814,787.7828292651501,801.5158841925471,805.5346348931657,805.5596058819324
1731655832.3467104,762.5134203131847,802.7263948271035,800.82914354256,784.8074528442903
1731655832.350607,742.5410634113257,803.1793153647266,794.8858415401268,770.8323561267338
1731655832.350804,746.2561737914575,802.4206037979258,790.0209987270921,773.362909200851
1731655832.3545034,775.4117522706053,800.970253395179,788.1278232414244,790.7563868334148
1731655832.3575747,812.0357235586159,799.9765247758938,789.5007512772961,810.16427043359
1731655832.3584,831.4383080487726,800.3896953401064,792.7651723315155,816.953315080057
1731655832.361338,821.2815199790409,802.2013314151437,795.931432458059,806.1035890163256
1731655832.3622966,791.4850393115535,804.3364633096045,797.6813452676382,786.3845298170579
1731655832.3661933,766.6456603936301,805.337029984043,797.9129337577183,773.6211239724378
1731655832.366394,766.5339174311958,804.349174730705,797.3373821521511,778.1171207799258
1731655832.3700895,790.2498192919827,801.6692636833058,796.7149741258869,796.316926523799
1731655832.373986,817.2225879587991,798.4664722906808,796.3971844634733,813.6761299457584
1731655832.3764489,824.569969104052,795.964069874235,796.3454838886556,816.6054103393128
1731655832.3778825,806.4435711124196,794.7329814320826,796.3773554778531,803.6975069235707
1731655832.381779,778.9989898953158,794.5477241250641,796.3622798737981,786.8735801248285
1731655832.3819838,766.7444042751707,794.7494161922401,796.2735738443046,781.4651112042775
1731655832.3856757,781.8954644071734,794.7412695083345,796.1458209081763,793.5146005675704
1731655832.389572,814.1515232916984,794.3083684026238,796.0183024449437,814.813511416241
1731655832.3934686,839.1769584993169,793.6951437630313,795.9077512315323,829.5800947642426
1731655832.3953233,838.3188164883746,793.4951379091378,795.8107308848764,827.0096802162209
1731655832.3962276,813.2338721028744,794.376956606299,795.7172618202761,809.3809836372704
1731655832.397365,783.9400322530055,796.6873548665152,795.6207670954792,789.4514755319263
1731655832.3975737,772.5013867003237,800.1266847612221,795.5202219339712,779.7473456820054
1731655832.4012616,785.7832259469649,803.7867342745317,795.4176091407553,782.7054200025101
1731655832.405158,810.9588162226585,806.6467863649552,795.3149468559816,789.5925279523099
1731655832.4090545,826.9145557834595,808.2335650829274,795.2129896362004,788.803553701868
1731655832.4129512,821.7842943771207,808.941042954542,795.1114602824506,776.4577266947149
1731655832.4131634,801.977016931213,809.7220459890674,795.0097946247786,760.3599292607013
1731655832.4141974,785.4297935396795,811.3427493814321,794.9076413998664,753.8942172806189
1731655832.4168477,785.3199640422195,813.7382217818235,794.8049448287983,764.7806518737027
1731655832.4207442,798.5089903485218,815.9610899793724,794.7017968768198,788.0025887519487
1731655832.424641,808.63844691212,816.8135093850224,794.5982833402929,808.9950928617008
1731655832.4285371,800.9814545864874,815.755547843819,794.4944229210927,814.8760177829845
1731655832.4287531,776.0646311643926,813.4257432333204,794.3901821714567,804.7480338335116
1731655832.4311173,750.2573730563087,811.316205141323,794.2855108970846,790.5070718099331
1731655832.4324336,742.6501086861177,810.7346293424794,794.1803640096673,787.1212377303589
1731655832.4330716,759.074859125685,811.7559284191977,794.0747100387324,800.0635967163319
1731655832.43633,786.6312443290848,812.9635810221921,793.9685406101011,820.3036919766062
1731655832.4402268,803.6444327343786,812.2760158369339,793.861882650806,831.405406974477
1731655832.4441233,797.3038997813726,808.3853150674855,793.7547915978694,823.2665040819887
1731655832.444343,774.5221718376803,801.8656141689106,793.6472980401145,801.1383159408199
1731655832.4480195,756.6616528467721,795.1742755323252,793.5393169929705,782.1218141739242
1731655832.4519162,761.9942125363002,791.4457494703754,793.430602074273,781.716194358334
1731655832.4519458,790.1640957675394,792.7362993440089,793.3208735451987,801.383214839384
1731655832.4558127,821.5455728031942,798.7794227028129,793.2101669785148,827.2600470886706
1731655832.4597092,832.2461002282045,807.0824935330756,793.0991889755438,840.9491519242446
1731655832.4599328,812.812749113611,814.3658786870097,792.9891716891021,833.6184561492984
1731655832.4636056,775.8740399641351,818.4054447610924,792.8807721205015,812.3050263033399
1731655832.4660068,746.8890488384557,819.0364885592614,792.7723488317054,793.8057088265778
1731655832.4675024,745.3217344306812,817.7433977042115,792.6592954511653,791.3586559201575
1731655832.4708202,770.6618646445753,816.3444494285444,792.5368022651126,804.7346557167111
1731655832.4713988,803.7675451837916,815.8214420219946,792.406580233704,821.3401806834516
1731655832.4752953,822.2648105188244,815.9632013694945,792.2830330430072,827.0185942201852
1731655832.4755225,817.9265249076924,815.7479846457994,792.1891849314318,817.511777471371
1731655832.4791918,802.2817254956626,814.036879684667,792.1347323691713,801.238120363262
1731655832.4830885,795.9502318959298,810.2739209745899,792.0845285706225,791.4530073906598
1731655832.4869847,810.4761548908568,805.0073976831765,791.9509810631342,794.7761189389659
1731655832.4896944,837.8372211486752,799.9386583264168,791.6542354438404,805.8816695926945
1731655832.4908812,856.5972288352343,797.2305635548453,791.2559614829232,812.5747391071923
1731655832.4911125,849.8210031315548,798.2856157573533,791.0803045742476,806.5820694610369
1731655832.4947777,819.9882121164111,802.7864915341988,791.6611780063523,790.8164367526795
1731655832.4986744,788.4195285950445,808.7865679989555,793.4312005488043,777.1296375900146
1731655832.5008965,779.2420214523347,813.8743213469049,796.3180775713237,776.5334957392098
1731655832.5025709,800.5159539597195,816.5596210776031,799.6096977566294,789.9755882656472
1731655832.506467,837.6519099826958,816.8624640661058,802.3129699937336,807.292437544942
1731655832.5067022,864.5317294878168,815.782845933033,803.8094010394426,815.3899310691728
1731655832.5085683,863.5279222485506,814.2487170988297,804.2771590914176,809.1325197438456
1731655832.5103638,838.4051363110596,812.4707513846323,804.4542186232285,795.8783523228303
1731655832.5142603,809.8822771909217,810.1468341602733,804.864688132694,789.47019864868
1731655832.5181568,797.8806096077077,807.1550291180935,805.2009687622987,798.2925786729777
1731655832.5220532,805.4676200749806,803.9861391324482,804.5649433047281,817.4791644330197
1731655832.522292,817.8673025677763,801.5020438409898,802.5322085426735,832.3240375111519
1731655832.52595,816.8652058588732,800.2893647683629,800.0899608172016,830.4531786631461
1731655832.5274427,797.7357499537185,800.2394065947675,799.3651687843151,812.5615284056349
1731655832.5298464,773.9202704795907,800.7195032148863,802.0542193829596,792.5270977026789
1731655832.533743,765.5052668504633,801.1374113880955,807.7778841983016,786.6289121814503
1731655832.5357862,781.5109040745373,801.4053882198859,813.905369128527,800.6280798871281
1731655832.5376394,811.2599901639154,801.9868484461641,817.2442868664673,825.1158653058351
1731655832.537882,832.4757558228396,803.5700350557461,816.3385897643896,842.7912261363648
1731655832.541536,829.662831374791,806.6039650018756,812.4890370235594,841.8459219054345
1731655832.5454323,807.3610191810511,810.9101685987645,808.643837344526,824.838412427638
1731655832.546317,786.6683326691269,815.5291212797822,807.1066489725944,806.0204280628514
1731655832.5493288,787.3597492754822,818.9390493336681,807.9732395677097,799.3427523307221
1731655832.5532255,810.5167134739604,819.67381246103,809.4969922907655,807.0080266717686
1731655832.5534716,836.7449407522744,817.1007801506506,809.8765045885091,818.0674884132956
1731655832.557122,842.0498987900343,811.8810733297463,808.8050769483082,818.1956525161204
1731655832.5610185,818.2679734582022,805.7151513684784,807.4990431913989,802.3632443209461
1731655832.5649147,780.8703377358631,800.4493405301292,807.3737973093033,779.7337426410458
1731655832.5651913,757.4771062533842,797.1535198613457,808.6889053110863,766.719945375095
1731655832.5688114,766.3094239979732,795.8567057053612,810.3610300554631,773.9179686936446
1731655832.5690613,801.7452646526875,796.0641788374637,810.9885880096484,797.3808582477672
1731655832.5706758,838.2361670981974,797.4557589802052,810.0542702456122,820.9878972557177
1731655832.572708,849.4811318077703,800.0277810485128,808.2202386518773,828.0313430258939
1731655832.5766044,828.1418142619063,803.5848905441571,806.5961049589679,813.3001168273215
1731655832.5805013,791.0142154222295,807.2487773733651,805.8312254651581,786.6699865989449
1731655832.5840654,765.6987687945383,809.6882782398205,805.845416276398,765.5584293054625
1731655832.5843976,769.2083238966896,810.0105766942719,806.1870199599234,762.0194606643103
1731655832.5846512,795.3938454924437,808.4894087643142,806.4800560610624,774.3977265986733
1731655832.588294,821.0210735709223,806.3692496221815,806.600770871638,789.8449273244253
1731655832.5921905,825.1938173584973,804.8381912967485,806.6062079421037,795.2825314933402
1731655832.596087,806.0570323676347,804.055546638202,806.5938809708233,787.7051101572591
1731655832.5999837,781.3395016556926,803.0860684366475,806.6172572371323,775.6535194557448
1731655832.6002407,772.9329837116387,800.8049284161096,806.67730489027,771.2812794528281
1731655832.6029396,788.6809784788577,797.0437823106469,806.7517773817077,780.0623352370504
1731655832.60388,816.252521119478,793.0751092204537,806.8223428554428,796.5976294881464
1731655832.6055653,833.6902044673456,791.0059587005887,806.8838107326999,809.561022109295
1731655832.6077764,827.7385893035671,792.397375567064,806.939889973892,811.3896155285468
1731655832.611673,804.9331928009137,797.0145330661516,806.9958060249003,804.673890309693
1731655832.6155696,786.2442418282324,802.6645569023711,807.054179829916,799.9333668040765
1731655832.615831,789.4487148920242,806.404217477358,807.1148835891919,806.4644136114939
1731655832.619466,813.836227454433,806.3509598200832,807.1766958712927,823.8181352726547
1731655832.621814,840.3951332482982,802.7773180465167,807.2386959867723,841.3036351409976
1731655832.6233623,847.7719740152005,797.7092285910377,807.3006750749282,846.410925576903
1731655832.627259,830.660068581338,793.4600339879062,807.3628676355856,835.362264559628
1731655832.6311555,804.8346044427639,791.3039340706653,807.4255585104975,816.7795906189177
1731655832.6314206,794.2878837845984,791.174747236783,807.4888816217616,805.0047916919217
1731655832.635052,811.1514445337166,792.2982937203518,807.5528268410013,808.4311553804473
1731655832.638949,845.1075553497083,793.985470682702,807.6173325820747,822.6354920398833
1731655832.640455,870.9476917872796,795.9316331496332,807.6823585267667,834.1616931898295
1731655832.6406882,868.1366571567173,797.9897506150442,807.747905210103,831.8510158705348
1731655832.6428452,836.8868908579907,799.8600532895045,807.8139974407886,816.2667932958354
1731655832.6467416,798.1955127874928,801.0923175999243,807.8806585446828,799.2939663071478
1731655832.6470103,777.7797698841554,801.3795470936939,807.9478918072599,794.149724411967
1731655832.650638,786.4185743014622,800.7890338237136,808.0156766221571,804.1839587955427
1731655832.6545346,812.2787157276786,799.6470531206891,808.083984915455,820.0980610018057
1731655832.6584313,831.4217582736579,798.1719649265157,808.1528176143364,828.1057271850813
1731655832.6595623,827.7939955624048,796.2534988633512,808.2222405185349,821.9490366218035
1731655832.6623275,806.0073438215541,793.6984944709886,808.292372693879,808.1807534042734
1731655832.6626,786.3935552909368,790.8307461452861,808.3632836754848,800.1223719114479
1731655832.6662242,786.9997182026211,788.8893371869501,808.4348272810845,805.9631374074884
1731655832.6701207,808.0534012691419,789.6599698942675,808.5065679720287,821.4031925090776
1731655832.6740172,831.7382132667508,794.358183756079,808.5780286235171,832.9638315626732
1731655832.6753447,836.9188361854182,802.5366389761947,808.6493258048998,828.9657820085858
1731655832.6779137,816.4208234363883,811.9600583382573,808.7217835050819,809.199624155829
1731655832.67819,783.1052432855287,819.6932849121126,808.7976050039591,785.7875367322891
1731655832.6784365,760.2717835102144,823.670398890286,808.8778310136973,774.6430593726593
1731655832.68181,763.9931405204155,823.646399196051,808.9592801951865,783.8408328212362
1731655832.6857066,790.9614171810077,820.9605426327271,809.0335733564201,807.4850389161862
1731655832.689603,821.2442630954472,817.4430171406589,809.0924353721505,829.8565941403681
1731655832.6934998,833.9134553204944,814.3293300962555,809.1399303756333,837.0807431662927
1731655832.6937797,823.2202004537842,811.8673324459799,809.2031497976792,827.5808214564418
1731655832.6973107,802.2515705058869,809.6646655715771,809.324097652267,813.0927200197981
1731655832.6973965,791.1145800418944,807.309738440622,809.5206538791508,809.2277299816174
1731655832.7012928,799.6106102309067,804.7872041920936,809.735503325163,822.9628408261652
1731655832.7051892,819.0354312833904,802.5482863408033,809.8410267832794,847.0297649277809
1731655832.7090857,830.000142425514,801.3458288612945,809.7634938874947,865.6322351495448
1731655832.7093694,819.6403799237065,801.9187222001668,809.6218791279339,866.7741167296814
1731655832.7102344,793.7506180660296,804.5450543897067,809.5963878718828,851.2971197695788
1731655832.7129822,773.5453838807318,808.6250999700161,809.4931217273479,831.6212650189376
1731655832.716185,779.1639955500987,812.6613544741348,808.5494493248742,821.5249254164455
1731655832.716879,812.7610524392865,814.8911754948983,806.0153783932161,825.3205436793797
1731655832.7207751,854.8657928593656,814.3084896319116,802.1375916024141,835.1112064245382
1731655832.7246718,877.8072787879494,811.335663454551,798.4439978632493,838.2718081793929
1731655832.7249594,866.4685802719608,807.5485854920246,796.7378528917338,828.871492943992
1731655832.7285683,830.0173258674247,804.6204177684881,797.5363723693395,813.2295258675307
1731655832.7324648,794.7566333547587,803.3302595531077,799.404434584216,804.5688925300135
1731655832.7350593,783.5088629147565,803.3853152022707,799.9357969318963,811.230098127198
1731655832.7363613,798.3336296999715,804.0310666812964,797.6654688318006,828.8196788511093
1731655832.7402575,820.6931656087879,804.7753662637843,793.3355251587616,843.3885166672267
1731655832.740549,828.4067510777646,805.6252932770386,789.454854496854,843.0297773099182
1731655832.7441542,814.6947707978311,806.8089288488136,788.506230591116,827.9072254098761
1731655832.745124,793.3356710609515,808.3681483502235,791.2271604895889,810.1550304354905
1731655832.7480507,786.1016910595001,809.9526686522833,796.2472163911234,803.7869133853244
1731655832.7519474,803.5221060673654,810.8719394416132,801.2062219302222,813.0901224221378
1731655832.7539334,835.2811489235767,810.325092800361,804.3371729451952,829.140472023148
1731655832.755844,858.2793018664026,807.7639413505083,805.3064844105285,837.3755471858815
1731655832.7561388,855.6601445903029,803.3316057201156,804.9074325078604,830.0744886768048
1731655832.7597404,830.9470280985528,798.1425417020783,804.1678095379433,813.3630304197171
1731655832.7636368,805.3294679091001,794.0240929708102,803.6889065961558,802.5945529304447
1731655832.7675333,800.1107952459776,792.5662041554558,803.5501661857319,809.5938212256366
1731655832.7714298,818.9240094637938,793.9585174523205,803.567962768528,832.3780408379941
1731655832.7717288,844.7516490942204,796.5978562744679,803.5638589100495,856.1422356267636
1731655832.7728078,854.3800429041677,798.1220167078251,803.4742782221997,864.6736356196513
1731655832.7753265,838.1829022634565,797.3344528706772,803.3251002831871,852.4065360322545
1731655832.779223,808.6193342938614,795.411647256869,803.1645937145524,827.2252011646748
1731655832.7800138,790.2416410319793,795.0615961601181,803.0205179128327,802.8428691415562
1731655832.7831194,799.3627238231497,798.0568289415764,802.894472642277,788.589182739144
1731655832.787016,830.1517958025439,803.3052243076139,802.7758062141335,785.1146768247972
1731655832.7873185,858.7597635900438,807.4568792516172,802.6552459984434,787.4190153936836
1731655832.7909124,862.3091594707652,807.7616502696716,802.5298947184857,790.2764508660639
1731655832.791682,837.2960930293347,804.5910925720686,802.4013943353056,791.2680757591969
1731655832.7948089,802.3077710231186,801.1798233126179,802.2723006739793,790.5753368115937
1731655832.798705,782.7852043678755,800.8009449561042,802.1439543091352,789.3458084056682
1731655832.8026018,790.327857991364,804.0943857814497,802.0163249488156,788.4128768303324
1731655832.8029082,813.4899881561821,808.9638407511287,801.8888013259862,787.9501258417079
1731655832.8064983,827.4740385565199,812.731146143716,801.7608939544313,787.7377739953632
1731655832.810395,814.6584636203954,814.1792726912876,801.6324613376285,787.5238692747175
1731655832.8105562,779.3611662898695,813.8244322893536,801.5035900131887,787.1999289936914
1731655832.8142917,745.2565031936924,812.8590999763112,801.3744007684113,786.7868840556704
1731655832.8149033,737.7097685098142,812.1268946676576,801.24494421378,786.3482067938716
1731655832.818188,764.7132480770814,811.8286909195497,801.1152000229514,785.9260007194248
1731655832.818498,810.7235832932911,811.7747471076666,800.9851212164594,785.5268867637889
1731655832.8220844,847.7544689005259,811.7296174761598,800.8546701472826,785.1381102716313
1731655832.825981,855.2241474699978,811.5865137815381,800.7238284431241,784.7465726989979
1731655832.8294303,833.6483887036561,811.3610651778805,800.5925895448481,784.3472275016561
1731655832.8298774,802.1009231233705,811.1118870454546,800.4609484232202,783.9416565049347
1731655832.833774,782.0460155390649,810.8794962042393,800.3288965073715,783.5333141054616
1731655832.8340878,780.8601646503458,810.6713362948327,800.1964220392539,783.1243133626441
1731655832.8376706,788.221021267164,810.4759974703431,800.0635125826124,782.7148901779498
1731655832.841567,787.4636393244773,810.281105578716,799.93015694235,782.3043609129644
1731655832.8454635,771.4358125667329,810.0816127924421,799.7963456358034,781.8921209699698
1731655832.8483047,749.1174328374922,809.8787829070883,799.6620703431867,781.4780146496896
1731655832.84936,737.7096461877189,809.675811146334,799.5273230650226,781.0621678178408
1731655832.8496776,747.3078604432625,809.4747342750541,799.3920955589305,780.6446791713245
1731655832.849793,771.2344447120803,809.275825991003,799.2563794876619,780.2254988473054
1731655832.8532565,790.3020535299155,809.0784384799791,799.120167516034,779.8046018421238
1731655832.8571527,787.937297516341,808.8819400189107,798.9834549564139,779.3823105939657
1731655832.8610494,764.0335991212287,808.686108194228,798.8462404615207,778.9594030050745
1731655832.864946,735.8173275408604,808.4910431002252,798.7085236559966,778.5366119779671
1731655832.8652675,724.263596295425,808.2969274043571,798.5702991519128,778.1135150287671
1731655832.867179,736.9117909219603,808.1038693242137,798.4315508335205,777.6876614738133
1731655832.8688426,761.697489608639,807.911879556323,798.2922550361262,777.2555216270525
1731655832.8727393,777.5219012796916,807.7209233278693,798.1523997709406,776.8162772390116
1731655832.8766356,772.8381578735316,807.5309776045365,798.012013330093,776.3766973899483
1731655832.880532,756.235090094953,807.3420575726522,797.8711731371504,775.9514475230368
1731655832.8808572,749.5776196823883,807.1542060728991,797.7299557748545,775.5523272232538
1731655832.8844285,769.1079466258401,806.9674535232317,797.5883227995099,775.1673995517311
1731655832.884683,810.1950058522367,806.781769356794,797.4460231414164,774.7469448450217
1731655832.886053,848.6430812671874,806.5970480886219,797.3026759601993,774.2257124053504
1731655832.888325,858.2379935256525,806.4131823163467,797.1581528747668,773.5972781795045
1731655832.8922217,831.1069286766212,806.2302276492521,797.013101039694,773.001553038801
1731655832.8961182,784.651828964724,806.0485443374644,796.8690334996511,772.7157324483653
1731655832.8964467,748.9079205423546,805.868682695705,796.7272814439327,772.9339297752193
1731655832.9000146,743.9094894694733,805.6908410432645,796.5868217381845,773.376056173502
1731655832.903911,765.2739956459842,805.5141170666966,796.4426459081991,773.0696533815587
1731655832.9049273,789.7566328703538,805.3363660692247,796.2877600442976,770.8563251928155
1731655832.9078076,795.8167364587365,805.155676860143,796.1207256358259,766.8633727575059
1731655832.911704,781.6777202641758,804.9734665253708,795.9551317690805,764.1296829700829
1731655832.912037,765.9155394822347,804.7968461477977,795.8197980512624,768.3745500661428
1731655832.9156003,770.7053222093332,804.6358615578449,795.7371389005156,784.2557353957565
1731655832.9194973,802.1769754350973,804.4928526795292,795.6822378247471,809.7658996316728
1731655832.9195724,844.1101962533897,804.3490395456681,795.5567413246625,834.2652539135395
1731655832.9233935,869.897623121017,804.1644474327384,795.2358122926332,844.3101836221851
1731655832.9238017,863.118950227323,803.9098717588456,794.7187438507991,834.0314610889968
1731655832.9272902,830.5217485386316,803.6296770294625,794.307767227927,811.105534908311
1731655832.9276266,797.176216854281,803.4935312686489,794.610890376554,792.2761940623845
1731655832.931187,787.3370907189831,803.7733085674812,796.1849087713673,791.3130688288901
1731655832.9350832,805.8368300862712,804.722737901618,798.9520478272733,808.9036150156618
1731655832.9389796,834.8199338461529,806.3996923582724,801.9276553916424,832.648423983011
1731655832.9426758,848.6506639966341,808.4933476151202,803.7272390275873,847.211980596563
1731655832.942876,835.0225166900549,810.2679809460976,803.6126677289245,846.3835402135354
1731655832.9432163,804.9904480854723,810.7962840263745,802.1851058285613,837.2353759707203
1731655832.9467728,783.6950588812809,809.4874810435844,801.0267134597553,833.1645667381148
1731655832.9506693,789.5317448183926,806.544531747399,801.5238003751278,841.8546949807579
1731655832.954462,818.997997673661,802.9015366794422,803.8637757959239,858.3049341041279
1731655832.9545658,849.6225436744842,799.6466505190916,807.0417774457756,868.739361599089
1731655832.9584622,858.4643342532538,797.4534416244612,809.7948205897909,862.217464408264
1731655832.9588065,840.9505532189387,796.495621771344,811.5776103472157,840.4478875971872
1731655832.96155,814.4935729192671,796.7493786911482,812.7274836310872,817.5461436212207
1731655832.9623587,803.6572079136394,798.1816392408658,813.7480506644966,809.313894233685
1731655832.9662552,818.935702631186,800.561358409145,814.436401186202,820.2087929596806
1731655832.9701517,847.0335381299269,803.1929407443686,813.7053376385796,838.7732078998358
1731655832.974048,861.425948877512,805.0427609232748,810.3383891569758,846.1274109063669
1731655832.974396,844.8123747194295,805.2943835988266,804.1096423619346,831.3914614678455
1731655832.9779449,804.4963842598572,803.8572777578044,796.3826947002339,801.45277418988
1731655832.9804242,767.447931279073,801.3677723863331,789.7014257962077,776.5011282310378
1731655832.981841,759.0616843534647,798.7091079250977,786.615931380375,774.4242123754462
1731655832.9857378,783.2186753840554,796.4782389886926,788.4614086538863,796.6005635790145
1731655832.9893515,819.6890717095392,794.7828063690479,794.7524773402259,826.6558889403531
1731655832.9896345,840.3342025181374,793.4263843871772,803.4314820123617,843.1819349549637
1731655832.989986,830.6678178880512,792.2745640584995,811.7559755720449,836.1516175047893
1731655832.9935308,799.8743483979498,791.5246172520444,817.3698861440286,814.0099151488704
1731655832.9974272,772.1930535759883,791.6823461252923,819.1171952147344,796.1588086138848
1731655832.9992986,767.3279310724366,793.2311139418853,817.3219469089499,797.2737108205231
1731655833.0013237,785.7231875812156,796.2023964900269,813.4637324498036,816.1137527098216
1731655833.0052204,810.0536836369662,799.9828479675889,809.4004672995603,837.4247787663872
1731655833.0055757,820.9019769012305,803.5751422341355,806.5137930630439,844.7819275782845
1731655833.009117,813.172232000606,806.1983635188597,805.2345465328539,833.6621713595239
1731655833.0130134,799.6501270916937,807.807857405234,805.1772960908753,814.4546200210665
1731655833.0169098,799.2178048368,809.1038063587235,805.6690894217107,803.6753589854121
1731655833.0181727,820.0545485320081,810.9454017065506,806.1937775100872,810.9573433177618
1731655833.0208063,851.9608297886159,813.562608877321,806.4687716578043,832.0255539462255
1731655833.0211654,874.0230426996601,816.1846709182429,806.3105369497141,852.4939487997957
1731655833.0242412,871.2326349968715,817.4536244862536,805.6315782268879,858.934005152056
1731655833.0247028,846.598666703883,816.394763808168,804.6517123843503,848.7016607103443
1731655833.0285993,819.0068700792971,813.2290582925898,804.0345374118713,831.4661058214847
1731655833.032496,808.5039272347915,809.3801601235764,804.6327773178704,821.6399328784869
1731655833.0363925,820.8763423135291,806.6579242482725,806.8971780146869,827.499583152058
1731655833.036755,844.0224168071761,806.2514018206751,810.3884080978563,845.1408675049338
1731655833.037047,858.8387334531351,808.2282065038418,813.8426801908992,861.7378257756917
1731655833.0402887,855.2553781245567,811.7019925904312,815.8570513056649,865.4602779013574
1731655833.0441854,839.9943571019363,815.3159141855855,815.7825773101529,854.2900923477044
1731655833.048082,829.923225467668,817.7030826135217,814.1980764776872,836.9226642218975
1731655833.0519783,837.0197990087178,817.9102683878706,812.5646098730061,825.2652028740282
1731655833.052345,857.6446419722068,815.8373791061064,812.2191444715639,824.7410241543691
1731655833.0558748,874.8669618037804,812.4607060406764,813.3772977163208,830.3069364325283
1731655833.0559213,871.8485200425071,809.4772232275659,814.8779135042507,831.3867818858512
1731655833.059131,845.6164225762858,808.3825961486807,814.9168907625339,821.5575898045695
1731655833.0597715,810.3723625974293,809.5514707846689,812.3010734093295,804.7409777592666
1731655833.063668,787.4947703257548,812.0139629253184,807.3342670484034,792.3641877477553
1731655833.0675645,789.6239506847825,814.1344264653223,801.6863288205211,793.6116011685797
1731655833.0679348,811.1653517619013,814.710703557451,797.3590209108664,807.2047869194927
1731655833.071461,833.0159658583118,813.7007340457745,795.5436034782954,822.2565080695371
1731655833.0747955,838.0838594845015,812.0877320540128,796.1812822558842,827.783266752299
1731655833.0753574,825.0300442153058,811.0561074249247,798.3945824662651,822.4124174919035
1731655833.079254,808.7044319492971,811.144273836372,801.2598888622099,815.371140474452
1731655833.0831504,806.7990839996922,811.9973721495332,804.2408091265785,817.7330515637833
1731655833.0835247,824.085367538424,812.8260135934373,807.0449606209532,831.8312029075827
1731655833.0870469,847.7904010118965,813.1132045845662,809.2317273753299,848.3982118386101
1731655833.0909436,858.1030183908365,812.9467150596721,810.0840782343051,854.0056080321177
1731655833.0936697,844.8344227710451,812.7144053883004,808.9543633789923,842.3344005893184
1731655833.0940206,816.1094636379335,812.4942941833064,805.8137185028548,819.6927158913514
1731655833.09484,791.7856136234075,811.7927693946982,801.5026398610031,800.2372433949789
1731655833.0987363,787.0874539016366,810.0039431621171,797.3879244769427,794.8835179540209
1731655833.0991144,800.1087104155189,807.2580931854138,794.6115707109012,802.9357826344681
1731655833.102633,813.7549940155093,804.8253659416049,793.485216821628,813.2218576029425
1731655833.1065297,810.7431771060212,804.4896365534825,793.5124961945811,813.7993279810868
1731655833.110426,789.087782646879,807.1894779525752,794.0095825740434,802.1649278402083
1731655833.1125438,764.6211822223685,811.9697412409269,794.7506713759656,787.283886681948
1731655833.1143224,757.8275741283883,816.184817732419,796.028360089814,781.5741640183844
1731655833.114704,775.8375194028139,816.9775604780518,798.1030851786329,789.7051694745024
1731655833.1182191,805.046663000073,813.0697622869385,800.6625439915141,804.0503563046407
1731655833.1221156,821.1532014500891,805.627462720646,802.9102808455822,810.9790947616206
1731655833.126012,808.7162484317467,797.6107583090097,804.2195933481253,802.6994868259354
1731655833.1289103,774.1933531774956,792.0814159488353,804.6749520171504,784.412311461882
1731655833.1299086,741.650141730937,790.6128414360461,804.9552058870503,770.4536552873902
1731655833.130294,734.3451788789934,792.7484449655203,805.7078395479178,772.437186856759
1731655833.1314182,756.6375040158596,796.6303530257571,807.037425271728,789.1965641068919
1731655833.133805,790.4561371808121,800.181679764621,808.5312553445483,807.0327691192971
1731655833.1377015,809.341392994735,802.0782238103436,809.6873674891386,810.5190068317564
1731655833.141598,799.2960895384865,802.108001042472,810.2994732119009,795.4175584519453
1731655833.1454947,769.8618890334131,800.9604553258849,810.498601392909,773.0497573758564
1731655833.1458838,746.1262958557762,799.7052949326662,810.4822290486143,761.9185794781378
1731655833.1493912,747.819465043778,799.218631849602,810.1721749997598,772.8019462064767
1731655833.1502924,772.7466637185589,799.7553925473755,809.083231252704,799.4039662258496
1731655833.1532876,798.6208894939692,800.840356224778,806.6039229843846,822.6371363715033
1731655833.157184,802.0324502256781,801.5798216747326,802.6411843041105,825.5866723075823
1731655833.1610806,778.7584863528056,801.2775839098152,798.1895068569717,807.2558001782339
1731655833.1614735,748.306929263365,799.9650690882329,795.1911275763078,783.8917546636694
1731655833.1638,738.5902787168849,798.416538760662,795.4559495377531,776.5835433832327
1731655833.1649773,763.0310094352234,797.5778227820027,799.2720294103342,794.809981133275
1731655833.1688735,808.769096254224,797.8417060177536,804.867084466756,828.8447500014532
1731655833.1691666,845.8869000901587,798.7749157351018,809.3762409607843,856.9516577715846
1731655833.1727705,850.6595801851556,799.5300141109633,810.7052164930727,861.733683507705
1731655833.1766667,824.2539407502327,799.5752717501887,808.8155828361279,842.8935490168084
1731655833.1770637,791.5944011690943,799.1043379367273,805.4034987751172,816.5728208855854
1731655833.1805632,781.0854475365836,798.8059364673965,802.3417006164626,802.0979992874353
1731655833.1844597,801.6545304471967,799.2764911271598,800.3003214277057,806.9023674898834
1731655833.1880407,835.9104788344066,800.6495681976195,798.6911109490144,821.6090639755427
1731655833.1883562,854.8995277091096,802.7058370423401,796.7857950727391,828.8172883870675
1731655833.1922526,842.1048069008473,805.1700887447819,794.7755139679501,818.0172568870566
1731655833.1926532,806.963927738025,807.7483748994665,793.6763142661165,794.3650924428947
1731655833.196149,777.1971894403364,809.9015734658974,794.1992025007663,774.4082982645407
1731655833.1986897,776.6679104976627,810.8303025205213,795.7980056366385,772.5863603096723
1731655833.2000456,806.7800674631836,809.9831695064578,796.9671370013481,789.6008859718272
1731655833.2039423,845.8752248709142,807.6977407206067,796.5841880015207,811.9072452808555
1731655833.2069151,866.4306466225992,805.2050032888818,794.9667235539476,822.4646466104757
1731655833.2078388,856.0858921834136,803.7576413822753,793.5272877976987,813.9257420994556
1731655833.208243,826.0617736201654,803.5858041651859,793.3020170216903,793.681232465435
1731655833.2117352,800.8143409067771,803.6806865136166,793.8074158004442,776.9150376854091
1731655833.2156315,797.7181744584124,802.6725979853388,793.4359448489492,773.6938428856539
1731655833.2195282,813.4988124942779,800.051229026488,791.1307094212152,781.0511017927385
1731655833.223425,828.4382839718747,796.6896668900777,787.7937319190851,786.7293855849018
1731655833.2238328,824.4163805073041,794.2851891281388,786.0180841881529,781.1572171627753
1731655833.2257893,801.1797009909444,794.2203460846388,788.1813716155357,767.037510455923
1731655833.2273211,776.9336182732723,796.704180315167,794.397826678608,757.9451157870145
1731655833.231218,772.8588430322143,800.722920348802,802.0321833642009,766.7976128712613
1731655833.2335792,794.731785193239,804.7160849147817,807.2682407795488,793.7955829199296
1731655833.2351143,827.1407157044314,807.462582547112,807.604011488388,824.1301876358792
1731655833.2390108,845.2981206295399,808.6129467586817,803.4323046023183,837.9795712699417
1731655833.2394226,834.96767114339,808.6045625492739,797.6183220503955,825.3860501612935
1731655833.2429073,804.2436568256674,808.1524643889387,793.5360003014681,794.3941463195192
1731655833.2446637,777.3055863001729,807.7682675877027,793.069905832647,765.7357664620619
1731655833.2468038,774.8836397397889,807.6051863575515,795.8657882833263,757.7477559962407
1731655833.2507002,797.3073726362586,807.5824807855945,800.0121465434049,773.045662293934
1731655833.2545967,824.2720351442006,807.5744418017897,803.3803159389191,797.3343274218131
1731655833.2550125,831.7429374218027,807.5162458274121,804.6862824167353,811.143314029524
1731655833.2584934,812.0047032889757,807.410281514731,803.8077399920311,804.9098076825707
1731655833.26239,780.1719688058671,807.2865060864713,801.4510285499885,785.4155030512851
1731655833.2635376,761.9121409028976,807.1680608954343,798.5603021523183,769.1091236451584
1731655833.2662864,772.7166593680729,807.0607125698563,795.8644434038988,768.6085294363525
1731655833.2684689,805.6068189600127,806.95915867867,793.7613569983725,783.5247408928154
1731655833.2701828,836.8396827062492,806.8566507264121,792.4661143982099,802.3064899948704
1731655833.2706022,844.6709362535323,806.7500330230735,792.1805139119855,812.6106221561406
1731655833.274079,826.1725758385203,806.6396635642664,793.1157217045763,811.3428701391185
1731655833.2779758,798.9428781570447,806.5271846671137,795.4115176170618,806.4119065257419
1731655833.2818725,786.5895678273025,806.4137623610801,799.0703084107116,809.1356051237526
1731655833.282412,799.736780370469,806.2996275221943,803.8920192511606,823.7481909803058
1731655833.285769,827.7865500349833,806.18446373249,809.325745543547,842.8637313980482
1731655833.286192,847.8383742700953,806.0679172955465,814.3437678312977,853.0058562374361
1731655833.2896657,843.2528925929847,805.9498410048894,817.6399884686051,845.9112499426154
1731655833.293562,816.8212682222425,805.8302697088736,818.2600919916307,826.1106787294484
1731655833.2974584,788.3168696160722,805.7092933283275,816.2740657844047,808.0283501814239
1731655833.3012862,778.9299734183676,805.586963761574,812.8812164450269,804.6156175000522
1731655833.301355,795.1492414015672,805.4632778361854,809.7410605377562,816.8609457650562
1731655833.3017817,824.4017513184456,805.3382130051791,807.9942195297991,832.925552487805
1731655833.3033586,845.21138246917,805.2117733142563,807.7125393972534,837.6833987385621
1731655833.3052514,843.6126811857434,805.0840077250084,808.1497813140846,824.9524524222805
1731655833.3091478,823.1645586315858,804.9549758105599,808.5163136302154,802.5900906362281
1731655833.3130443,801.0572340024581,804.8246651566427,808.6272927337819,786.3445460366382
1731655833.316941,793.6754849557159,804.6929195435657,808.9370377601958,787.3196261960926
1731655833.3173716,803.4044998844216,804.5594886408088,810.0021970901249,803.122767120556
1731655833.3201604,817.5436805299979,804.4242804253536,811.8824274234738,819.9759063226878
1731655833.3208375,820.1584667335086,804.2877154969883,814.0116841240136,824.227253905193
1731655833.324734,806.661924234333,804.1508044569855,815.6263681977911,813.853166046354
1731655833.3286304,788.4270940555278,804.0144705599677,816.3177782073087,800.3104207189765
1731655833.3325267,783.2345169165644,803.8781023321096,816.197806137189,798.9937792074859
1731655833.332961,799.5959953879254,803.7384188429241,815.6151579214978,816.0909833726794
1731655833.3364234,828.3226502876817,803.5907115919478,814.8316976238074,842.6964404436977
1731655833.3382485,848.6809759879698,803.433810341214,814.0212786970723,861.077782099889
1731655833.3390346,844.4790214320237,803.2764951335682,813.4741824939057,858.1465129873293
1731655833.34032,817.3137935767784,803.1379556552292,813.5967680653654,835.5236620184996
1731655833.3442166,786.1647274466266,803.0337455351888,814.5544400732275,808.3321631578596
1731655833.3481133,773.0082473964416,802.948444197813,815.8937624190323,793.6422236764055
1731655833.348551,785.4107386626634,802.8172450632327,816.6143328918405,797.6390972029196
1731655833.3520095,810.2557795876077,802.5554159335198,815.7787673877501,811.7448232417275
1731655833.355906,824.4272594356081,802.1573541696093,813.2292245929456,820.816577508138
1731655833.357909,814.269571233725,801.8167751536405,809.8129538648346,816.5376105284738
1731655833.3598025,787.6163524311453,801.9312396670078,806.8698269534226,804.5527072256571
1731655833.363699,767.7303632389008,802.8614312998845,805.3319281699501,799.0620169873465
1731655833.364141,773.688526657005,804.523929458982,805.1355000165428,809.4362666208641
1731655833.3675954,803.6559872176738,806.1789206133286,805.4119872105136,830.5872298524397
1731655833.371492,835.4663891454783,806.7584432098237,805.2634722280358,845.8321564440643
1731655833.373138,844.3780134645596,805.6207920709738,804.43340194693,840.2665999267448
1731655833.3753886,823.285660845608,803.1350714917504,803.3380344611516,813.5455191284656
1731655833.3767831,788.5269811150453,800.5504699782007,802.5583574120388,781.3091465241679
1731655833.379285,766.4320522589942,799.2038773408578,802.3416522730678,763.816173146809
1731655833.3797307,771.7778536318004,799.6962131933317,802.5151102232081,770.7548937929984
1731655833.3831816,796.0545038324334,801.6573864625716,802.7433922139036,794.269654374766
1731655833.387078,815.294359414223,804.159276757959,802.8047396624158,815.6391809796114
1731655833.3909743,810.7715558980066,806.3165126031525,802.6755397237416,820.090539038133
1731655833.394871,784.9666216802806,807.6208863352301,802.4487405545339,807.7665170908631
1731655833.3953204,759.3093146898169,807.9553423127124,802.2192802673993,792.2427259606796
1731655833.3956573,755.8654656979259,807.5079703971095,802.0275576386709,788.3923619728265
1731655833.3987677,778.6399120178777,806.7007947422213,801.8665567011931,799.9860170177005
1731655833.4026642,810.0648123651677,806.0326854042087,801.7136720280615,817.0873949558999
1731655833.406561,825.2546511936958,805.7821799986045,801.5538481639172,824.8108422298603
1731655833.4080274,812.0915562709689,805.7782105027892,801.3847168242025,815.7847954893629
1731655833.4104571,780.8878408232224,805.5268859031825,801.2108480023045,796.1383371521426
1731655833.4109104,756.0970163404755,804.6798149624702,801.0369340957994,780.4844194258459
1731655833.4143536,756.8794638146777,803.4412731000763,800.8647807107029,780.2322412309181
1731655833.4145317,781.9891629340782,802.4936418311606,800.693816027269,794.6230238629582
1731655833.41825,810.9374683213649,802.4443212348477,800.5227949534831,811.5090904254458
1731655833.4221466,820.5360544470576,803.2635169339969,800.3509522666839,817.1535194947367
1731655833.4260433,803.6373916553825,804.2432764321467,800.1781985254805,807.2146933587422
1731655833.4265,774.9237950912368,804.587260516186,800.0047822175776,790.1374051756059
1731655833.4299395,758.9034336889376,804.1729653565551,799.8309336037488,780.249762798724
1731655833.433406,769.8086437685822,803.7921661334793,799.65672312724,786.1680169899216
1731655833.4338362,799.87448209137,804.5390611343121,799.4821003098428,803.8815744946352
1731655833.4377327,825.6589292295998,806.7644181846167,799.3069857978127,820.0345485529695
1731655833.4416292,827.1830531909502,809.5049337108553,799.1313290131195,822.6330336109037
1731655833.4420898,804.1008775752259,810.9940700561907,798.955115817648,810.4647827857424
1731655833.442917,775.644775259348,809.9445281815522,798.7783508172182,793.685929808338
1731655833.4455256,764.5612040874206,806.5901579395036,798.6010396451393,785.2700039643562
1731655833.449422,778.4348550016025,802.6436438918042,798.42317986307,790.4361475810118
1731655833.45228,803.8499909285574,800.1952154914766,798.2447571006803,802.7913577698297
1731655833.4533186,818.1553673598613,800.3780454246654,798.065743784382,810.3865106799907
1731655833.4572153,808.9777706710358,802.7479808438961,797.886105556198,806.5850724519254
1731655833.4576795,785.095773631846,805.7636434814356,797.7058226561281,796.3871589718891
1731655833.4611118,769.3780816512185,807.9664158008379,797.5249202768958,792.4535622495231
1731655833.4650085,779.5178355321182,808.9839055641465,797.3434771439312,803.8608093397504
1731655833.4689047,812.6759693013656,809.6226848269981,797.1615699066017,827.1545120300351
1731655833.4711542,846.9689965984746,810.991900403363,796.979147551718,847.6685826261976
1731655833.4728012,858.6668850863408,813.3407281102986,796.7959248451697,850.5108282375231
1731655833.4732697,841.0050617006466,815.532934785352,796.6114749981266,832.4419651165464
1731655833.4766977,809.3912091541278,815.6127333590995,796.4256514866977,805.0010629696757
1731655833.4778068,788.9851473436036,812.1032188241062,796.2391627310442,786.1990201926346
1731655833.4805942,794.7551103459891,805.1565651041278,796.0536670649542,787.1467882593616
1731655833.4844909,819.9866491772372,796.7958932112886,795.8706135304725,804.0150604555926
1731655833.488387,842.3851262033211,790.0776031590106,795.688849864906,821.6299916637979
1731655833.4888592,842.746395947837,787.6166466269294,795.502839612646,825.8442550694124
1731655833.4900284,820.9062096262246,790.2447762221111,795.3048884102618,814.7109443152005
1731655833.4922838,795.7787494367104,796.5364592603718,795.0934622074146,799.3252344459619
1731655833.4961803,789.3512927221917,803.5370169223568,794.8835888583076,793.6650917080312
1731655833.5000768,807.8868720549723,808.3363675476039,794.7069934417354,802.0377104896087
1731655833.5039732,836.073405293708,809.5198513216567,794.5881748802968,814.9179267476441
1731655833.5044491,849.1989615741162,807.5608939706902,794.4993567464977,816.9345038365797
1731655833.5078695,833.4845851726596,804.0280001014488,794.3319922282758,800.3764951540961
1731655833.5089028,797.9295945871813,800.3880697853949,793.9488716490056,772.7636031398611
1731655833.5117664,767.8992774599599,797.3483033774307,793.350054191723,751.8825230873782
1731655833.5126965,765.4167837481641,795.0137855278721,792.8687019219667,752.0662492170908
1731655833.515663,791.8370837924845,793.3959512626154,793.1711814558473,772.7438571391432
1731655833.5195594,826.8259128923494,792.6804305025278,794.8590483914005,798.5828885832439
1731655833.5200388,844.6131429415312,793.1021402821681,797.8256979592604,811.3191055858207
1731655833.523456,834.4564715631988,794.705541959016,800.9801691968581,803.9453585573451
1731655833.5273523,808.5979322721117,797.275740652535,802.8765758218688,785.8583181503369
1731655833.527777,791.1968635919453,800.4334078079082,802.9496379485979,774.7333817914528
1731655833.5312488,797.5974814352111,803.709578229578,802.2421653214825,781.7435779795513
1731655833.5351453,821.3792027379275,806.5503526334695,802.7340418548563,802.3297372806064
1731655833.5356288,839.9690985280646,808.4092099531874,805.6261953277594,820.1746283407308
1731655833.539042,833.9684957251054,809.0283062365835,810.044158703468,820.9957975379788
1731655833.5429385,804.0674489110428,808.7175675076539,813.4456366965145,804.5970040710866
1731655833.5466511,771.628854244964,808.2944096218115,813.5700644409413,785.1993887882651
1731655833.5468347,762.37130648197,808.5934073549126,810.3425123581895,779.8758070005522
1731655833.5475862,786.0383062283732,809.872362842553,806.0943216562011,794.6101810217459
1731655833.5507314,828.1073279421621,811.5897230445577,803.8834840294219,819.2896093712469
1731655833.5512185,860.3321380897414,812.7425421078732,805.3047799883334,835.6776362835333
1731655833.554628,862.2693936061157,812.4994981706159,809.5284938198358,832.0028640298272
1731655833.5585244,836.968627973673,810.6549618122316,814.1504239023568,812.4121945358178
1731655833.5624208,808.0703116113635,807.6414875256112,816.9140267803817,793.571062905962
1731655833.5655253,800.3199828407588,804.2407922960158,816.8631459528418,791.1488076156993
1731655833.566317,819.3619784793318,801.3128875047305,814.303656486545,807.2748384019793
1731655833.5668082,847.5969290287434,799.6617151553995,810.1179705088515,829.1660836076276
1731655833.570214,859.4373578291634,799.8745489398501,805.3200031984392,839.7439651696614
1731655833.5741105,842.8954511408549,802.0145984688187,801.0917581988676,831.2739189877054
1731655833.578007,809.388634487462,805.3790703244313,798.7904144497373,811.0363605610702
1731655833.5819037,784.0879627152062,808.6918677559146,799.4377926598034,794.9834415699806
1731655833.5823982,785.5055061861432,810.7783505767959,802.9245401575807,795.0240968077769
1731655833.5824757,811.2303286581061,811.2587828967718,807.7064530624182,810.1384784849192
1731655833.5843997,840.7447717621403,810.6749958038748,811.485642402171,827.9030760854384
1731655833.5858,852.1908509819531,809.9309238846513,812.5137190142889,834.706277481766
1731655833.5896964,839.3676276998658,809.5534005205567,810.5769569058166,826.4373361979601
1731655833.593593,815.6931260636366,809.4327596575496,806.9709965509521,811.3098154744378
1731655833.5974896,802.3948253413203,809.2038849322573,803.5779706575255,802.6744617864949
1731655833.597988,810.7173760915325,808.7806192501798,801.7706657824756,807.6672795431545
1731655833.601386,832.7550528994351,808.4541058974543,801.8231770322913,821.1238098497527
1731655833.603274,848.4939781539532,808.5161479838727,803.0173703882228,830.0842848154542
1731655833.6052823,843.1994111013175,808.9238686659979,804.2143524913591,825.3341713361298
1731655833.609179,820.5605263574892,809.4267680852083,804.5346260802932,810.1502748954202
1731655833.6130755,800.4654603762931,809.9707071899727,803.8229910881761,798.3982218278434
1731655833.6135776,803.0434238218875,810.8323153857862,802.6556146047254,803.0395847889067
1731655833.616972,831.9263716072967,812.2577652721723,801.8612995652179,824.4829888238636
1731655833.6173654,870.2740602838918,813.988975058439,801.8745598865263,848.8119289304707
1731655833.6208684,892.8438557986332,815.2440316167623,802.4289895416825,858.0223517373852
1731655833.622148,884.7495113286142,815.27104438148,802.8553055569987,844.4060585960762
1731655833.6247652,852.3662548432534,814.0006979255053,802.7114113587188,817.3363503105602
1731655833.6286616,817.9538676704211,812.1921478929827,802.1507595927771,796.4253367668622
1731655833.6291676,802.3603753634562,810.9148683892997,801.6782988042704,796.1424207871249
1731655833.632558,809.6949143884808,810.7960414587699,801.5389271914645,814.4470514560434
1731655833.6364546,826.1034214846982,811.6516487374652,801.3493941314564,834.9852172479826
1731655833.6403513,832.7212564613023,812.7570389352046,800.3538839543961,840.8118176638708
1731655833.6410222,820.8971944859995,813.4485949391703,798.0801283314065,827.4929362282315
1731655833.6442475,796.8871578296851,813.5201037139439,794.7901886885179,804.4802118334214
1731655833.6447573,774.0007591037335,813.1730683855783,791.3283123905219,785.2404395382259
1731655833.648144,761.4285522448547,812.7182802122502,788.5529006048404,776.8071119720898
1731655833.6520407,759.5858011287048,812.3448419057847,786.9175520180875,777.5062539199866
1731655833.6522553,763.3090304086919,812.0798885104826,786.5547110949223,781.7109664776787
1731655833.6559372,767.3930568784667,811.8667397314597,787.6224002783613,785.0739518020134
1731655833.6598337,769.5359961037916,811.6489968773733,790.3362139678569,786.3396714443842
1731655833.6598966,770.0145431518146,811.4059071324158,794.460106788089,786.3093023079373
1731655833.660347,770.0058795513489,811.145093776841,798.771705826419,786.1490653030864
1731655833.66373,770.3273542493516,810.8816366664701,801.3131112949264,786.4474681841458
1731655833.6676266,771.1272805066891,810.6244001528428,800.5953841765759,787.1751076545503
1731655833.671523,772.1725633597412,810.37403294033,796.8743296531054,788.0547971895888
1731655833.6754196,773.2114558784624,810.1272391493985,792.2856266661262,788.8759065945861
1731655833.6759367,774.1413983316689,809.8810776895689,789.5156719705723,789.5880242214356
1731655833.6787708,774.9880280933759,809.6345879057995,789.9976403400456,790.2411497557025
1731655833.679316,775.8160836975322,809.3882504035981,793.0671369981835,790.8972611209039
1731655833.6832128,776.6666866197291,809.142854336587,796.6734308590794,791.5848232062816
1731655833.6871092,777.5451431292448,808.8988173584273,798.9572010332329,792.3001751937089
1731655833.6871448,778.438080728194,808.6561250714719,799.4209228980093,793.0281995234577
1731655833.6910057,779.3324852898866,808.4145745977205,798.9152685452995,793.7583635789458
1731655833.691527,780.2236599583969,808.1739966945595,798.6866223067982,794.4887489598319
1731655833.6949022,781.113449321148,807.9343298842798,799.402331745208,795.2223998488056
1731655833.6976447,782.0053889512101,807.6955846764855,800.9174531372562,795.9626515670342
1731655833.698799,782.9015641638645,807.4577829122117,802.7966446385685,796.7109396584665
1731655833.7026951,783.80216627008,807.2209243032077,804.9451198983214,797.4670441410253
1731655833.7065916,784.7064856234899,806.9849855498479,807.6969034587927,798.2302278367184
1731655833.7071164,785.613901711557,806.7499340273521,811.3122197888915,799.000047648381
1731655833.7104883,786.5242531019848,806.5157392718759,815.4418880895028,799.7765181477852
1731655833.7143848,787.4377093401203,806.2823765015297,819.1382164677669,800.5598943359987
1731655833.716519,788.3545087255367,806.0498246229213,821.4364363883002,801.3504264668377
1731655833.7182813,789.2748029134212,805.8180629742914,821.9744073709387,802.1482565514542
1731655833.7220345,790.198645911537,805.5870690704447,821.1054750880969,802.9534412776608
1731655833.7221775,791.1260531370204,805.3568176159956,819.4678070175727,803.7660153371877
1731655833.7227063,792.0570525574423,805.1272807748695,817.4823915301868,804.5860312627397
1731655833.7260742,792.9916957394865,804.8984303420219,815.2773399617599,805.4135608988648
1731655833.7299707,793.9300384985962,804.6702420470255,813.0687915729484,806.248676086335
1731655833.7338672,794.8721198377148,804.4426995512549,811.5121014701568,807.0914339648926
1731655833.7353935,795.8179664770191,804.2157923719384,811.480398613304,807.9418840277835
1731655833.737764,796.7676318929767,803.9895026564318,813.2647468833891,808.8000964343667
1731655833.738296,797.7212444626722,803.7637850425469,815.8865897147355,809.6661876526457
1731655833.7416604,798.6790030800333,803.5385595903559,817.3493169298447,810.540301937052
1731655833.7455568,799.6410601025526,803.3137454138846,815.9167661617287,811.42252109956
1731655833.7494533,800.607316437444,803.0893401989412,811.4747710809903,812.3127421722336
1731655833.7533498,801.5773120035191,802.8654909697532,805.7706673413552,813.2106592490247
1731655833.7538855,802.5504970450902,802.6424416794965,801.2430437499356,814.1160133595405
1731655833.7542677,803.5269940157026,802.4202704458176,799.410460335078,815.0291015956785
1731655833.7569242,804.50839243986,802.198519390336,800.1234163363703,815.951148675571
1731655833.7572465,805.4974647855221,801.9761127444044,802.1082346987278,816.8838182555916
1731655833.7611427,806.4957851770183,801.7520646971581,804.1061601122368,817.8274334013307
1731655833.7650394,807.4999307913276,801.526995642617,805.6131085306554,818.7787808773844
1731655833.768936,808.4999078285839,801.3043250538843,806.8273178884444,819.7311390453876
1731655833.7694757,809.4850410653935,801.0889779231991,808.1330462173288,820.6794383929404
1731655833.7728324,810.4586658858084,800.8821867269911,809.6559600462264,821.6298613309482
1731655833.773142,811.4519415657354,800.6747653487224,811.1760050674545,822.6058147543491
1731655833.7767289,812.515539184166,800.446604026111,812.364171261643,823.6367810688
1731655833.780625,813.6719354884808,800.1813669792324,813.1252481659342,824.7235415350201
1731655833.7845218,814.8453997432244,799.8951785113832,813.7744323320406,825.7989804708623
1731655833.7850654,815.8418433739242,799.6561060411595,814.8597168014163,826.7355772905635
1731655833.7884183,816.4739179708841,799.5537650837551,816.6849026705895,827.4505989757929
1731655833.7918136,816.8420259625524,799.5966218685066,818.8642615542801,828.0855883287786
1731655833.792016,817.5690767733435,799.5890053406692,820.3060842060102,829.0975061599655
1731655833.7923148,819.5848677444374,799.135493238578,819.7550780994708,831.0109888208553
1731655833.7962115,823.1714841267409,797.9223235097822,816.5848689385291,833.7397003547019
1731655833.800108,826.6629437694941,796.1944250391424,811.2743074142717,835.8836537357408
1731655833.8006551,826.1871059719819,794.9607124680201,805.1785831983956,834.9673057660926
1731655833.8040044,818.0733726172896,795.4488092299064,799.726614840493,829.4439939566047
1731655833.807901,803.5493737219037,798.0745141112083,795.6352075903748,821.6613216021217
1731655833.8108904,791.4546125673168,801.930430652626,792.732745507406,818.5280482282376
1731655833.8117974,793.6796128153702,805.4028359320392,790.489016497705,826.8210835105666
1731655833.815694,814.5386967849703,807.33795311131,788.73854271549,845.4680851976855
1731655833.8162453,843.8372509634997,807.6673678792533,787.9002117437262,862.723640573498
1731655833.8195903,862.2998948620613,807.0975593332913,788.462678841396,863.4625059857309
1731655833.823487,856.4224326483873,806.3944050274209,790.2456883647666,841.8054172714451
1731655833.8267033,830.0810022497209,805.937969464002,792.2329575005746,807.8361445781921
1731655833.8273835,802.3931080235482,805.7268479066955,793.2389932002122,781.5347953420273
1731655833.8297646,793.0170225313385,805.603642462595,792.8009375341408,778.1190795727057
1731655833.83128,806.7768003397365,805.4445538472526,791.4010020852749,796.5700263742201
1731655833.8318348,830.2653321563768,805.218321378268,789.804599050532,820.72535655472
1731655833.8351765,843.3429675786219,804.9532297576834,788.2730718993171,832.1392343789389
1731655833.8390727,836.0708618831696,804.6855578296808,786.5931337518463,824.3620701018529
1731655833.8429694,816.8123924610998,804.4323726328928,784.9530458243872,807.1841990182827
1731655833.846866,804.4618767861616,804.1918228877897,784.6146252719351,797.6867887506504
1731655833.8474245,811.3702106043003,803.9550807449352,787.3292122120289,805.7860171281666
1731655833.8486388,831.8091348657065,803.7158324896895,793.7006813369535,826.2177495885444
1731655833.8507626,846.2396712144557,803.4727869524731,801.9796632516279,843.1799317458314
1731655833.8546593,838.0630157641965,803.227615910193,808.6633607934855,843.350012042345
1731655833.8585556,808.7447890164143,802.982218041951,810.7066148806072,826.5858995111328
1731655833.861593,778.3826355155188,802.7374014725049,807.5945449413902,806.0535476910972
1731655833.862452,770.7261330307127,802.4929988413245,801.5519024201649,798.1062907375117
1731655833.8630145,794.3735753804774,802.2485260448952,795.7984732325808,809.9272195197416
1731655833.8663485,835.1709069791408,802.0036637186038,792.4239870136823,834.2181184118875
1731655833.8675127,866.2412330657658,801.7583632918061,791.5796418880108,854.7277048182079
1731655833.870245,868.2359621524249,801.5127268817611,792.2816010656312,858.3820505838429
1731655833.8741417,843.9860206162384,801.2668640287259,793.6763185292455,844.8489463625693
1731655833.8780382,815.67204653914,801.0208226909076,795.4989979809276,826.1930435545737
1731655833.8786042,806.5081528594566,800.7745876478997,797.5875311191547,816.9546036929744
1731655833.8819346,821.7957777155059,800.5281069149801,799.3762488179157,822.7570651057829
1731655833.885831,844.9804101675032,800.2813277508417,800.1739990962386,836.7431662833335
1731655833.886387,851.8867784515477,800.0342451650216,799.974745571789,846.3604739051754
1731655833.8897276,831.1759509267243,799.786950590161,799.8089603178623,844.2000903981439
1731655833.893624,794.18160470127,799.5396253748942,801.0575125275841,833.598101333267
1731655833.894194,766.3514214606048,799.2924096903433,804.2479014750282,824.7805505831168
1731655833.8964827,767.4227658193519,799.0451610393472,808.4446353825949,825.4521585801588
1731655833.8975203,796.0801759345323,798.7973004469864,811.8244520664142,833.9516156242266
1731655833.901417,830.9886457017732,798.5480857353277,812.9476815106517,840.5774985522495
1731655833.9052615,847.2961495843563,798.2974835470225,811.6584892700081,835.9904976099106
1731655833.9053135,835.6997974589448,798.0471688325515,808.9588907953436,819.8546546539834
1731655833.9092102,809.0266019766885,797.8003685915803,806.1303003904961,802.3034018994372
1731655833.9097838,791.0169604427313,797.5592434914148,803.9377973116237,796.2233003602794
1731655833.913107,796.402206522122,797.3203470162089,802.5050406355241,806.0975296267884
1731655833.9170032,818.705284106516,797.0722127433811,801.7344164003053,822.8894912383952
1731655833.9208996,835.8917282671589,796.8014006443483,801.6875928388062,830.1777819406208
1731655833.9241357,829.0705710938797,796.5094359239907,802.5281975104979,817.3250252418936
1731655833.924796,798.6174607599957,796.2304711775743,804.1844439879245,788.9758193971467
1731655833.9253736,764.4749500208486,796.0249722193611,806.1959840571744,762.6485141564295
1731655833.9286926,750.5564140119141,795.9268508949219,807.9627932799733,755.7561658062158
1731655833.9313724,765.9590836760608,795.8592969386375,809.136454328073,772.0711053073051
1731655833.9325893,797.9752234618632,795.600614343237,809.748476016781,798.3769964052346
1731655833.9364858,822.3406954959873,794.9175124085755,810.0034523371838,814.2685009983013
1731655833.9403822,822.4580175912259,793.8986947568086,810.0469363974123,807.7549172085295
1731655833.9409633,802.157433800743,793.2832735207996,809.979893540314,784.488338808938
1731655833.94301,781.6835070980748,794.3420645367718,810.0090670575089,763.1278221079579
1731655833.9442787,780.2246842135685,798.0214376386944,810.4125271257612,760.3000496827873
1731655833.9481752,799.522339391165,803.8299154476763,811.2542164103209,777.2250719420811
1731655833.9520717,822.4187176590902,809.6432389354466,812.1793971962373,799.0295877762411
1731655833.955968,827.7608687767445,813.0207719738189,812.623545587828,807.3975334791699
1731655833.9565532,809.1587467754229,813.0450387813073,812.3098883587427,795.97251969503
1731655833.9598646,781.6381875528515,811.0170578130643,811.5325160888087,775.5865312454094
1731655833.9618845,770.2646784932301,809.4037706018094,810.9028637264611,765.1280708930185
1731655833.963761,789.7574599653709,809.9657969543647,810.79034351319,775.9713114176625
1731655833.966262,831.5465722831401,812.524855589472,810.9888000429502,802.8655830796083
1731655833.9676578,868.9103081634662,815.184572348869,810.8889989215162,828.2701843071677
1731655833.9715545,876.6218723149864,815.7461653648978,809.9611800766542,835.971247794438
1731655833.9721427,849.9477391489199,813.3207077301071,808.1401937530698,822.7981811586135
1731655833.9754508,807.928473955745,809.0642107497098,805.8654269558178,799.5497450071324
1731655833.9793472,778.1004908815835,805.5194073388764,803.805486418134,781.3187501311469
1731655833.9807584,774.9259468487857,804.9558364492767,802.4698920541884,775.6968260101917
1731655833.9832437,789.639363523942,807.8306800927764,801.9530115027534,778.3839178490418
1731655833.9871402,799.7442040556193,812.481989530336,801.9915828255189,779.092179566108
1731655833.9877326,789.6609087637286,816.2966686704007,802.3210430403714,772.0125920389734
1731655833.991037,764.6153182403608,817.4735360773309,803.0502382101524,761.6138851897144
1731655833.9949334,746.069811546101,816.0488285833314,804.6689571740981,758.8864121209838
1731655833.9988298,753.0945664277191,813.4946462526676,807.5500720273232,771.4359830002627
1731655833.9996326,785.753536456116,811.4127102202928,811.2878768338506,795.9730566007087
1731655834.0011516,824.2263856965261,810.5080359620084,814.5114246003338,819.6047147209613
1731655834.0027263,843.9989119796688,810.5280880627512,815.5659369987422,829.0704806099657
1731655834.0033226,834.6369939149143,810.8565899761843,813.7404784292437,820.7251563903993
1731655834.0066228,807.3064391741447,811.0588746905072,810.0970271778006,803.4677974084475
1731655834.0105193,785.4354367534459,811.0346177422211,807.0605145608117,792.1965784763615
1731655834.0144155,786.253560735312,810.8849156114413,806.845379501072,796.656681119313
1731655834.0183125,807.9731754805018,810.7326588717758,809.8164184237497,814.196063184734
1731655834.018507,832.5056994571067,810.6327987033544,814.0752889303759,831.9662903689591
1731655834.0189123,840.8339635474175,810.5765827587026,816.6770043077332,836.7356265638879
1731655834.0222087,828.1574685608514,810.5332949136192,815.6272606754561,824.643740563331
1731655834.0261054,806.8223449619684,810.4819568283327,811.2107907810905,803.5447793374749
1731655834.030002,795.4946292024681,810.41888136232,805.7074819234049,786.5602712501266
1731655834.0338984,803.967978923545,810.3501186719097,801.7578630561054,782.2156854276283
1731655834.034502,825.7652116273392,810.2821260486501,800.6215352820677,788.8850834283353
1731655834.0360413,843.8874189804882,810.2175031874929,801.5788666502082,797.5951049362474
1731655834.0373812,844.6795318485359,810.1555691725923,802.7719724019573,800.4959897446286
1731655834.0377948,828.7531602732016,810.0946599702661,802.667644678965,797.7604091329368
1731655834.0416913,810.3514590013008,810.0337298718969,800.961389268424,796.9958735573008
1731655834.0455878,805.557961261434,809.9726530529624,798.3582639542186,805.6221894785983
1731655834.0494845,818.7992400424475,809.9117778307959,795.6591646156096,822.9469786691722
1731655834.050092,838.968236185499,809.85143807797,793.0809418624981,839.2875476661402
1731655834.053381,848.8847902016623,809.791751574545,790.366243757728,843.4575428418426
1731655834.056255,840.4074885835905,809.7326681631952,787.4135114543865,832.402124376103
1731655834.0572774,822.1640422029483,809.6740959067463,784.6844770014612,814.5570557866578
1731655834.061174,812.7604240817061,809.6159821888758,782.9425318147573,803.7059568599433
1731655834.0650704,824.7323571591096,809.558323552099,782.5844651934145,808.1366367534523
1731655834.0656817,852.7197646220392,809.5011359031828,783.2252955996992,823.8690618942401
1731655834.0689669,876.2145341293476,809.4444237958735,783.9362306282795,837.5016943890924
1731655834.070931,875.3039934594626,809.3881704635396,783.9422582993836,836.6237948183448
1731655834.072863,846.9552739006631,809.3323524852489,783.2286047331986,819.7643086329535
1731655834.0751295,808.4509498072949,809.2769691016073,782.6214158124492,797.981341343859
1731655834.07676,784.5692035709244,809.2220622122179,783.2935698188375,786.4582106408476
1731655834.0806563,788.3360428582347,809.1676941690455,785.9939841824528,792.4279406701532
1731655834.0812716,810.9555785946347,809.1138668848027,790.4602479416758,809.2006290896522
1731655834.084553,829.466605563266,809.0604241482856,795.4055936096842,821.5722274568407
1731655834.0884497,825.9541078523989,809.0070555061175,799.1499210772681,818.4149511423697
1731655834.092346,802.2019240139025,808.9535287841156,800.5206712944142,801.825805041515
1731655834.094004,777.5034736730923,808.9001155074226,799.4254169861999,784.9871148170728
1731655834.0962424,771.8158883591957,808.847846729284,796.7435316830847,780.7339524592771
1731655834.0968614,788.7905192607001,808.7980029021367,793.7108662164828,790.8147222423472
1731655834.100139,812.843676998665,808.750563696812,791.3015258151692,804.863982351675
1731655834.1040356,822.2680812887072,808.7024917565142,789.9853937988461,809.5129851315038
1731655834.105821,807.1757963167454,808.6481250844657,789.8490438659746,799.6747424896151
1731655834.107932,777.548590644269,808.5839052272102,790.791886490463,782.6755875842089
1731655834.1118286,755.0785653565644,808.516320965107,792.557327204527,772.0483448670628
1731655834.1124513,755.6342219614725,808.4657898977084,794.6385990161721,776.1986751225324
1731655834.112878,776.627244617588,808.4554608643425,796.321051052048,791.2844649624398
1731655834.115725,799.5318655597229,808.48125526251,797.0339340437657,804.3325810091776
1731655834.1196215,805.4966963261636,808.4819436729507,796.8240390924996,804.2539706638306
1731655834.123518,791.1667119488257,808.3532128562154,796.4965274407559,791.5824788581704
1731655834.1274145,771.4688340314364,808.0448863650024,797.1462683886799,778.41575099536
1731655834.128041,766.8990370485773,807.7141446980589,799.3391601805594,778.212574933049
1731655834.1313112,785.9132706974574,807.7981966547367,802.5886887300611,793.9925674270447
1731655834.1317525,817.1920549269857,808.830521796359,805.5951259263874,815.1111238028175
1731655834.1352077,838.2866082576651,810.9974055314544,807.1024794204516,825.5299686742926
1731655834.139104,833.6250911557592,813.7487595757821,806.7270967246258,816.7763448333787
1731655834.1407104,807.2872949547168,815.8827015873854,805.1502680235562,794.9634007930047
1731655834.1430006,780.1841084901356,816.1858711341254,803.5807178623762,776.2374080901083
1731655834.1436307,773.6762879716277,814.2069124723981,802.9264601567614,774.3427210319181
1731655834.1468973,792.5215664328279,810.5656781060445,803.2539151812615,790.1271440248914
1731655834.1506264,820.905892287675,806.5375075224945,803.8265487477164,811.185406429891
1731655834.1507936,835.1958160886708,803.2277960232675,803.6156537292786,821.8816214049267
1731655834.15469,823.4618309886738,800.9873086492585,801.9586525899584,815.7814773613889
1731655834.1585865,795.7067051089394,799.5095948381166,799.04023370185,800.4820507813713
1731655834.1592205,775.8848773884873,798.448761778492,795.9643667141842,790.9040919693267
1731655834.1624832,782.047841635702,797.9278935113427,794.3221367556082,796.6595883677735
1731655834.1663797,811.3041008604322,798.4295831095317,795.3870352229408,814.0809719387278
1731655834.1695008,842.2348614224818,800.1841819638242,799.3387722282247,829.4665115004783
1731655834.1702762,852.2729000898335,802.6950621888354,805.0157776681984,830.5841064995681
1731655834.1741726,834.8861771993845,804.9220468534215,810.4438862020742,816.7690786264676
1731655834.1748104,802.4645032120033,805.9834006348258,813.8823625507378,799.4716661332487
1731655834.1755998,774.2290169238454,805.7113656375033,814.7337714629709,793.0532455461239
1731655834.178069,761.4900233644111,804.5616789893835,813.7193014276994,803.3294363449983
1731655834.1819656,762.7658969957803,803.0534656969083,812.2343658685224,822.9667892779368
1731655834.185862,769.7217874622398,801.3674685465539,811.4016112710166,837.3599952448245
1731655834.188375,775.3723506383401,799.483233786884,811.5372918294008,836.2609843924372
1731655834.1897588,777.529748016616,797.5986766027447,812.3384150164534,821.7108239762769
1731655834.1904,777.4330796258225,796.2698947817453,813.4300216324358,805.7594323346283
1731655834.1936553,777.0194892580774,796.0571307686762,814.6423508543677,799.9453963895223
1731655834.1975515,777.315538800012,797.0582678596655,815.803318462393,805.4833666582253
1731655834.2014482,778.3149001657505,798.882497598934,816.4579278916036,812.4955647318857
1731655834.205345,779.5712195726929,801.142756165882,816.0262211521522,808.9138960174913
1731655834.2059898,780.7279054337628,803.9092811202979,814.3641352265487,791.5454381327187
1731655834.2072492,781.6897649212698,807.4963277348209,812.1386461893394,770.0247128815629
1731655834.2092412,782.5334506672673,811.645364792973,810.5079669973825,760.1104213163688
1731655834.2104895,783.3615961669458,814.9627046206256,810.2452321839585,771.2398745985156
1731655834.2131376,784.2238878362315,815.4502118333058,811.0227007284185,798.0330480005251
1731655834.2170343,785.1162254358522,811.9763459643603,811.5282568189417,822.9593584776944
1731655834.2209308,786.0139726117081,805.4928555031189,810.4237328184678,829.003379797006
1731655834.2215798,786.8990847838402,798.8246122267351,807.4233259635943,812.8201738797085
1731655834.2248273,787.7676531136119,795.0296821763901,803.6121929882803,787.560050876793
1731655834.226123,788.624312171418,795.5400049010104,800.7170140119163,772.436303769179
1731655834.2287238,789.4744906930222,799.420012600647,799.8972717463555,777.2639568218419
1731655834.2326202,790.3205795859933,804.1150657335345,801.0114720577525,794.8382591690624
1731655834.2365167,791.1621938087234,806.981780647798,802.9001075626546,807.5965038898706
1731655834.2371695,791.9980543283847,806.5623841744153,804.3858178434737,802.9111735259536
1731655834.2404132,792.8273988376552,803.0096650758569,805.1409853249178,784.1362296200673
1731655834.24431,793.6502680343482,797.7206474043246,805.7463391611441,768.2250995556944
1731655834.2449975,794.4670346333237,792.593800963244,806.9559161023633,771.8579233319387
1731655834.2453792,795.2778171309598,789.2933485550034,808.7960344300077,797.2452331203094
1731655834.2482064,796.0822741134253,788.7058276593059,810.224358451245,829.0472808021719
1731655834.2521029,796.8800056076526,790.6632096673869,809.6771353489163,845.2991903603614
1731655834.2527592,797.6714060111161,794.0338945323833,806.236595481081,834.2901012715176
1731655834.255999,798.4582721333635,797.2620592254804,800.6694937512381,804.1738438120818
1731655834.2598958,799.2430749569173,799.19455643017,795.4948927839765,777.1736077785305
1731655834.2637925,800.0262994674316,799.7153340242509,793.7344747331599,772.4445430690278
1731655834.263872,800.8032016177632,799.7026856377175,796.9514539237355,791.2802486459219
1731655834.2676888,801.5639087344789,800.3017630275342,803.9407082713341,816.7470864134283
1731655834.2683492,802.301121315332,802.081564068161,811.2082260445437,827.8288869773115
1731655834.2715852,803.0242847937739,804.7288680682009,815.0951041166337,816.1448442865325
1731655834.275482,803.768210577769,807.408345277741,814.0439868072591,791.6988027946875
1731655834.2793784,804.5762569205841,809.3384883777213,809.3336931867448,773.8052120278513
1731655834.280269,805.4487767706904,810.0887599377302,803.863882198854,775.4482697087313
1731655834.282746,806.2856964624477,809.5448886949191,800.118946378039,793.8126164215342
1731655834.283275,806.8988974578169,807.8372609018206,798.8850863533687,813.8095861263474
1731655834.283939,807.168953062733,805.410740597603,799.4008514384121,820.8007286494858
1731655834.2871714,807.3097309570693,803.0765667862124,800.4094135221659,811.9164463682285
1731655834.2910678,807.9988895458638,801.7971161772339,801.1150426489257,797.1604293716254
1731655834.2949643,810.0054131869065,802.2120658483109,801.4495528763313,790.0335217486388
1731655834.2988608,813.1845735448236,804.2091604355267,801.7244565706368,795.9075025881726
1731655834.2995286,815.450306781433,806.8805193830341,802.139475909681,808.0104871218289
1731655834.3016202,813.1522962297302,808.9701926499412,802.5977902056015,814.2302380909615
1731655834.3027575,804.0603952324542,809.5740149152781,802.9476725141631,808.5819540782587
1731655834.306654,791.7303115829728,808.6149201968212,803.3529710635258,797.1835761559628
1731655834.3105505,786.461281013927,806.7080478759142,804.3214760510177,793.373284930824
1731655834.3144467,798.5461671959284,804.4984979850957,806.2184918483088,805.9682666494998
1731655834.3151186,827.3949705285587,802.062923029973,808.6643791928025,830.5656704422688
1731655834.3151586,857.5801044935195,798.9841654137178,810.4901170597389,851.4063527715016
1731655834.3183434,868.5315157912552,795.097458294622,810.521155526327,852.8493878966988
1731655834.320495,851.2307462208494,791.2073360462571,808.6623150491091,831.771483187249
1731655834.32224,817.265927606392,789.0123150752663,806.321291662177,801.0873742594272
1731655834.3261364,791.2424497148647,790.1648353315813,805.6233518127603,781.0044412586897
1731655834.3300333,791.6683809747366,795.1714211565956,807.8436155813413,784.1014584670069
1731655834.3307085,815.881542895035,802.9540469495448,812.2031588472038,805.7052578996321
1731655834.3339295,842.0439710847279,811.3011682260042,816.0386303614232,827.5088082155789
1731655834.337826,847.0942413047862,817.7782138874917,816.4301426146819,831.9740773051464
1731655834.3393688,825.7573737497631,820.5321877953689,812.2783064110977,816.1119149672803
1731655834.3417225,794.5942328961195,818.7631155984585,805.3254730511459,793.5060479978542
1731655834.345619,777.8209784581699,812.937177738802,799.2003179257989,783.0002891797258
1731655834.346298,787.0341763460555,804.761867529582,797.000528861092,793.3155574032197
1731655834.3495154,811.8070656941304,796.7504154166429,799.1784322463191,816.018230821717
1731655834.3500483,828.7416096286636,791.3048782804254,803.4014372600943,832.356001818831
1731655834.353412,821.237179397172,789.6893994901868,806.4867528317419,828.3198706452198
1731655834.3573086,793.5198638739607,791.5602306384458,806.7455454626338,805.7915704898423
1731655834.358243,767.196754518774,795.4080019250055,804.79329246864,780.8356053884341
1731655834.361205,762.9813947813759,799.5428272262308,802.4390163020403,770.5717906462219
1731655834.361888,782.7994968805016,802.8377822727517,801.0352383795955,779.4062279114808
1731655834.3651016,807.6816142803315,804.7891772133871,800.778224341692,796.0151066996003
1731655834.368998,813.8000567144747,805.1785578666538,801.119419744214,803.522047016744
1731655834.3728943,793.288574314528,803.939937282419,801.4763383858174,794.0975411543786
1731655834.376791,761.8843628257004,801.4343773830484,801.5974788630571,775.4735682321189
1731655834.3771172,746.4954351359446,798.7106138641226,801.5247683500066,764.0916059318696
1731655834.3774776,762.967765797367,797.2074381250917,801.3981084935058,771.3664438208399
1731655834.3806877,802.5511530299641,797.8927880920429,801.3114576567726,795.1478447276569
1731655834.3845842,838.1272909986764,800.4919570543027,801.2801045464248,822.9437499060064
1731655834.3849378,845.081483188274,803.5461770532011,801.2758955043072,842.4722926867738
1731655834.388481,820.1886549116044,805.405983726579,801.2695653096783,849.525517087885
1731655834.3923771,783.7521465943129,805.4418129413634,801.249641220041,847.7449506364646
1731655834.3930674,763.525340816355,804.5008260675472,801.2194558989405,843.2476568161561
1731655834.3959916,773.2223460143202,804.2190311518417,801.1866142235915,840.0308459088021
1731655834.3962736,802.606618308773,805.7324873029706,801.1557970405637,838.9071158565663
1731655834.40017,826.8351868829861,808.824164228939,801.1274953906112,838.8853949824634
1731655834.4040666,827.1672664214076,812.1700035003848,801.100084675898,838.8423291403773
1731655834.407963,805.9592949453718,814.4183754240591,801.0720384277472,838.3073552239016
1731655834.4086573,783.8467869654656,815.153557606808,801.0428187283916,837.3870632046342
1731655834.4118595,782.0122181618983,814.9649230251778,801.0126411529192,836.3703710494825
1731655834.4148655,804.598456285594,814.6950123300363,800.9819025130766,835.444344484984
1731655834.4157562,835.5445103080898,814.6450195556777,800.9508213779345,834.6355100044041
1731655834.4196527,851.8083979505872,814.4303299827334,800.9193956849782,833.8848802694321
1731655834.4198277,841.8355695870758,813.4867187312358,800.8875247107682,833.1336131571696
1731655834.4235492,814.5107608238847,811.6629735424087,800.8551260809415,832.3597313789837
1731655834.424247,791.7668977004273,809.3659590491521,800.8221750085178,831.570866819657
1731655834.4274457,790.9368695650717,807.1870793003718,800.7886794613331,830.7826377107124
1731655834.431342,810.9843516583583,805.3807458590322,800.7546377314926,830.0043617293734
1731655834.43374,833.7867685721787,803.6833631035541,800.7200187778382,829.2368506811932
1731655834.4352386,839.6464675123863,801.7032883032787,800.6847847883079,828.4767781692608
1731655834.4391353,824.373523356211,799.6128795122471,800.6489466423488,827.7211440108099
1731655834.4398367,803.4645095623601,798.4694324834642,800.6126060291937,826.968987011547
1731655834.4430318,799.3370659894966,799.6227670769191,800.5759118318639,826.2208364965895
1731655834.4469285,821.9723080635821,803.4497797857231,800.5388897085768,825.4775276298338
1731655834.4508247,859.2758490270994,808.4994881888244,800.5012290529307,824.7394897746362
1731655834.452614,885.5904478306721,812.0896735716549,800.4622802658753,824.0067107866992
1731655834.4547172,881.7706503047017,812.2013756911707,800.4215431180902,823.2790518810097
1731655834.4547212,850.7041726011622,809.164007047903,800.3795860656224,822.5565220576035
1731655834.4554267,815.6814506928561,805.5453976638183,800.3386313591983,821.8392863882699
1731655834.4586177,802.4948252245722,804.1689911124026,800.3015122885188,821.1273969182373
1731655834.4625142,819.1308660652466,805.9170118815689,800.2683589901361,820.4204567238723
1731655834.4664106,849.3206506654229,809.2031121338795,800.2328161944403,819.7176155064526
1731655834.4703074,865.576356853359,811.451433451464,800.1826654911457,819.0182613574816
1731655834.4710164,851.5267288660161,811.1571986501208,800.1097755865987,818.3232614833348
1731655834.4714885,815.3534883113963,808.8131911759525,800.0272449092824,817.635659135455
1731655834.4742038,783.1805971200616,806.2183690830285,799.9782193969513,816.9591062969312
1731655834.4781003,777.8534654363194,805.0422135135501,800.0120995573742,816.2933256858031
1731655834.4819968,800.6583290861944,805.8229657267393,800.1181595590866,815.6292673107961
1731655834.4858932,830.8791091789446,807.9097951585951,800.1525648045589,814.9505945657628
1731655834.486606,843.0813898738633,810.0762027872206,799.8437684583547,814.2477314819445
1731655834.4896069,827.5380732526003,811.2555609214987,798.9344021189407,813.540710496261
1731655834.4897895,797.2541286462257,811.041344143161,797.3750807134868,812.8892812501597
1731655834.4903626,776.5491942789421,809.8538425195359,795.3924197593333,812.3586895451829
1731655834.4936862,781.0822853085172,808.7484248413914,793.4047878447617,811.9320755266748
1731655834.497583,805.6146625531384,808.8403179127241,791.9403579007967,811.4260453638425
1731655834.5014794,829.1408731124801,810.4929060346235,791.5825387820024,810.5364175892917
1731655834.502196,832.8455292643264,812.7445187243862,792.7558788390235,809.1205040446513
1731655834.505376,815.9177724332875,813.5678940978221,795.3251532313142,807.6199008792972
1731655834.5092368,796.0225213214928,811.118708526153,798.3643953641188,807.197277587183
1731655834.5092723,793.9540611375694,805.2812062867822,800.4990367581619,809.0141685683398
1731655834.5131688,815.2964211962839,798.2760374050267,800.7556284859888,812.5762826724011
1731655834.5170653,844.6326076567619,793.5629592999484,799.3084272398479,814.364411011354
1731655834.5177858,857.5298654626396,793.6079560012685,797.4625332153589,809.0259709494177
1731655834.5209618,840.6980675132442,798.1622042242351,796.7794167640105,793.9658961479256
1731655834.5244966,803.7461118991159,804.4185852593392,797.9708920874513,773.9868286265903
1731655834.5248582,772.6471257870851,808.9153149466907,800.4271528349035,760.4331641840702
1731655834.528111,769.8530578997469,809.6925561709056,802.7561624246465,763.5346035170307
1731655834.5287547,796.894948493974,807.1695200591529,803.867219348731,783.7872950643416
1731655834.5326514,833.4571046282435,803.3893091380454,803.6686263250982,810.2917416410925
1731655834.5333755,853.7058702887961,800.5149158043158,802.8595273741208,828.3704157968527
1731655834.536548,846.6333996153655,799.7427106280854,802.1933783197239,830.6014987619626
1731655834.5404444,823.8508364463884,801.1357152160955,801.973487890054,822.0202194202868
1731655834.5443408,808.654480737996,804.068428374648,802.0813453578313,814.9276715043774
1731655834.5469854,815.801639297649,807.7124213758744,802.270812417117,817.7226326629296
1731655834.548237,839.0808807895212,811.2804434516205,802.3880739798819,827.5290223620664
1731655834.5489657,856.9618630830706,814.118691812376,802.4129629885534,833.1390772899363
1731655834.5521338,851.2887957374486,815.8239404788742,802.3946688268855,825.6660949050507
1731655834.5560305,823.1720258760048,816.3761434089245,802.3812397954966,807.4281348582815
1731655834.559386,792.8135327006908,816.1181260231343,802.3901483755661,791.0693829698679
1731655834.559927,783.480669474775,815.5264841422504,802.4147943773293,789.4159454221071
1731655834.5638237,802.8693502283471,814.9494045437375,802.4423579783333,804.6307545252619
1731655834.5645552,837.0634948076219,814.5064195219264,802.4653650888091,825.9615019084712
1731655834.5658596,861.8808330625913,814.158422824587,802.4833200985017,838.2033425152114
1731655834.56772,862.2427353209475,813.8272103956973,802.4990479281939,833.9858317502378
1731655834.5716164,843.7367022225724,813.4681459121217,802.5150472199094,819.6716035649197
1731655834.575513,826.9685576356167,813.0793973865946,802.5321269348752,809.8594192841902
1731655834.5794094,829.522920119329,812.6788292540976,802.549876486064,814.9858568359739
1731655834.580145,850.6937405263519,812.2816548977577,802.5676303512428,832.3446476094088
1731655834.583306,871.8116182753249,811.8924523644405,802.5850422637861,847.9898819874466
1731655834.5847335,871.8600829396055,811.508366256847,802.6021320032181,847.9140527153053
1731655834.5872023,845.342255724986,811.1251247661046,802.619075265823,829.3514111192476
1731655834.591099,807.6580058831707,810.740509592431,802.6360144097869,803.1900056696968
1731655834.5942757,783.5647230593621,810.3545637744253,802.6529987343207,785.7526311990222
1731655834.5949955,787.8628240320792,809.9682678344001,802.6700220326899,786.5021408654649
1731655834.5957348,813.5450324167059,809.5823848601574,802.6870811167705,801.1583375678417
1731655834.598892,836.8621429221773,809.1970998157027,802.7042017216994,815.3888141548484
1731655834.6027884,835.6964609910501,808.8122254961248,802.721418586923,816.1551880841948
1731655834.603608,807.1708760045591,808.4275232475567,802.7387308042162,802.0002194255172
1731655834.6066847,770.598334096729,808.0428726920952,802.7560780034486,784.3382814265132
1731655834.6105816,752.9765141315911,807.6582708964593,802.773387711416,778.661893072235
1731655834.6113243,768.0070556751587,807.2737593340454,802.7907040411282,792.3791217790443
1731655834.614478,805.0927797644416,806.889365633295,802.8083112229568,818.6730900567633
1731655834.6183746,837.1111149340206,806.5050870830363,802.8266662834584,841.1229209778729
1731655834.6222713,840.883242017432,806.1209001070507,802.8459892639414,845.5036417016835
1731655834.6224823,814.275576803284,805.7367730313667,802.8656550346301,829.7886750785199
1731655834.6261675,776.8469503317142,805.3526739689892,802.8840081447928,805.0069903616296
1731655834.6269145,754.1242572911627,804.9685793744502,802.8994302817774,786.6797252146582
1731655834.6291654,758.1610229434295,804.5844880595996,802.9127693445781,783.496625270973
1731655834.630064,779.4009513842885,804.200430610341,802.9294047805846,791.6692595915612
1731655834.6339605,795.7295590623033,803.8164498775895,802.957464124025,798.9903616180367
1731655834.637857,791.1036673835422,803.4325375745781,802.9996772712886,795.2719813771981
1731655834.6413565,768.5519658439453,803.0485588963998,803.0422681336719,780.8284834585659
1731655834.6417537,746.8415573910687,802.6642593672202,803.0530953488427,766.0163959752107
1731655834.6425042,743.7007078980271,802.2794543379342,803.0039942720078,762.0539055767255
1731655834.64565,760.120040921267,801.8943687926801,802.9168848974163,770.8777454535658
1731655834.6495466,779.5252293376025,801.5098330080496,802.8979584889739,783.0102477357202
1731655834.653443,782.5842129716901,801.1268581727848,803.0938576232568,785.6436072821763
1731655834.6573396,764.5345700310069,800.7453861301306,803.5283049728865,774.0443657604453
1731655834.658094,739.7612249076162,800.3629350601198,803.8926476891355,756.18373896012
1731655834.6602306,729.6993440750666,799.9749717454965,803.5169464577664,746.2967762792354
1731655834.661236,744.5404476177399,799.5787593132917,801.7516916937351,752.7576718978466
1731655834.664055,774.2169109234493,799.1796961647066,798.6619272563858,770.7052319313497
1731655834.6651323,796.1731205677676,798.7942320713897,795.4707417472915,785.9379460619361
1731655834.6690292,793.6164090774,798.4405700537588,794.1679565502566,787.022955659041
1731655834.6729257,769.3735519741441,798.114431882415,796.3415577581854,775.3419183488883
1731655834.673684,743.8712012159131,797.7651917731267,802.0189865279827,764.2190402247974
1731655834.6768222,738.6303093535201,797.3072184592486,809.4157618274692,767.541411381619
1731655834.6791048,758.7740224854366,796.6955891419103,815.8719881194331,787.5679757598817
1731655834.680719,789.1255461414904,796.0382603731598,819.3895221620227,812.5753255616592
1731655834.6846151,807.1343078562082,795.6269063715987,819.7197963996884,826.4665861309458
1731655834.6885116,801.6076863708341,795.7571354303177,818.2706164967414,822.0093490575188
1731655834.6892736,781.4670915375682,796.4051847454011,816.9778857121177,806.3781113637473
1731655834.692408,767.5920186402411,797.1139010402806,817.0242034248519,794.6716744742567
1731655834.6963048,775.2103635305031,797.3913811628863,818.2790264850169,797.4570217542241
1731655834.6979792,801.6617610598246,797.370480720387,819.6522964110646,812.9146176982158
1731655834.6989448,829.1069438895145,797.9853488935526,819.8738516128928,829.5075181645058
1731655834.7002013,839.2968866248145,800.2292349387617,818.1162752618504,836.1121722630643
1731655834.7040975,828.2171153734611,804.0352128037695,814.2718808971815,830.9141248261692
1731655834.7048633,808.9497067628585,807.9308144752963,809.014249988638,822.0200029123077
1731655834.7079942,800.5131159186132,810.0443930417755,803.705442052517,819.7140397461997
1731655834.7118907,811.6877839583217,809.6991231332559,800.0036281112672,827.0513169441756
1731655834.7157872,833.2813278750624,808.0726761836712,799.100314212096,836.8395823070714
1731655834.7168534,845.7850169964847,807.1410359027917,800.8981762342402,837.7776893921758
1731655834.7196836,836.4916773544325,807.7812105909081,803.7314801655256,824.6811231522107
1731655834.7204533,811.6185318897631,808.8488651075074,805.0562711407705,803.9632082981399
1731655834.7235804,792.6203816887496,808.2184752607086,802.9162320168355,789.3422897309202
1731655834.7274768,799.0516453044039,804.875226760387,797.3305524864206,791.0139395403875
1731655834.7313733,831.836223002322,800.0575096825587,790.590939070446,807.1469648181574
1731655834.7338345,870.7819251862425,796.3267294482854,786.0782396578456,824.7586975901037
1731655834.7352698,888.754666434538,795.4493112093223,786.2803698104698,829.4644760180404
1731655834.7357275,871.6986165199316,797.0890038538048,791.3589800588422,816.5785663056004
1731655834.736043,829.1816894321632,799.4369943545191,799.2361570681347,794.9978533215187
1731655834.7391665,787.4650932822846,801.0066659508793,807.0239101327663,780.7650134166996
1731655834.7430627,770.3608078562758,801.8039750382375,812.6732024320852,785.0245349104886
1731655834.7469592,782.4068560163087,802.8545944972608,815.7309096604554,805.5306162282126
1731655834.7508557,807.1462948472954,804.7332990372174,816.9356366080551,828.4263738908242
1731655834.7516327,821.5420506340148,806.6468246069742,817.2630526572223,839.096112721592
1731655834.7546017,814.7670135624965,806.9914021044214,817.2559906740029,833.5111032391258
1731655834.7547524,796.2033340135517,804.8628388813894,817.0101000711869,820.8786003839829
1731655834.7586489,786.4966012887062,801.1240428147388,816.559384573066,815.4679568336344
1731655834.762545,799.4819489370976,798.0600025742627,816.1570565764807,824.4654067479763
1731655834.7664418,830.0504872389217,797.8908778495248,816.1835094722436,841.9606354041167
1731655834.7672226,857.7552186504653,801.3287405779806,816.8203559914393,853.9256207152824
1731655834.768724,862.9570779789143,807.2087998133017,817.8237307616619,849.8738374857419
1731655834.7703383,842.3623559498159,813.2757929780062,818.5890172069334,831.537089562722
1731655834.773476,811.5355914098386,817.3869725496837,818.4114798261738,811.5410542400292
1731655834.7742348,792.3795728502373,818.3359797095097,816.7050547251507,803.2024803638886
1731655834.7781312,795.5569532344718,816.0291627317982,813.0755825713009,809.6861403702806
1731655834.782028,812.1646026072522,811.2419366917752,807.3953998114584,821.4077048638956
1731655834.7828124,821.8090171943579,805.2738489917274,800.0682265139246,824.1161899135867
1731655834.7859244,810.661722496526,799.6192070982881,792.3681496146585,811.3081297588658
1731655834.789821,784.2454606810322,795.6052494005121,786.3907827189385,790.6057652240785
1731655834.7923503,763.6943353865552,793.9993172062638,784.2689493092694,778.2872212741592
1731655834.7937174,768.1912954953003,794.7405782212862,786.9466554310685,785.9831180212773
1731655834.797614,798.2511348626603,796.9807516946432,793.3814009684575,810.4183208635243
1731655834.798402,834.0549730916947,799.4531334248348,800.8992015581432,834.9226382114668
1731655834.8015103,850.5555161330858,800.9941721068828,806.5910943655549,841.883076715178
1731655834.8036137,837.1549792065606,800.9879077035979,808.8320848738338,826.2994342614564
1731655834.8054068,805.9220518077608,799.5710777775997,807.9106615935995,799.5728236355587
1731655834.8093035,781.6222969264096,797.5216508909224,805.4315908261515,780.4561010728385
1731655834.8112245,781.7188469348037,795.8552657888756,803.0417158785912,780.4518893045896
1731655834.8132,802.8255977298439,795.3111089183282,801.4496894243784,795.4818705725677
1731655834.813992,824.814292017655,796.0231137113225,800.3768521939181,810.5494324035839
1731655834.8170965,828.9342110602955,797.57762714522,799.2936517676449,813.3503436306243
1731655834.8209927,814.2610934436102,799.3720904208417,798.2090751032724,805.1857441187988
1731655834.8248894,798.0799748753523,800.962944847176,797.8331959137288,799.6401431440263
1731655834.828786,799.7286824081402,802.1548130095629,799.0159051884572,809.8660051689369
1731655834.8295815,822.0483837114695,802.879176465249,801.9629384240022,835.3260551381478
1731655834.8300986,846.9974030876591,803.1267831614191,805.8798603116713,859.7909182737644
1731655834.8326824,849.9139858601319,803.0886247629517,809.3278916554854,863.1553670675797
1731655834.836579,820.7971789341293,803.3353299115176,811.0201265726081,837.8806895420196
1731655834.8385034,774.635101758507,804.7008256818758,810.4832310485939,796.5338463879249
1731655834.8404756,741.5757194552558,807.7613300584933,808.1667114549718,763.7574811606293
1731655834.844372,744.2744088964718,812.2226141501867,805.0246299280053,758.5286552326342
1731655834.8451717,780.424220563599,816.733709903939,801.941331309551,780.4840454696559
1731655834.8482685,824.5347089308422,819.4208578758577,799.3854679241197,810.9153330550537
1731655834.848973,847.6419278712224,818.936208581201,797.4362992174409,827.4071112179812
1731655834.852165,839.2348725459898,815.3940004117105,796.0703681676523,820.4701497053504
1731655834.8560617,813.9518347786108,810.5293624852205,795.4634019478224,799.3522640765204
1731655834.859958,798.0478809252013,806.8504464798746,796.0546381987084,783.1495617591779
1731655834.8607614,807.1359206731255,806.2268500694688,798.2410666686416,784.9857917985447
1731655834.8638546,833.5647627499117,808.7878549112439,801.8341974584482,802.0308016638861
1731655834.8677511,853.3846446286952,812.839792004432,805.701569848607,818.8035476699777
1731655834.8678472,846.5787403885772,815.8636793027481,808.0425478644971,820.3435502176201
1731655834.8716476,813.8346576757638,815.9932340464367,807.3356494011606,804.3554686145246
1731655834.8733933,776.5747737845556,813.1062935832267,803.3837822636397,782.8811445169334
1731655834.875544,760.5562297289143,808.8834203786953,797.6308852826267,772.6218154831577
1731655834.876351,776.04656202696,805.7549166891632,792.371309953274,781.786048783658
1731655834.8794403,809.9918654818015,805.3210474976853,789.3362037003346,803.780613308917
1731655834.883337,836.2648215599963,807.249268520545,788.6965747695571,822.5803539175171
1731655834.8867214,836.0072613637482,809.4812232092299,789.252583933243,825.3936619455087
1731655834.8872335,811.9688355761414,809.7501380275926,789.6440511503132,812.400617298417
1731655834.89113,785.317120391139,807.3783470962536,789.5592883013024,795.7112660961635
1731655834.8919408,777.570172782189,803.9309774597433,789.8901931800631,788.6255925757591
1731655834.8950267,792.6424519027884,802.0699820611358,791.70542126203,794.4002904575252
1731655834.8989232,813.9112758385132,803.4271727813566,795.042174789937,804.0151142288587
1731655834.9028196,818.5336677710633,807.2378562354666,798.7262188218693,804.5950152334018
1731655834.9055955,796.8483782550423,810.9152958677882,801.3573559835837,791.0738066554211
1731655834.906716,760.8304766901482,812.1001955730014,802.3761066487672,771.1703566658794
1731655834.9075308,734.9645613428421,810.4469329079637,802.2136900350193,759.5591446341933
1731655834.9082828,737.1251973084277,807.6609303345826,801.6644689267729,766.0120621144816
1731655834.9106126,764.6289298230635,805.849225807418,801.2694049562724,787.0794528528074
1731655834.9145093,796.2794862311152,805.7031736951847,801.1507623948888,808.1071272592806
1731655834.9184055,808.764435423039,806.1024783543096,801.1836192777549,814.2909543103674
1731655834.9223022,794.572627884261,805.3726004740859,801.2178427351736,802.1510892744751
1731655834.9231205,767.2672390794755,802.9261209750105,801.1872387196108,782.1136898239267
1731655834.92447,749.9468760264211,799.7853498689442,801.1033654221956,769.8617327671438
1731655834.9261987,756.3915928017122,797.6638113966482,801.0040797446618,773.3883208799849
1731655834.9300952,780.3998815830738,797.6293740393163,800.9149203745233,786.4427371449706
1731655834.9339917,801.8747995422993,799.5703291905356,800.8401841133762,793.8859625108084
1731655834.937888,804.1046023295984,802.6966760462747,800.7723560542072,784.6173900145511
1731655834.9387102,787.5006324801183,806.2810497076712,800.7035413510794,761.5004666725632
1731655834.9417846,768.5350296725877,809.8233044152,800.6306159899508,740.2138354890556
1731655834.9431725,765.3593578142577,812.6874758281709,800.5544599544215,737.8406198472061
1731655834.943344,782.4901293668394,813.9526421654399,800.4771260953306,759.946389435074
1731655834.945681,807.240822590986,812.948727454019,800.3998906773255,795.9442258102832
1731655834.9495778,820.6699309590525,810.0452183994712,800.3229010258966,826.3336092092026
1731655834.9534743,813.899863148507,806.7838796765523,800.2457300459074,836.5364250516814
1731655834.9543002,796.0801618544511,804.989005374192,800.1679743977269,826.8583258342726
1731655834.9573708,786.8696825443623,805.511344848453,800.0894977678663,810.785458289837
1731655834.9612672,799.3023341999796,807.6881566502831,800.0103689488823,803.0603804187419
1731655834.9622183,827.6267629348713,809.9824113352042,799.9307060126571,807.5858060946352
1731655834.9651637,851.1168157296248,811.2176701249222,799.8505763079784,815.4501900329489
1731655834.9690602,851.2698537398259,811.3523487240151,799.7699840170429,814.4626664465683
1731655834.96989,827.9084884489702,811.2242891564082,799.6889078701992,801.3456094421487
1731655834.972957,800.2075160836876,811.6190999103981,799.6073432206451,785.5162371097696
1731655834.9768534,791.3810494857013,812.5246424874244,799.5253205637939,781.1031664576151
1731655834.978062,809.6346855653434,813.1581795862401,799.4428891443591,794.3099768321442
1731655834.9807498,841.1528569486967,812.6485181137818,799.3600690299205,817.2097563143276
1731655834.9810927,860.9703386554621,810.7667793649896,799.276800170283,833.4779850288177
1731655834.9846463,853.0338287513576,808.1580179893518,799.1929479089328,831.5184582103764
1731655834.9854796,823.3140754545459,805.9644272836904,799.1084229863142,814.2177119981421
1731655834.9885428,795.2547514574081,805.1535383622796,799.0233908838253,797.1003591452084
1731655834.9924393,790.9371710027774,805.9981770784652,798.9383863997074,795.9890208793721
1731655834.9963355,813.0542622664608,807.9832240888649,798.8540436434832,814.0130544970668
1731655834.9999669,842.4915630942854,810.1117577025183,798.7703250268614,838.6996909845748
1731655835.0002322,853.7739485535882,811.3695013235634,798.6857053996117,851.820602437008
1731655835.0010695,835.9368785942726,811.0998362507892,798.5974373114029,844.1285143344486
1731655835.0041287,801.7873642144986,809.1867323033388,798.5039457365186,822.9348091750308
1731655835.0080254,777.9615240382054,806.0801625301295,798.4086965965545,806.2619498641577
1731655835.011922,783.8334662745705,802.7153732256963,798.3218732351519,808.2931503422964
1731655835.0129516,816.2575029214076,800.3010152482217,798.2545243135736,827.9305623173088
1731655835.0158184,852.163241518766,799.9151321396827,798.2037288877232,849.6733830370699
1731655835.0166593,866.5661354264314,801.9639295211554,798.1385064663164,856.0182587283456
1731655835.018841,851.498462342965,805.7773852460739,798.0081839831181,841.37692152766
1731655835.0197148,821.0802997049007,809.7139684067956,797.7915888362871,816.3677022978172
1731655835.0236113,799.189132720248,811.9147562085016,797.5719973007339,799.0384083922145
1731655835.0275078,799.9851892228244,811.3523442818647,797.5700772658533,800.1188040968793
1731655835.0314045,817.1501801764563,808.4543873519491,798.0528276351305,814.4425384108538
1731655835.032249,830.4912524542146,804.7607382445972,799.130918247475,825.7804862077829
1731655835.035301,824.0956743841076,801.7924133231558,800.6133007080423,821.073141121913
1731655835.0377152,800.4892808917275,800.0064774259188,802.098745208553,801.9330531927968
1731655835.0391974,778.7143521961854,798.7020769037222,803.2551057183454,783.5859897364675
1731655835.043094,778.0291825694902,796.9367381180375,804.0257226828115,782.216294352085
1731655835.0469904,801.1314279299518,794.6139747589223,804.5887000741338,801.4441644573764
1731655835.0478387,831.0778459651028,792.766150403411,805.1555973803823,829.0735713559425
1731655835.0478413,844.5467616132372,792.8024718046305,805.8098334754707,846.4865149072831
1731655835.0508869,830.6557070493791,795.3894047111537,806.482498970999,842.8788870330012
1731655835.054783,800.0652811912422,799.8649818839867,807.0234570943512,823.0804330887742
1731655835.0565896,776.8403026367699,804.5517341236878,807.2817695882462,803.1464866207231
1731655835.0586798,779.2982200291092,807.6234304488735,807.1490205435589,797.5898580102116
1731655835.0625763,805.1330508454407,807.9234088096631,806.5874290719108,808.5168232371326
1731655835.0634286,833.0972753264849,805.3877111193658,805.7091089895896,825.1575786753267
1731655835.066473,840.2937017482848,801.0604612998957,804.9154692175839,833.7436118689186
1731655835.0703695,821.099464669958,796.7559971139929,804.936315995776,829.2639807161607
1731655835.074266,791.972487238715,794.3607381290401,806.5224547368587,819.2988693458483
1731655835.0754638,777.9084784449392,794.9237096160853,809.7952921939439,816.9654025662832
1731655835.0781624,791.6438026476287,798.0265740586495,813.7407300188489,829.1385980325684
1731655835.0790184,822.8169676598193,801.9766363194542,816.5042993600651,849.8620104974257
1731655835.082059,846.0902166048228,804.8347608740918,816.5747036515498,864.4107446568
1731655835.082731,841.6884810054448,805.5699790275976,814.0035500693377,860.7954788724094
1731655835.0859554,811.701474187178,804.469904496064,810.5015955926864,839.5666309989367
1731655835.089852,778.8563927915175,802.5796321361797,808.1342023829596,814.0296816251263
1731655835.0937486,768.5622004214973,800.7962538300305,807.6944798217273,800.3923153637751
1731655835.094338,788.6079259931663,799.4661155374804,808.2467502201234,805.3639169703357
1731655835.0946083,822.9474870937066,798.7153524771849,808.2525500241568,821.07366115479
1731655835.097645,844.6427697384147,798.9498878504392,807.1653196798458,831.6337344068036
1731655835.1015415,837.420471139812,800.818366269773,805.9697003949991,826.271443653843
1731655835.105438,808.308855547248,804.5742488423728,806.2173869168472,808.311045163776
1731655835.1093345,781.2981770537501,809.5030683749167,808.521623678072,792.4284779691887
1731655835.110198,777.6224691502346,814.1065176105301,811.8657764951566,792.2789509384804
1731655835.113212,798.9492320681936,817.012053465094,814.2589502595338,808.7416576739867
1731655835.1132307,826.8339649529737,817.8446946765532,814.143980717229,828.660944185858
1731655835.1171274,838.2667442924658,817.2956533844433,811.4709208414305,835.333591775758
1731655835.1176207,824.3915281975277,816.3539238749705,807.6965143049035,822.25953708235
1731655835.121024,797.419824741479,815.4379534976157,804.7550213361887,798.8265171663196
1731655835.1249206,780.4530122576995,814.2505425635113,803.7370386308202,783.0431401575228
1731655835.1257875,788.575751776412,812.4753106498852,804.2113536460296,787.0804948042694
1731655835.128817,816.5649092888392,810.5689257555192,804.6820994745268,807.4998408451016
1731655835.1320865,843.2746666735214,809.7243314930062,803.835702108686,828.3067251918105
1731655835.1327136,849.1645051877856,810.8496207856131,801.6013725383225,834.2418115666843
1731655835.13661,832.4620908372291,813.4570486501484,799.170350300438,823.0565300169864
1731655835.1405065,810.3888847467593,815.6326484253851,797.9661499352785,806.4885545906126
1731655835.1413777,804.3112010692183,815.3604920232507,798.4456187537312,799.4793815386075
1731655835.144403,821.2547537090164,812.1764641330423,799.7483776691338,807.2170585600746
1731655835.1482997,847.3321755337363,807.6968745468569,800.4595442241257,821.0795950561883
1731655835.1509607,858.6739464822755,804.496526704669,799.7980031141244,826.5501315438551
1731655835.1521962,840.987517059189,804.2481005695676,798.2465910714799,816.0064728423313
1731655835.1525102,801.8736551973528,806.6296498736824,797.1883577551798,795.5470065710359
1731655835.1560926,765.8849766546417,809.7683410092519,797.9202177796286,780.292198349238
1731655835.1569674,756.0978081629293,811.6947625430472,800.7953401871434,782.1582421330265
1731655835.159989,776.7710164752523,811.5991607139147,805.0284416983037,800.198972336048
1731655835.1638856,810.8207007026456,810.052340289707,809.1991298383665,821.3977958916797
1731655835.167782,833.6882796505942,808.2727076526953,812.0798492940256,830.9896487941393
1731655835.1698349,831.6343847810361,807.1757606799915,813.2695464591073,823.3915950153762
1731655835.1716783,809.47872024821,806.9169876005357,813.254105919711,804.7992903830929
1731655835.172557,783.1764825587381,807.096893385089,812.8839579157209,786.5236719292443
1731655835.1755753,766.1549789824217,807.2545775389832,812.6705048642038,776.2188203670939
1731655835.1794715,761.6662165894952,807.1839236988752,812.4508427842097,774.3759317775564
1731655835.1833682,764.9372779229376,806.9287835952313,811.6750219116063,776.9610999748139
1731655835.1872647,769.685890304421,806.6197411222322,810.033123569239,779.8545416168206
1731655835.1874,772.4915896338586,806.3452380450664,807.8384923883406,781.2195615481851
1731655835.1881473,773.1664197627381,806.1210438525383,805.8241754623236,781.265846031052
1731655835.188709,772.9855172047993,805.9220639128407,804.5809884297629,780.9248572707027
1731655835.1911612,773.0419754211168,805.7213896495101,804.1850302248215,780.8476299358207
1731655835.1950576,773.6630905743402,805.5081664773855,804.2953772213976,781.1551142819682
1731655835.198954,774.6410711408982,805.285226709291,804.5077504588788,781.6639971809864
1731655835.2028508,775.6675585975717,805.0595150791902,804.6037845218261,782.174501519135
1731655835.2037368,776.583562565507,804.8354024089912,804.568632553755,782.6045787171545
1731655835.2067473,777.3936661994375,804.6134196846282,804.4800240049126,782.9740929044584
1731655835.2075834,778.1699608273751,804.3921133345257,804.4055477777569,783.3343657377609
1731655835.2106438,778.9685847452207,804.1700829719746,804.3657525480248,783.7182441386823
1731655835.2145402,779.803821159989,803.9468243681371,804.3479756687632,784.1301838588914
1731655835.2184367,780.6631183757532,803.7225321906484,804.3331350351489,784.5597273822484
1731655835.2193267,781.5303134231997,803.4975788938849,804.3112871157441,784.9966153400555
1731655835.2222896,782.3978705671401,803.2721800297252,804.2826140751303,785.4371577700689
1731655835.2223332,783.2667510085963,803.0463488231755,804.2515242987549,785.8828675987861
1731655835.2262297,784.141047528508,802.8200034749187,804.2214768093932,786.3366220431978
1731655835.2264576,785.023721410134,802.5930730706569,804.19334993059,786.8001599205181
1731655835.230126,785.9154768914925,802.3655367166432,804.1663524264558,787.2737169412319
1731655835.2340229,786.815687528334,802.137409518318,804.139458187218,787.7568078542947
1731655835.2349164,787.7236256486433,801.9087144775538,804.1121697210342,788.2490127741764
1731655835.237919,788.6390536316131,801.6794659256815,804.0845162838853,788.7502738034478
1731655835.2418158,789.5621710229387,801.4496683180785,804.0567240413061,789.2607955687254
1731655835.2453318,790.4933175688285,801.2193224246702,804.0289506146262,789.7808375347657
1731655835.2457125,791.4327573190847,800.9884307956154,804.0012121805283,790.3105898914109
1731655835.2496088,792.3806337862226,800.7569993491226,803.9734387835443,790.850163737093
1731655835.2505062,793.3370280382992,800.5250361081884,803.9455523183342,791.3996372592345
1731655835.2535052,794.3020242187001,800.2925495000217,803.9175097621988,791.9590965189682
1731655835.2571793,795.2757330339243,800.0595479809191,803.8893074698669,792.528645508072
1731655835.2574017,796.2582755984341,799.8260413173186,803.8609618651024,793.1083925793613
1731655835.2612984,797.2497572975296,799.5920423290894,803.8324772330152,793.6984341827775
1731655835.264206,798.2502639725623,799.357566794222,803.8038100949761,794.2988552382412
1731655835.265195,799.2598963170177,799.1226295674494,803.7748551672378,794.9097530041519
1731655835.266096,800.2788243236067,798.8872379805351,803.7454927500547,795.5312693331529
1731655835.2690914,801.3073022497405,798.6513887200736,803.7157123332042,796.1635924445304
1731655835.2729878,802.3455723590118,798.4150773072145,803.6857395730218,796.8068875820879
1731655835.2768843,803.3936546531129,798.1783230006245,803.6559902296411,797.4611661811285
1731655835.2807808,804.4511797846296,797.941193295059,803.6266890208329,798.1262035849603
1731655835.2816858,805.5175653768038,797.7037918395064,803.597261828315,798.8016890130891
1731655835.2830803,806.5927337319897,797.4661788207737,803.5660830241192,799.4876968964705
1731655835.2846773,807.6780446483348,797.228249971292,803.531415907268,800.1852199599275
1731655835.288574,808.7763721950633,796.9896951919861,803.4937620099114,800.8960707303111
1731655835.292069,809.8900782760005,796.7502025289824,803.4580732755772,801.6214568194722
1731655835.2924705,811.0170389210456,796.5099364254061,803.4324293284444,802.3595417971744
1731655835.2963667,812.1479167138556,796.2699588225775,803.4204127257408,803.1041916401064
1731655835.2972755,813.2702972739052,796.0319051193965,803.409903817483,803.8483015372894
1731655835.3002634,814.382781738451,795.7963975678879,803.3698266633688,804.5929426374289
1731655835.3019545,815.5117556717995,795.5608277028347,803.2700996528768,805.356752210261
1731655835.30416,816.7100071510761,795.318894529846,803.1264962989584,806.1722392001062
1731655835.3080564,818.0151232096607,795.064899124467,803.0380179653669,807.0570174350966
1731655835.3119528,819.3747821684365,794.8028629971868,803.1518134881451,807.9685220879161
1731655835.3128655,820.6036122775633,794.5536164950684,803.5083663379502,808.7861183312929
1731655835.3158495,821.4761500479424,794.346868425498,803.8265134401006,809.3829188531022
1731655835.319746,822.0011382543224,794.1898881463087,803.4405177044988,809.8018240472665
1731655835.320829,822.7184551915146,794.0273819718699,801.619375272889,810.41786287429
1731655835.3236425,824.6154635272811,793.7394551781996,798.198832454333,811.8318423204652
1731655835.326959,828.2746417456301,793.2318976768455,794.0285609253207,814.2909386632916
1731655835.327539,832.4568162878854,792.6123346452678,790.7265905564086,816.8431731905612
1731655835.3284552,833.384594979758,792.317208393522,789.7835749412852,817.0778619588035
1731655835.3314354,826.5542305839226,792.9741091849712,791.6078128002757,812.5327311773378
1731655835.335332,811.3583724167065,794.9514093860028,795.1527479751699,803.7056436590585
1731655835.3392284,794.9299104282532,797.9324502642025,798.3962278791615,796.1526684276079
1731655835.3397028,789.5559684664356,800.9877756987803,799.4491183724317,798.1395879910522
1731655835.343125,802.9845864342261,803.1740828399244,797.6938932293715,813.8773753345145
1731655835.3440447,829.6096607053043,804.122094996452,794.2693209094542,837.9861109160131
1731655835.3470216,852.051899151241,804.1021884346089,791.5271792952983,857.3778997433899
1731655835.350918,853.6213180664657,803.6302769318785,791.690895750767,860.2955146181907
1731655835.3548143,831.7416454148415,803.0863805330778,795.4892229215004,845.319644709673
1731655835.3585773,800.9152865898557,802.6551275695349,801.613929539709,822.7485266370938
1731655835.358711,782.2605711316702,802.4782183819558,807.3618400838882,807.058815715706
1731655835.3596349,787.5893673969989,802.7442443210352,810.1021246608069,806.414795345594
1731655835.361848,810.5282437516299,803.6122012292761,808.7280050569212,817.3961909303986
1731655835.3626077,831.8495490097893,805.0757241983648,804.2544423550537,828.8249774246948
1731655835.366504,835.0503032650274,806.9088808310022,799.1857788638126,831.3933027700227
1731655835.3704004,819.7934670522093,808.7399814220147,796.0038974648196,825.2470028285996
1731655835.3742971,802.032152532671,810.2091047251348,795.7336820298445,819.310824618842
1731655835.3752246,800.2984165384513,811.1229161814467,797.5470225329407,822.9410180053758
1731655835.3774514,819.476917240004,811.5180573883913,799.6283188298587,837.1153507827441
1731655835.3781936,846.0741154869493,811.5944599560752,800.568836412044,853.0324286845977
1731655835.38209,859.4612057261727,811.5734152043968,800.1983669331431,859.6693294219596
1731655835.3859866,849.6766854296986,811.5881407566562,799.3103754171848,853.8298065954293
1731655835.389883,826.4058865634354,811.666474514857,798.682341927555,843.6988720533953
1731655835.3908143,811.2263513672632,811.7786846373413,798.3118700028036,842.3726285483679
1731655835.3937795,819.61068762143,811.8905462275542,797.5002471448096,856.5507041595856
1731655835.3963256,847.8909155864671,811.9878424412616,795.6493758106017,879.9490839020237
1731655835.3967378,876.1046078870793,812.0740296968393,793.0524362384541,897.3138732985425
1731655835.397676,884.3543698860877,812.1580726450493,790.9702879731423,896.2989335219897
1731655835.4015727,869.1263916201658,812.2457347984421,790.8346159747657,877.8362343828205
1731655835.4054692,845.9351246103002,812.3378223204123,793.1050125938801,856.3046574854042
1731655835.4064045,835.8925775913834,812.4325221978196,796.6548692412445,848.67370947466
1731655835.4093657,847.4434746645428,812.5280420066849,799.2823771670611,860.9760539653878
1731655835.413262,869.0271506639739,812.6237307217561,799.1548655128109,883.2447454896904
1731655835.4151998,879.3175172045093,812.7198465611848,796.2272752510819,897.4223029513373
1731655835.4171586,866.3571665028164,812.81688847395,792.5453741017274,891.8985922958374
1731655835.4210553,838.8574287114036,812.9151579511496,791.0613983924569,870.6733764500718
1731655835.421994,819.5759481708583,813.0146938120018,793.696492918413,849.7256477030015
1731655835.4249516,826.2334074302579,813.1154080164057,800.0198652796736,843.9373664835441
1731655835.4288485,856.1567742784742,813.2172225265103,807.5045801779429,855.4930204968992
1731655835.4316275,887.5553124702285,813.3201202337643,813.1422853945527,872.9003395552741
1731655835.4327447,896.3445380519792,813.4241266333099,815.2185193018748,880.7474269457775
1731655835.4340742,874.8516165045196,813.5292742574358,814.052326986656,871.8375184896498
1731655835.4366412,837.6072853753989,813.6355850667059,811.3777425856775,852.0347156955298
1731655835.4375837,809.9201602334591,813.7430749329819,808.9839738268319,834.4609147808795
1731655835.4405377,808.3783483467606,813.8517637958112,807.5702626974069,828.2719071827901
1731655835.4444342,828.5686917914592,813.9616721422369,806.4772269807083,831.3977916485869
1731655835.4483306,849.5841259274221,814.0727978745588,804.3807522250979,833.1900709068209
1731655835.452227,851.58678054172,814.1850920793256,800.4846261860865,824.5988502429171
1731655835.4529483,832.1579474217422,814.2984731844265,795.4238710686789,807.0606494965085
1731655835.4531736,808.0693474572346,814.4129097589954,791.195713420262,792.2054968887122
1731655835.4561238,801.0307861216078,814.5285401129745,790.040785769401,792.2274444913668
