timestamps,eeg_1,eeg_2,eeg_3,eeg_4
1731016100.151032,797.5138646442032,805.0889074562448,807.5583168449574,804.3582147483123
1731016100.1549354,789.261920283183,806.8308845785332,806.6418044598429,795.1845772735809
1731016100.1588387,780.9810899224383,807.9906364678017,806.0939531456806,787.0536810145256
1731016100.1627424,772.7820745686247,808.092617654469,806.1504087416979,781.0408710578095
1731016100.1666458,765.3310883436046,806.9720681624985,806.8394271065947,778.1796731674548
1731016100.1705492,760.2114052490233,804.9688166981363,807.9980176340498,779.1102156472836
1731016100.1744523,759.5355886841589,802.8688293542872,809.3590054890178,783.5221620590282
1731016100.1783562,764.6328814505655,801.4976640464027,810.6431849085993,789.9050222267442
1731016100.1822596,774.6421906350959,801.1879362630991,811.5991846338133,796.0560664818519
1731016100.1861627,786.2957286449196,801.5294590058679,812.0154160431812,800.1064323907318
1731016100.1900663,795.4431961779326,801.6626816804702,811.7916436725649,801.3020553258451
1731016100.19397,799.4194521281431,800.9652839901115,811.0766445239577,800.0524588175772
1731016100.1960804,798.4989840020555,799.6229816169476,810.3097469928325,797.4624372000058
1731016100.1967452,795.3192424735895,798.5992040391587,809.9999763163191,794.8643551049653
1731016100.1978734,792.8075061083189,798.9650592785621,810.347181072563,793.5416489240333
1731016100.2017767,792.3080881197608,801.0758228077176,811.0726124402324,794.4154997291475
1731016100.20568,793.2381672855098,804.2286632627626,811.6945395740016,797.5339092363541
1731016100.2095838,794.1498447364127,807.0614218129434,812.0039484694215,801.6780400102977
1731016100.2123332,793.985422756311,808.369664102679,812.2047745407904,804.6447845345068
1731016100.2134871,792.539059487862,807.7340953537224,812.5010223449575,804.3431350906131
1731016100.2149596,790.2076867881949,805.5853807424146,812.5606255790265,800.0906628667142
1731016100.2173903,787.7312787765418,802.8192014832514,811.524905949998,793.1789161334325
1731016100.221294,786.1931036550073,800.3439135608078,808.7236084058818,786.2431082056212
1731016100.2251973,786.8344341563453,798.8165451904806,804.4983889587604,781.8259134211196
1731016100.2279215,790.3020329374824,798.5410109790676,800.3283791130837,781.0746011213412
1731016100.2291007,795.7621346602216,799.3988327265624,798.015306310645,783.3647907603062
1731016100.2330043,800.8229951853338,800.816974666783,798.489896622298,786.9405942671239
1731016100.233839,802.6903903660829,801.9243475894054,801.1440323132678,789.9450074757763
1731016100.2369075,799.9030088112443,801.9805220093008,804.2224062779228,791.077563595115
1731016100.240811,793.397535906533,800.8926321087295,806.0290117565287,789.6724691247424
1731016100.2435095,786.058528004018,799.4252240200915,806.0897875233044,785.6405603923224
1731016100.2447147,780.9770347222905,798.8210542270112,805.4192622397536,779.7023442252529
1731016100.248618,779.5887585358552,799.9883821327983,805.694049429255,773.6596894498304
1731016100.2525215,780.9981956864465,802.8240016236103,807.959786350257,769.993216337586
1731016100.2527182,782.9472951645876,806.2153890091096,811.8317207491277,770.55916646473
1731016100.256425,783.6290367438276,808.753587281427,815.7256072641771,775.2002583286163
1731016100.2590976,782.9035661454166,809.6253018085312,817.8622485085579,781.5280579867367
1731016100.2603283,782.0473140964923,809.0415802836267,817.2939035139229,786.3516072196404
1731016100.264232,782.4531743333026,807.965099470729,814.3250382156739,787.8211174169252
1731016100.265659,784.5113809685038,807.4144075090696,810.2050853328926,786.6005439877392
1731016100.2681353,787.5482995168909,807.8344535853261,806.4039554888884,785.0557395760861
1731016100.2715976,790.6502450993509,808.8775180219013,803.9064413024902,785.0899610907259
1731016100.2720387,793.4802628993868,809.6642164416943,802.8466257928593,786.475951430411
1731016100.274686,796.3528932030339,809.3664685160967,802.6054035288881,787.1607288792064
1731016100.2759423,799.5780289475351,807.7915890786182,802.2849910693373,785.2808306416646
1731016100.2798457,802.7499626715162,805.584265696478,801.2824969194629,781.0849402578532
1731016100.283749,804.7384755837484,803.8347709133567,799.6103132799078,777.0713582691022
1731016100.2876525,804.5604915116758,803.3021694683474,797.7701977332677,776.2664573674933
1731016100.290274,802.4817221393374,803.8306933327248,796.3175121494504,780.0976638639838
1731016100.2904768,800.3176092704169,804.4610566904945,795.4804143732138,787.4134035237872
1731016100.291556,800.4210135062362,804.190517210512,795.1089763784694,795.1080853473932
1731016100.2954595,803.9496151754412,802.7817171009393,794.915018729314,799.7472131043194
1731016100.299363,809.7713197228718,800.9781967823427,794.7346702661902,799.2743347443537
1731016100.3006818,815.0390795482039,799.9872385273491,794.5912713606587,794.0716176132472
1731016100.3032663,817.1822953553203,800.6591712726109,794.556615585577,786.9124129750459
1731016100.305862,815.8188627264645,802.9435680605794,794.576804395359,781.6956291573308
1731016100.3071697,812.9918138890442,805.9110163729426,794.4324143963235,781.4379591068973
1731016100.309356,811.433034614132,808.2391237115545,793.8887860808218,786.5874955043597
1731016100.3110733,812.2731965143868,808.8560221045647,792.9518377840889,794.7540055506583
1731016100.3149767,814.2070451705341,807.4318752469416,792.0410681737376,802.1446978267692
1731016100.31888,814.8845901340507,804.5192005191193,791.8906113390047,805.8115158114646
1731016100.32145,813.2459276618494,801.3121312737469,793.1495058036338,805.2162193449014
1731016100.3227837,810.5979746350642,799.1583898759249,795.9103322653948,802.1765344361545
1731016100.326687,809.4081908236012,799.0303338302734,799.5295723371578,799.5035982081959
1731016100.3282354,810.9739688182736,801.1409855858733,802.9298652878593,799.4671943362708
1731016100.3305905,814.2035090614849,804.8502456412202,805.1943310844601,802.9993586860064
1731016100.334494,816.6689302259074,808.944906810742,806.0163524085015,809.7069332981574
1731016100.3357046,816.9046972006499,812.2146776716959,805.6922356806838,818.2285197663729
1731016100.3370385,815.7388130193233,814.0221196763194,804.724249363175,826.6269613082665
1731016100.3383973,815.4116692546028,814.4975017355524,803.3952978703776,832.9103424520441
1731016100.342301,817.400302841649,814.2432298166228,801.6489128228703,835.7810744965208
1731016100.3462043,821.0739790419118,813.8321205956127,799.3214484501431,835.2792168812804
1731016100.3471146,824.3982509914354,813.5150821326639,796.4887178329889,832.7403944063965
1731016100.3501077,825.8882689011931,813.2720173600403,793.6229592887664,829.940892433227
1731016100.3526263,825.9265735636515,813.0089820949343,791.4207999523647,828.065357120973
1731016100.3540113,826.3207746033929,812.6823085056141,790.4083325613058,827.2910748368323
1731016100.3579144,828.635796771347,812.3075515606462,790.5880894161136,827.1339117632081
1731016100.361818,832.8105062283306,811.9193563933895,791.3761190638918,827.0477881534661
1731016100.3657217,837.1648005143052,811.5400134300239,791.895963242255,826.769097768804
1731016100.365994,839.6679191206638,811.1729255573672,791.4598781249565,826.3099456487814
1731016100.3682144,839.3630728155108,810.8113623703384,789.9401727904765,825.7900208863226
1731016100.3696249,836.8575002846595,810.4484769066469,787.8093626925131,825.2994018717251
1731016100.3707273,833.6548119055908,810.0816587971633,785.8439198972951,824.8588332980447
1731016100.3735282,831.0187390725157,809.7117501616902,784.6876015105838,824.446216005239
1731016100.377432,829.2771127558439,809.3405488811052,784.5393763133204,824.0348414154284
1731016100.3813353,827.956134936123,808.9691376017267,785.1401881787672,823.6127307621948
1731016100.383803,826.4388642620478,808.5976123565723,786.0356029261168,823.1817516019097
1731016100.3848732,824.5360209148087,808.2255825227145,786.9115340177195,822.7485884829954
1731016100.3852386,822.5613011414052,807.8526899254897,787.76900819547,822.317852293111
1731016100.389142,820.9400767421006,807.4788117397532,788.8405570052927,821.8904137495866
1731016100.3930457,819.7189723463464,807.1040006689078,790.3318874382874,821.4650234239479
1731016100.3969493,818.4226964336872,806.728349741056,792.16325318643,821.0403320293025
1731016100.3993907,816.4968696591189,806.3519095749572,793.8706572603501,820.6158202684677
1731016100.4008524,814.1229815322234,805.9746802516468,794.7690884249438,820.1916788419793
1731016100.4037523,812.7078669321143,805.5966400946494,794.3811110290362,819.7683121544335
1731016100.4047558,814.2963501077,805.2177710559648,792.9465857836968,819.3459905966654
1731016100.40575,819.8979189154454,804.8380649470454,791.6289953587121,818.9247843865138
1731016100.4086592,827.8998369073599,804.45751707825,792.0720676455956,818.5046600253205
1731016100.4125628,834.2128491181477,804.0761218591736,795.3897209220631,818.0855858191959
1731016100.4149787,834.6704799660961,803.6938794401732,801.2279807510338,817.6675736785106
1731016100.4164662,828.1267552233367,803.3108089961926,807.6717081389825,817.2506655315452
1731016100.4203696,817.662318315776,802.9269505603374,812.2271405998191,816.8349047937343
1731016100.4226315,808.6568071928963,802.5423354783549,813.291044724308,816.420324284333
1731016100.424273,805.1837696222328,802.156928404169,811.1196878568184,816.0069573198042
1731016100.4281766,807.6342933557104,801.77058958241,807.6548427364221,815.594856109082
1731016100.430567,813.2486210444775,801.383140226245,805.3391129728565,815.1840898675256
1731016100.43208,818.6356299826592,800.9945726341604,805.6881711336265,814.7747031043892
1731016100.4359834,821.9511291692338,800.60529108088,808.5100925793613,814.3666501197094
1731016100.4398868,823.2595134995502,800.2160737373877,812.2357812766505,813.9597740039021
1731016100.4407728,823.4531206193357,799.8274408264241,815.0970513548948,813.5539198857614
1731016100.441511,823.077461546223,799.4385599782678,816.3133390976247,813.1491940383669
1731016100.4437904,821.9848930949045,799.0466662983679,816.4555383997329,812.7461840999904
1731016100.4461553,819.7822143720174,798.648523159827,816.7861514936017,812.3457682291082
1731016100.4476938,816.4794300775936,798.2445076928498,818.1539698822196,811.9482456434184
1731016100.4515972,812.7648256076916,797.8428649978756,820.3260556383087,811.5521527571527
1731016100.4555006,809.6579893313126,797.4581747481401,822.2383506512051,811.1540692071915
1731016100.4594042,807.7240258374312,797.0985947178825,822.8914878623581,810.7510093261891
1731016100.46039,806.4198191137925,796.7455772051845,822.1337075419187,810.3453535868512
1731016100.461743,804.2064460305216,796.3456818382678,820.725005095326,809.9485248064562
1731016100.4633076,799.5774657334836,795.8428091219795,819.6908152301803,809.5764131526795
1731016100.467211,792.358337547243,795.2587745676424,819.5223925282165,809.232295846774
1731016100.4711144,784.2194624689099,794.7727813236601,819.8479071639993,808.8856176678107
1731016100.4750178,777.8327183052344,794.6937608824712,819.7876576686762,808.472373473489
1731016100.4757955,775.189242604894,795.2573909602262,818.6777489904927,807.9463779109827
1731016100.4773312,776.3244133589809,796.3655661462424,816.597633688313,807.3780421808409
1731016100.4789214,779.3832347743232,797.5477746061413,814.321302931482,807.0313048133796
1731016100.4792695,781.904453438674,798.2776682410355,812.7637027111622,807.3124143242816
1731016100.4828248,782.3402424768138,798.4060444055391,812.3671940400399,808.5564987480363
1731016100.4867282,780.7969932216337,798.3173449986422,812.8860404690458,810.7573308313283
1731016100.4906316,778.6503919512719,798.6647126246523,813.6767488438779,813.4173815096082
1731016100.4929194,777.4639558107347,799.9068771711003,814.192035114614,815.676183117287
1731016100.4945352,778.007163696924,802.009849338329,814.2666206415604,816.7681362387501
1731016100.498149,779.9599190258295,804.4974143077505,814.0411388798246,816.5915550300215
1731016100.4984386,782.3177800418965,806.7376220828239,813.7049715827942,815.9190818111948
1731016100.502342,784.0405305465808,808.2229827756721,813.3290408154766,815.9497860340991
1731016100.5062454,784.4894901758549,808.7133831921706,812.8885891531371,817.4646506239742
1731016100.5085075,783.5861228033859,808.2778412176547,812.3810098730404,820.2283187556246
1731016100.510149,781.889984743848,807.3014746513478,811.9047951940446,823.0789470454304
1731016100.5108182,780.6040008677288,806.4264689097766,811.6426659516928,824.5819837996653
1731016100.5140524,781.1860365259627,806.3324631853104,811.7561341478133,823.7231322822554
1731016100.517028,784.4076458198823,807.3585536768389,812.2229443879719,820.1962523300734
1731016100.5179558,789.4200211633467,809.1773371441947,812.6992385964489,814.281795855533
1731016100.5218592,793.8534892175276,810.8369174910639,812.5566054220781,806.6766015115145
1731016100.5240955,795.3483435967271,811.294298380362,811.1941529338756,798.5387577627698
1731016100.5257628,793.4918613087478,810.1447644314143,808.4901848835414,791.529798947998
1731016100.5296662,790.3718420526737,807.9778207577139,805.0348461824091,787.366063526808
1731016100.5335696,788.9503546300945,806.0007274858569,801.8782877410347,786.829580125511
1731016100.5359073,790.5091231527745,805.1683682620405,799.939017919705,789.0004952752015
1731016100.537473,793.4840184169565,805.5151887407184,799.5375092341551,791.6589612295114
1731016100.5396838,794.8563989277455,806.2416326477851,800.3857740651254,792.8619603798685
1731016100.5413764,792.911785211548,806.4595299561365,801.9197184429047,792.4383593659226
1731016100.54528,788.9012972581621,805.9353420349231,803.6053381210395,791.9730921243709
1731016100.545841,786.1683703306677,805.2024663247287,805.0231530693336,793.174696926063
1731016100.5491834,787.5776370418221,804.999464206965,805.8540400194332,796.1068159989479
1731016100.5530868,793.4308004564665,805.5822828468056,805.9459257700786,798.9583231907617
1731016100.5547864,801.3802431970943,806.5257227498936,805.4173452702921,799.5612176461202
1731016100.555272,808.0589708737319,807.1443489494736,804.5997538599718,797.2134037197218
1731016100.55699,810.9747815206645,807.1010067798113,803.7706363730905,793.1715847176873
1731016100.5608938,809.4595105219304,806.6480185294986,802.9058054199741,789.5356600694067
1731016100.5647972,804.483952742103,806.3371678715641,801.7250394100392,787.6997964852106
1731016100.5687006,797.8828233882115,806.5271137206182,800.0286135926634,787.7227238084914
1731016100.57086,791.5688125695544,807.1370875651967,798.0111258047683,788.9054663724816
1731016100.572604,786.9790805765356,807.7835029918427,796.234484995437,790.7444136012257
1731016100.573666,784.762524059414,808.0714476743264,795.2618101434443,793.2769215246817
1731016100.5765076,784.71825559547,807.7666519197095,795.2766935754003,796.6101324193726
1731016100.580411,786.0401171930752,806.8073673319321,796.0167160576588,800.2539498548115
1731016100.5808637,787.8075767957517,805.2949369257188,797.0417209511048,803.0129797279818
1731016100.5843143,789.4599661437898,803.5337720910404,798.053256032672,803.6308301399439
1731016100.5864482,790.9610755873357,802.0251392657941,798.9821229522881,801.7155823737119
1731016100.5882175,792.604529584216,801.3056207980294,799.8428655773916,798.2495496476234
1731016100.5921211,794.6953526066926,801.6879932243562,800.5994985377358,795.2693940520275
1731016100.592545,797.3740841474205,803.1011438015358,801.2257409224154,794.8087912483377
1731016100.5960248,800.6250069420018,805.1620498890696,801.8527796926282,797.6346412696759
1731016100.599928,804.3059294947348,807.4111622499187,802.7306904884356,802.5195336277518
1731016100.6020362,808.0745635765309,809.518858707369,803.9223887781017,806.6491986709215
1731016100.6038315,811.3038962630799,811.3396378009946,805.0199302539662,807.1756736031191
1731016100.607735,813.2159942597671,812.8480124630411,805.2757956448739,803.0972233284454
1731016100.6114244,813.3187278057259,814.0565011907835,804.1718098574055,796.179013650014
1731016100.6116383,811.8760168773063,814.9563383113323,801.9487690325376,790.0936290137681
1731016100.615542,809.9337115214877,815.4633135379372,799.5601028764701,788.2067613669376
1731016100.6158864,808.6877020110203,815.389875613381,798.0288899702532,791.5063970540602
1731016100.6176243,808.5925681605383,814.5226827618599,797.7656150727315,798.1314007484339
1731016100.619445,808.9655369400596,812.8241808510488,798.4296376812226,804.7782222202613
1731016100.6233487,808.4702087808874,810.6153001253874,799.3705112429174,808.8948932184632
1731016100.6272523,806.0618894512502,808.5260080318166,800.1563459050313,810.0857637406586
1731016100.6303036,801.5914752019455,807.1606809541487,800.7159214224562,809.8795081614865
1731016100.6311555,795.7172830375041,806.7030966158114,801.1005626450302,810.3080390915873
1731016100.6332123,789.4873705132189,806.7985898217318,801.2592085472501,812.5233516610059
1731016100.635059,784.0638194862508,806.8451957518982,801.126538187203,816.361459048387
1731016100.6389625,780.5571097325254,806.4703559929092,800.9059790526251,820.79094271792
1731016100.642866,779.660499722682,805.8064172447454,801.167366318475,824.5531703305495
1731016100.6467695,781.1788486537056,805.3607204096634,802.5484013959218,826.512499146978
1731016100.6488006,784.015843301999,805.6090604924581,805.2547735882239,825.8343480035506
1731016100.6491828,786.9057032691566,806.6185491652581,808.7746381725641,822.3130448643833
1731016100.650673,789.3478912858003,807.9393891676709,812.0594395023733,816.7798687048137
1731016100.6509092,791.8414033990178,808.8268955023983,814.0563337157737,811.0838306587273
1731016100.6545763,795.1414795773627,808.6809231196746,814.2322160596949,807.2833879212666
1731016100.6584797,799.2329749659414,807.4502043692814,812.7693536245653,806.4003397321255
1731016100.6623833,802.9872955622842,805.7185349942168,810.3632723502884,807.663945341427
1731016100.664389,804.7966404774555,804.3703167628018,807.81266395999,808.9374297028075
1731016100.6662867,803.6240464630758,804.0488728400458,805.678034872092,808.092411340132
1731016100.6680622,799.6993889392438,804.7961666941741,804.166455403496,804.3411402728159
1731016100.67019,794.5232776844301,806.112978015281,803.2132507851112,798.640111101967
1731016100.6740935,790.2897825832985,807.341508653841,802.6442465784692,793.0409413917492
1731016100.677997,788.9660482443015,808.0567506023453,802.3276670528353,789.5276344030835
1731016100.6799767,791.3099753086462,808.2140062230476,802.257519450068,789.0095650874526
1731016100.6819005,796.2864827352975,808.0299518973924,802.5196073642002,790.9229984202696
1731016100.685804,801.3964052719823,807.7600092709445,803.152163663442,793.6359991631487
1731016100.685932,803.9929773555425,807.5494120428939,804.0243120313834,795.5393410116768
1731016100.6869414,802.8954356562249,807.4177162147663,804.8755048875021,796.2463543840657
1731016100.6897073,799.191166508862,807.3222810210048,805.5075039994567,797.0000437615506
1731016100.693611,795.5474056069486,807.2216901414527,805.9428672134156,799.7253596340215
1731016100.695565,794.4153950824381,807.1013600622758,806.3783916963182,805.2279855385449
1731016100.6975143,796.3988627633631,806.9674929036,806.9727012768019,812.0032218885422
1731016100.7014177,800.0121213287593,806.8313958871521,807.6761676974555,816.8947946178008
1731016100.7053213,802.9998607214761,806.6995210770467,808.2473028721251,817.3241983071396
1731016100.7058208,804.1295332067715,806.5722078710736,808.39839302491,813.2995046997983
1731016100.7092247,803.9913883337432,806.4469585477326,807.9261864833404,807.453140746786
1731016100.711153,804.2331682303426,806.3216177237958,806.7814716851016,803.0451082165742
1731016100.713128,806.0218794183289,806.1955245907236,805.1263563044348,801.6199788853742
1731016100.7170317,809.1087735211825,806.0690741095528,803.3686444262709,802.194614612498
1731016100.7209349,812.2030453975688,805.9428686530779,802.0659991132509,802.4384617729685
1731016100.720955,814.1651560463337,805.8172237649392,801.6602367876822,800.6985980926677
1731016100.7247,814.9232112637533,805.692134904894,802.1982137019525,797.2546933249686
1731016100.7248385,815.4077257122859,805.5674629269956,803.275027124371,794.0002762311816
1731016100.7267413,816.6857018752362,805.4430974411097,804.2761746253979,792.9820970938363
1731016100.728742,819.0731025170244,805.319008594491,804.7546490473401,794.9682526387129
1731016100.7326453,821.9274992219478,805.1952191068391,804.6836714591229,799.0687664420553
1731016100.736549,824.2271712473184,805.0717605735516,804.4277733805604,803.5835662295276
1731016100.740452,825.4087609158303,804.9486510033419,804.4612548868877,807.3016074939416
1731016100.7423294,825.7471274341017,804.8258943300392,805.0127091062354,810.1521391838653
1731016100.7435791,825.9772188127604,804.7034858440351,805.8656393824342,812.7318758894118
1731016100.7443557,826.5316295919503,804.5814123719149,806.466788921072,815.2788418926774
1731016100.7482593,827.0936676402155,804.4596507601351,806.2967431659223,817.1428507060805
1731016100.7521625,826.852340186345,804.3381780883916,805.2511849240212,817.2541056716041
1731016100.7559772,825.2185761542064,804.2170005414245,803.7378388379415,815.109780189952
1731016100.7560658,822.4145647476754,804.0961829400184,802.3891683429503,811.3770869114667
1731016100.7579174,819.5183248881561,803.9758335839612,801.5908640805592,807.6530709373226
1731016100.7599697,817.9514478021413,803.8560048513795,801.1832458738609,805.6261333736272
1731016100.7624586,818.6762354653199,803.7365418631495,800.5706755735615,806.1858060048536
1731016100.7638729,821.4779391971279,803.6170309606739,799.1707427088218,808.9058364558682
1731016100.7677765,824.7644020622853,803.4970560136196,796.8871382411111,812.1363168721167
1731016100.7716796,826.2127215848324,803.376798611578,794.2751548501245,813.7665377842261
1731016100.7735054,824.1113352877334,803.2575657526746,792.2822136177318,812.3877913398097
1731016100.7755833,818.5775840509502,803.1413815579024,791.7293154651625,808.1992486410528
1731016100.779487,811.6559489412709,803.0289947489205,792.8659026002224,803.0059587898085
1731016100.7813375,806.0497325680353,802.9170966259262,795.2788449508829,799.2373301371357
1731016100.78339,803.3801717253699,802.7977458019787,798.1924348591132,798.6171888781104
1731016100.7872934,803.302747868787,802.6637611975069,800.9106354052257,801.3148793904794
1731016100.7890935,804.0693806597582,802.5201540855886,803.0490219627256,805.983995197943
1731016100.791,803.92849006382,802.3929713008529,804.4145105014203,810.5062901809189
1731016100.7911968,802.2227922693509,802.3191979526034,804.7606984880882,812.9688904069569
1731016100.7951005,799.5207980552456,802.3070815584839,803.7940768714715,812.4516800841548
1731016100.7990038,796.971462348386,802.2847288790049,801.5239954974791,809.3524068897309
1731016100.800217,795.5167372152447,802.0943335464493,798.606149448124,805.1200523267665
1731016100.8029072,795.447037086337,801.5953894212537,796.2246001874902,801.4854645030148
1731016100.8046818,796.4059278129264,800.8542961927066,795.451573293198,799.5707215248616
1731016100.8068106,797.7139989624775,800.2433933030867,796.5378766941543,799.4043850560162
1731016100.8107142,798.8220652470497,800.255109708926,798.7071503921574,800.150168230768
1731016100.8146176,799.668361507422,801.1131534754768,800.6348826411161,800.8439360929328
1731016100.818521,800.6910859881033,802.5442386767404,801.2516533388601,801.0347287861648
1731016100.8190963,802.3983182933791,803.9370228246197,800.2945667912882,800.8632177541488
1731016100.8202698,804.7561820290474,804.7123626647001,798.2925149765412,800.684892424367
1731016100.8224244,806.9304803087149,804.5844466768417,796.1291567465124,800.7074354251374
1731016100.8260226,807.7372449787281,803.6101240681026,794.569882583843,800.915649718469
1731016100.826328,806.5478515349076,802.1369961191064,794.0210368167186,801.1935468468838
1731016100.8302314,803.8914141982001,800.7214131336502,794.5213902409087,801.4495869067609
1731016100.8341348,801.1664481942888,799.9524124490612,795.829179158487,801.6584145881802
1731016100.835858,799.6573270446797,800.1593689380812,797.5235008841564,801.8384782648233
1731016100.8379755,799.702237443432,801.1866167203356,799.1345997347893,802.0153764985392
1731016100.8380382,800.6873047077396,802.482198756393,800.3119386254888,802.2017452640456
1731016100.8419416,801.7239547157529,803.4835815230634,800.9537543716544,802.3967481387871
1731016100.8458452,802.3004206037588,803.9638506452239,801.1974474280717,802.594286901634
1731016100.8497486,802.4232997534767,804.0547133114222,801.2763710847256,802.7898223442571
1731016100.8514462,802.355703319091,804.0187869713062,801.3659372819894,802.9823333158183
1731016100.853652,802.323154719869,804.0361832387788,801.5254096038319,803.1729611263066
1731016100.856855,802.3994910922584,804.1472413663596,801.7330682832528,803.3630759311093
1731016100.8575554,802.5489670861731,804.3096934466835,801.9478987937518,803.5533027471297
1731016100.8610454,802.7116414635254,804.4730454049701,802.1468541784333,803.7435685861371
1731016100.861459,802.8548121649527,804.6151007672835,802.3292192978477,803.9335592524253
1731016100.8653624,802.9779789223854,804.7397874025157,802.5043949972714,804.1230669879066
1731016100.8670342,803.0948142978497,804.8598380458616,802.6802819627139,804.3120738084626
1731016100.8692658,803.2165448426858,804.983824235181,802.8592108179779,804.5006683960447
1731016100.8731692,803.3463312519584,805.113176662997,803.039668638125,804.6889423345863
1731016100.875734,803.4818905157831,805.2453641251905,803.2194413167678,804.8769421257024
1731016100.8770728,803.6200232279236,805.3777347035806,803.397402081351,805.0646772497723
1731016100.8809762,803.7591312805006,805.5092419611912,803.5736008975625,805.2521515935128
1731016100.8826222,803.8992987320677,805.6401836361028,803.7485677925247,805.4393884976076
1731016100.8848796,804.0412747529957,805.7712493870988,803.9227136318082,805.6264333857821
1731016100.888783,804.1856201535433,805.9028665697526,804.0961471958483,805.8133300906651
1731016100.8926866,804.3324575566712,806.0350828812772,804.2687854765696,806.0000818852028
1731016100.8946133,804.4816372510254,806.1677530513392,804.4405210786111,806.1866300611483
1731016100.896068,804.6329781940651,806.3007395238712,804.6113095640977,806.3728966937603
1731016100.89659,804.7863906759638,806.4339937665977,804.7811678173668,806.558909813247
1731016100.8982103,804.9418711282902,806.5675355777645,804.9501351899792,806.744937841595
1731016100.9004934,805.0994447130793,806.7014016664868,805.1182429038431,806.9314517927235
1731016100.9043968,805.2591212059606,806.8356132408088,805.2855060550164,807.1187432295413
1731016100.9083002,805.4208851065874,806.970171737906,805.4519302378873,807.3062972135434
1731016100.9122038,805.5847087386823,807.1050685886709,805.6175202851874,807.4925065241293
1731016100.913493,805.7505687872518,807.2402941926296,805.7822845957976,807.6755948574468
1731016100.9137986,805.918452374112,807.3758412884965,805.9462351760424,807.8560104513477
1731016100.9161072,806.0883477983045,807.5117061242513,806.1093860617705,808.0387610538506
1731016100.9200106,806.2602250352037,807.6478914829779,806.2717517513909,808.2322180706096
1731016100.923914,806.4340227484543,807.7844098434555,806.4333455065776,808.4404442742334
1731016100.9278176,806.6096658083912,807.9212787009566,806.594177202848,808.6516060039877
1731016100.9293866,806.7871246423882,808.0585014901656,806.7542521880379,808.8341177264736
1731016100.9310908,806.9664842073795,808.1960418873058,806.9135743942679,808.9563710896826
1731016100.931721,807.1479355376003,808.3338206472671,807.0721554699008,809.0326242453818
1731016100.932372,807.3316004460853,808.4717703018717,807.2300250448975,809.1629531022062
1731016100.9356244,807.5172235127417,808.6099453809087,807.38722874496,809.501028115136
1731016100.9395278,807.7040031643246,808.7486015615216,807.5438004338677,810.0999483944017
1731016100.9434314,807.8909917435334,808.888087273095,807.699714697892,810.6958086236847
1731016100.944975,808.0782376061574,809.0284563984825,807.8548623728839,810.6528026573658
1731016100.9473348,808.2679932435645,809.1689950772122,808.0091152625388,809.3386510528276
1731016100.9512382,808.4643207139537,809.3082365876407,808.1625043064375,806.877607341259
1731016100.9512513,808.669541626181,809.4450901793582,808.3154027014435,804.5923453362764
1731016100.9551415,808.8785053175316,809.580920606763,808.4684543371816,804.293815685586
1731016100.9590452,809.0761094702672,809.7208165234846,808.6220137137688,806.6576677791656
1731016100.9605627,809.2459800179561,809.8711279386088,808.7752634826622,810.2602049679474
1731016100.9629486,809.3924589690046,810.0319034955243,808.9258647900896,812.5278266339787
1731016100.9661136,809.5614772406984,810.1884564883741,809.0713555121845,811.9359780365427
1731016100.966852,809.8281437425075,810.3131661021597,809.2125824673361,809.4279892178034
1731016100.9701304,810.2238727682055,810.3884783686123,809.3568765235138,807.6784722029405
1731016100.970755,810.625495295841,810.4458097469067,809.5160144046025,808.800020385855
1731016100.9746587,810.7070189853059,810.5849473885869,809.695016000798,812.5014403001486
1731016100.976151,810.0761863773611,810.9200338790458,809.8759101056892,816.2796589567721
1731016100.9785624,808.5794276705607,811.4337670822524,810.0134080068066,817.4006060501076
1731016100.9824655,806.5243149223867,811.8315375058371,810.0646144849812,814.9026129199082
1731016100.9863691,804.536654062161,811.5904834250761,810.0548730063284,810.00852088436
1731016100.9890096,803.1094656228812,810.3004318524848,810.1323770041338,804.8988994426305
1731016100.9902723,802.2830594107146,808.0694672002752,810.5185409574494,801.1915187562535
1731016100.991739,801.813584959239,805.5969210279446,811.2919480106204,799.4019327644122
1731016100.994176,801.6505240681921,803.8015069840321,812.1113320866119,799.4080938264096
1731016100.9980795,802.1532527839815,803.307098534998,812.193614728096,800.9575223660923
1731016101.0011363,803.7277561541489,804.1492334016938,810.7858009875193,803.5420534143589
1731016101.0019827,806.2166467053758,805.8092113160841,807.8522866212065,806.0241894713723
1731016101.0058863,808.6963958833254,807.4683786446061,804.2956874138913,806.87590513643
1731016101.0073273,809.9558631414667,808.3522634943089,801.3920464799912,805.1745417847334
1731016101.007889,809.2667871553208,808.0734218965003,799.9122814045478,801.4461865188987
1731016101.00979,806.805732168666,806.853822352095,799.6914130435748,797.3707250649118
1731016101.013693,803.4506263266745,805.4704135448455,799.9387023059741,794.470799707953
1731016101.0175967,800.2249188569971,804.8673422385338,799.9359318559493,793.006886203415
1731016101.0215,797.867756166517,805.6136969787738,799.5482241973315,792.1466791814148
1731016101.0229154,796.7538968194585,807.5468935589008,799.2337107891162,791.1885838780047
1731016101.0254035,796.997407889675,809.8365964319545,799.6365968115007,790.5527791484305
1731016101.0267682,798.4484225010539,811.4048279881246,801.0706479871066,791.5106046426166
1731016101.0293071,800.5319257258161,811.4182766268107,803.2050805621396,794.9015423579416
1731016101.0332105,802.2008132020799,809.5975465651348,805.1471597883066,800.080300952923
1731016101.036159,802.2961568799033,806.2716013888918,805.9163678420242,805.1061887109914
1731016101.037114,800.233775445985,802.244214638623,805.0535627167086,808.0208232445427
1731016101.0385034,796.5139245183116,798.5527550270294,802.9591955103419,808.0915509727678
1731016101.0410173,792.555211089631,796.1622084313218,800.695643480067,806.0086073591939
1731016101.0449207,789.8748240378503,795.6464649447822,799.3764274662293,803.0511564812988
1731016101.0456476,789.2097021675138,796.9673369235463,799.5751965215511,800.1543011640013
1731016101.0488243,790.224606421119,799.4796696244041,801.132319761531,797.7326859567175
1731016101.0527277,791.9343435119309,802.1940732933726,803.3861965196977,796.1949446296051
1731016101.0540917,793.4099433807763,804.1662182810535,805.5564023248787,796.3274181803872
1731016101.056631,794.2367134507577,804.802356095183,807.0027093778216,798.9196618776641
1731016101.0605347,794.5146605018534,803.9630220204996,807.3035048800841,803.8933548213734
1731016101.064438,794.5654524169134,801.9170971345475,806.2837876559661,809.8220738857112
1731016101.0645268,794.6452413468218,799.2615745729511,804.1097188054639,814.4592811151784
1731016101.0683415,794.83814339411,796.8220376768451,801.3962089810759,816.0042362724944
1731016101.0696795,795.1070162281759,795.4370509830667,799.1341770212044,814.1670544779848
1731016101.0711818,795.38749755374,795.5919210598289,798.3108923126688,810.2342753337099
1731016101.072245,795.6442781882536,797.0852873542792,799.368016821618,806.1384005392994
1731016101.0761485,795.8767610602841,799.0398047473229,801.8824250711784,803.2948493970591
1731016101.080052,796.0996825698489,800.3835255885152,804.7777312190149,802.0550967504876
1731016101.083406,796.3251629477978,800.5231147225038,806.9648579793634,802.0159229025721
1731016101.0839553,796.5566131241686,799.6923986202255,807.9288119368647,802.7102709254476
1731016101.0852678,796.7915537115782,798.6833176817198,807.8228578340626,804.0182994306301
1731016101.087859,797.0265061048073,798.1873728100429,807.0776739645197,806.0570437518711
1731016101.091762,797.2597190756633,798.3024604289878,805.9367082488384,808.8350472890829
1731016101.0956657,797.4912616550808,798.585457729095,804.3144030174637,812.0824940130357
1731016101.099569,797.7219259586027,798.541508158575,802.0257291939452,815.3715280555562
1731016101.1008558,797.9523039055265,798.0952422960135,799.1342533031902,818.323662117103
1731016101.1022854,798.182515466403,797.6601945368916,796.1381187662167,820.686035346339
1731016101.1034725,798.412386934592,797.7908233434065,793.8674467560979,822.2826748331184
1731016101.1062045,798.641711857872,798.7305473375865,793.1283912203016,822.9981874142514
1731016101.107376,798.8703852027442,800.2162307716559,794.2581596512331,822.8442202805296
1731016101.1112795,799.0983991517401,801.6759363983591,796.8576938631572,821.953789674782
1731016101.1151829,799.3257802334231,802.6633069416739,799.9410792544996,820.3716182238029
1731016101.116444,799.5525372219251,803.215225638192,802.4836692802375,817.8210655401161
1731016101.1190865,799.7786442740537,803.8723771637008,804.0115122010161,813.8466663430241
1731016101.1211646,800.0040537702878,805.3071594087872,804.7899021035875,808.4456410948403
1731016101.1229897,800.228725950826,807.7576649356673,805.4805412199005,802.6817051214022
1731016101.1268933,800.4526604590039,810.6517994535434,806.5716286279627,798.5288752451012
1731016101.130797,800.6759056821226,812.7703201549247,808.0310511135862,797.759508125603
1731016101.1320322,800.8985157740556,812.9598253480693,809.3891162163713,800.6144392069865
1731016101.1347,801.1204505615555,810.9487719119596,810.1071103924735,805.34762690592
1731016101.1386034,801.3414842235298,807.6473344156127,809.9405331424983,809.1351869125888
1731016101.140044,801.5612631080933,804.6595380160887,809.0895767797572,809.8099626828258
1731016101.1412272,801.7796248776408,803.3446905374541,808.0795994402664,807.2633560757162
1731016101.1425073,801.9970621348702,804.0947686668314,807.4355272119227,803.5376077832001
1731016101.1464105,802.2148492410028,806.2727666648183,807.3238502743194,801.4477566185095
1731016101.1476202,802.4342018135737,808.7307804577372,807.4026631972654,802.5705529807638
1731016101.150314,802.6544076228741,810.4656982341519,807.0285871761686,806.022340931203
1731016101.1542172,802.8712813412877,811.0097119435795,805.7087673148491,809.0620977687145
1731016101.1581206,803.0786190506398,810.4470062066995,803.4664593691302,809.2157227401209
1731016101.1589231,803.2745179454797,809.1977957716616,800.8461372238673,806.2825971852382
1731016101.1620245,803.4698302123822,807.7603901200804,798.5851568542623,802.523155909847
1731016101.1632085,803.6892990901831,806.5166736067454,797.227565650424,800.8032781915447
1731016101.1659276,803.9540375685505,805.6257693856754,796.9284128041458,802.25128596437
1731016101.169831,804.2461299545402,805.0113080204641,797.4847177315104,805.4164798966679
1731016101.1737344,804.4832824813406,804.4523550698003,798.4835225086448,807.5765734771607
1731016101.17625,804.5542646041814,803.7649734298792,799.4753283320032,806.977579771873
1731016101.177638,804.445987061075,802.9996007292257,800.1445284992893,804.115786740527
1731016101.1778023,804.4043530432235,802.5209890643231,800.4406061693218,801.1891971881009
1731016101.1787963,804.9561893241598,802.8608203230478,800.594604438297,800.4411722786288
1731016101.1815414,806.625155431305,804.3802634449397,800.9755733011413,802.8060296018485
1731016101.1854448,809.4355100141802,806.9625636528763,801.8437483369804,807.6617783452799
1731016101.1893482,812.6391837184732,809.9860712870967,803.1398213493928,813.4536765649231
1731016101.1932518,815.051054230313,812.6196199160823,804.4465602870494,818.469184682402
1731016101.1943846,815.8236868193161,814.2070330420447,805.1749412123546,821.3219539188642
1731016101.1966815,815.0267460607422,814.4542521133187,804.8960732594304,821.215618194787
1731016101.1971552,813.5656715568092,813.3683085917703,803.6196301668716,818.2261080560259
1731016101.2010586,812.5699248450184,811.1522828406794,801.8099730270976,813.5515245591337
1731016101.204962,812.7722351301611,808.2317403210731,800.0982729704177,809.3340508929633
1731016101.2088656,814.2684982409072,805.319388521919,798.890283161114,807.7650644460199
1731016101.2099729,816.6315200540384,803.270245067875,798.1593411167441,809.7936810493052
1731016101.2112727,819.1143933405833,802.6698328286341,797.5539722782509,814.3216788792215
1731016101.212769,820.8093485797984,803.4406262635167,796.702498200138,818.6511279264572
1731016101.215561,820.8646558138201,804.8445101109104,795.4958658958099,820.1016997004177
1731016101.2166724,818.8393252199561,805.9531262445546,794.20742815205,817.7663870018358
1731016101.2205758,815.0008124157373,806.2368818269646,793.4148349791649,813.126379601449
1731016101.2244792,810.2424148014187,805.8091615301719,793.7372578212058,808.9985761360142
1731016101.225561,805.5830110330976,805.1773118197488,795.4654512223699,807.5378920760669
1731016101.2283828,801.6449596854637,804.7877702431118,798.2904634787582,808.7715538895702
1731016101.2322862,798.5630498637082,804.7836706314099,801.3788545928276,810.7443963314369
1731016101.23444,796.3354849464711,805.1147060238694,803.8232265048891,811.1060933816657
1731016101.2361896,795.1585446319674,805.7668886146095,805.15065886496,808.902601315519
1731016101.240093,795.3215473570733,806.8051339021421,805.4899579124556,805.2686179372645
1731016101.2411487,796.7532692106965,808.1937581800688,805.3202508368458,802.5957171826899
1731016101.2439966,798.7484115868749,809.6485009806305,805.0874773143267,802.8237492250986
1731016101.2462957,800.2852951489108,810.7469255989624,804.9962231258969,806.042697060198
1731016101.2479,800.7733005436153,811.2221964861279,805.0375845931804,810.3519826391472
1731016101.2518034,800.5954765874906,811.1439902520895,805.1223415936046,813.1064650208458
1731016101.2533195,800.8974269436281,810.8042479933098,805.1844174044285,812.7361943856645
1731016101.2557068,802.6753038776379,810.4402714543735,805.2095984816622,809.8364835334811
1731016101.256737,805.8449147702363,810.0874682043884,805.2150541257803,806.6420536590421
1731016101.2596104,809.089281505474,809.6906621944447,805.2207883283476,805.2095946548072
1731016101.2635138,810.7177002901296,809.3118327694458,805.2355535984884,805.7586041247969
1731016101.2674172,809.9258199615504,809.1762817559203,805.2578122595157,806.6069616949645
1731016101.2713206,807.4424910138688,809.4887744756785,805.2825745629269,805.8121304800945
1731016101.272199,805.0054859992779,810.2023098733438,805.3064932748807,803.0950258917777
1731016101.2723253,804.0803342368954,810.9646899564086,805.3290266096368,800.3227139350905
1731016101.2752242,804.8630776027617,811.2832553991924,805.3511849287389,800.0876918016113
1731016101.2791276,806.325241231651,810.7601338293206,805.3740220792226,803.5851900520868
1731016101.2813182,807.1503187948523,809.2461571501805,805.3979596469305,809.5520929326717
1731016101.283031,806.7140497277227,806.8908583544759,805.4228914427673,815.0758175692816
1731016101.2869344,805.362188984801,804.1439504434851,805.4485580764151,817.550650828992
1731016101.287913,803.9490203611074,801.7128933278069,805.4748036070528,816.2596292354973
1731016101.2908378,803.1897862826888,800.4052253307556,805.5016211730882,812.5185782144189
1731016101.291078,803.3380884970022,800.8187905807296,805.5290793761524,808.5040304453737
1731016101.2947414,804.2225607276987,802.9906030554326,805.5572432675482,805.808455419429
1731016101.2986448,805.3746720853744,806.2388767424761,805.5861421863951,804.7612294030808
1731016101.3025482,806.1322707536251,809.3845164047814,805.61577777492,804.7506900303268
1731016101.3035014,805.873061493046,811.3017289763836,805.646144599142,804.9837646095399
1731016101.3064516,804.4570964798044,811.4839518476454,805.6772440691384,805.0078555751253
1731016101.3099573,802.583376895366,810.2509077036922,805.7090874039889,804.7717159915939
1731016101.3103552,801.6040186512109,808.4572923496283,805.7416914090868,804.419581875349
1731016101.3142586,802.7149970508491,806.92793171357,805.7750711719182,804.0866344361067
1731016101.3163407,806.0509961417845,806.0317116234195,805.8092325182851,803.818723584487
1731016101.318162,810.4226269105086,805.6520842675073,805.8441686751694,803.5943245442984
1731016101.3190897,813.9772674859506,805.4671178304659,805.8798681560165,803.3762830082923
1731016101.3220654,815.3275446024131,805.2421343856739,805.9163372013152,803.1438908631355
1731016101.325969,814.3287270373472,804.9259097399838,805.9536248484582,802.8964196822429
1731016101.3288364,811.989691034079,804.5754804821585,805.9918188247101,802.6421633320826
1731016101.3298724,809.669792949631,804.2557452016091,806.0309798534971,802.3880937441935
1731016101.3337758,808.1862878690554,803.9980118338458,806.0710279394182,802.1362420997864
1731016101.3346777,807.4209165641038,803.7980033180028,806.111681910805,801.8852314475664
1731016101.3376791,806.593928914982,803.6172314061196,806.1526106151339,801.6330657877282
1731016101.3415823,804.9233101786854,803.3942170235877,806.1938568449314,801.3787164603233
1731016101.3454862,802.1896197401487,803.0807399250926,806.2362799108264,801.122200263716
1731016101.347716,798.8582049156207,802.680810068811,806.2813992599094,800.8639603253614
1731016101.3493896,795.7479030987392,802.2522800842588,806.3300749402415,800.6043340738942
1731016101.3502655,793.5336414631714,801.8668221268757,806.3804093392876,800.3433913255938
1731016101.3513637,792.4229625678804,801.568237330556,806.4269157253751,800.0810332402687
1731016101.3532927,792.1595696585251,801.3655070855026,806.4639298669051,799.8171421732135
1731016101.3571963,792.2789160648006,801.2538852084499,806.4942019411588,799.5516594790968
1731016101.3611,792.4351370861256,801.2305393470642,806.5378752388217,799.2845818126274
1731016101.365003,792.6238845465031,801.2874243478715,806.6318494236903,799.0159218092388
1731016101.365854,793.1739411519932,801.3936231804507,806.815503169735,798.7456770793979
1731016101.366595,794.4879866288071,801.4893545818542,807.1185783891741,798.4738271429351
1731016101.3689067,796.6912574090638,801.5079671921425,807.5708368362241,798.2003558503226
1731016101.37281,799.4580655492847,801.4286540788482,808.2160130630359,797.9252807989817
1731016101.3767138,802.1589573063911,801.3291682469973,809.0866347430676,797.6486593087376
1731016101.3806171,804.1770909514812,801.3706663415583,810.141181760291,797.3705421080151
1731016101.381442,805.0982924784087,801.6741391077162,811.2239664759443,797.090880192302
1731016101.3845203,804.6758969068203,802.163923442958,812.0896774046838,796.8094594786177
1731016101.3854744,802.7843896650807,802.5466981940176,812.4658090255773,796.5259929827325
1731016101.3863864,799.5924531362426,802.5130965050753,812.1049996102204,796.2404431851496
1731016101.388424,795.8327509036635,802.0178891502587,810.827274486034,795.9534103900041
1731016101.3923275,792.7505843471821,801.3580708501866,808.5925507936734,795.6661103061433
1731016101.3962307,791.5189965250887,800.9366979893604,805.6088980677272,795.3794291323484
1731016101.39703,792.4762991900348,800.9383552335761,802.4009364274381,795.0922064552498
1731016101.4001343,794.8358135931729,801.239675053277,799.7294600971586,794.8002179558936
1731016101.4040377,797.1496585720568,801.5935313752982,798.3268060248296,794.4982654190892
1731016101.4043536,798.1473661639196,801.8427872900043,798.5532421038448,794.1864591008505
1731016101.407941,797.3223069727821,801.9763151035837,800.1745133223527,793.8771256266039
1731016101.4118447,795.0050420262054,802.0585936611556,802.4178830422509,793.5931432892962
1731016101.4126182,792.1331464979794,802.1482300848198,804.3022814962101,793.348796113742
1731016101.415748,789.9658467446377,802.2653149563215,805.0748507855888,793.1179225772095
1731016101.4196515,789.7148096210728,802.4010372089166,804.5289280887806,792.8192161510999
1731016101.4214091,792.0134483253789,802.5397391452028,803.0451544367183,792.3640576904011
1731016101.4232328,796.4744460352503,802.6726300183352,801.3396310094596,791.7841700145887
1731016101.423555,801.7801980376264,802.7993755430448,800.0618962790434,791.3713266435207
1731016101.4274583,806.3750506221764,802.9234927537568,799.4861096072831,791.6698476289239
1731016101.4282064,809.2266881733062,803.0479628593216,799.4812734340034,793.1771762514148
1731016101.431362,810.0514486235118,803.1736800557203,799.7278527837227,795.8203560487872
1731016101.4352653,808.994270299382,803.3000888642767,799.9663381165504,798.6076302216337
1731016101.4391687,806.2962304295239,803.426364022058,800.1019178416216,799.9706663115721
1731016101.4421122,802.3270904731874,803.5520863653448,800.1622512768631,798.8776369811808
1731016101.4430723,797.7856388600607,803.6772797703065,800.207895076874,795.9848460304714
1731016101.4437945,793.6468227838734,803.802150391157,800.2749048723404,793.6868751660869
1731016101.4469757,790.7745526570525,803.926860897374,800.3660118743841,794.5920280632872
1731016101.450879,789.5115629625624,804.0514608404274,800.4678275443258,799.3607155526006
1731016101.4547825,789.5665272625284,804.1759276141429,800.5683674796011,805.7107769058002
1731016101.456432,790.266584112692,804.3002292555447,800.6637245888454,809.6830427085844
1731016101.458686,791.0310467430279,804.4243572506263,800.7558962671382,808.4067166936071
1731016101.4593823,791.802844391795,804.5483259122336,800.8481629394472,802.2552341734705
1731016101.4609914,793.1170072274734,804.6721580331701,800.9423004402615,794.6964187307493
1731016101.4625895,795.6264902033796,804.7958741599239,801.0383219953236,789.953966916005
1731016101.466493,799.3249895241867,804.9194905644924,801.1354685859374,790.2436247660204
1731016101.4703965,803.1038715173879,805.0430217450165,801.2331170637918,794.5321412386334
1731016101.4742997,805.1853885812028,805.1664813852827,801.3310854802411,799.5068318808742
1731016101.4749708,804.3153413107427,805.2898795478549,801.4294884955424,801.8608502424005
1731016101.4782033,800.8909353602576,805.4132197819995,801.5284896650435,800.2661464670218
1731016101.4798708,797.0887196357405,805.5365034073625,801.6281641371743,795.8600154441347
1731016101.4821067,795.7107627159826,805.6597448317651,801.7284947106514,791.1820055441925
1731016101.48601,798.4186485516785,805.7829893574306,801.829427986825,788.4572343114037
1731016101.4899137,804.5583661067609,805.9063099022123,801.93092159331,788.3890769140229
1731016101.4905589,811.4709048298704,806.0297590199576,802.0329579551461,790.1404725702965
1731016101.4914546,816.1802445665895,806.1532867551574,802.1355341228101,792.3340071158497
1731016101.493817,817.2848279133215,806.2766986612774,802.2386461200082,794.2548968341059
1731016101.4977205,815.604082155971,806.3997684382188,802.3422800576021,796.3715993928809
1731016101.49875,813.1463309721453,806.5225465737786,802.4464140700286,799.7889031724437
1731016101.501624,811.485882182368,806.6456762942121,802.5510296495362,805.0244885483017
1731016101.5055273,810.9841260980133,806.7702672679501,802.6561255977747,811.0926191626586
1731016101.506147,811.1498060018126,806.8969243026761,802.7617211284862,815.7910985777035
1731016101.509431,811.379883349498,807.0242230955608,802.8678331013028,817.1816095075495
1731016101.5133345,811.3831007284685,807.1481184625057,802.9744278531961,815.1503942014883
1731016101.5172377,811.1786956533276,807.2643919084891,803.0813836419201,811.6774292837575
1731016101.5176291,810.9055680973906,807.374641981388,803.1885313976787,809.4394633377498
1731016101.5211413,810.6666988729645,807.491900187162,803.2958177668122,809.8188331161973
1731016101.5217352,810.4851142191601,807.6374928134943,803.4035155464322,811.9623363968337
1731016101.525045,810.33504449145,807.8229620801021,803.5122386536697,813.6814425403797
1731016101.526477,810.1858476881281,808.026166585458,803.6224807544291,813.4413032780333
1731016101.528948,810.023946668918,808.1893806902397,803.7337163682573,811.7742436635724
1731016101.5328517,809.8515999039397,808.2554233270336,803.8437905348881,810.9323937895748
1731016101.5365086,809.6764798092877,808.2114418984593,803.9498663479965,813.0525927716037
1731016101.5367548,809.5038107722986,808.0938420479122,804.0516174211554,818.3317497449054
1731016101.5373232,809.3345194775155,807.9540053732829,804.1549961166652,824.6973802499934
1731016101.5406582,809.1671250823716,807.8247231961046,804.2718441592905,829.2374186466805
1731016101.544562,809.0000557804264,807.7126139849282,804.4103370791829,830.2498516430073
1731016101.5484653,808.8327011495315,807.609666976566,804.5578113827462,828.3291395416876
1731016101.5523686,808.6652635538202,807.5068405612428,804.6702718213145,825.736024555793
1731016101.5529113,808.4981861869778,807.4003873842979,804.6909642111012,824.6620158299355
1731016101.5553875,808.3317565122395,807.2912116841777,804.6042517214172,825.7762113216463
1731016101.556272,808.1660328661092,807.181669220025,804.4851085869693,828.071372811737
1731016101.5601757,808.0009558174213,807.0732791511738,804.4755393715295,829.9184803231777
1731016101.5615,807.8364693502582,806.9662613799493,804.677058249508,830.3415113854838
1731016101.564079,807.672570543499,806.8601488361021,805.0590371350914,829.5157644442057
1731016101.5679824,807.5092974689545,806.754479619429,805.4921284258164,828.2848272043038
1731016101.568499,807.3466980905445,806.6490911185742,805.8697027537294,827.3357966560953
1731016101.5718858,807.1848104252857,806.5440593061286,806.1588036963843,826.7992701264593
1731016101.574267,807.0236599368212,806.4395234522458,806.313682764583,826.4345394585324
1731016101.5757897,806.8632659610452,806.3355711096088,806.1950739461062,825.995926338512
1731016101.5796928,806.7036479961498,806.2322208815369,805.6791004029793,825.4088881664944
1731016101.5835962,806.5448280019136,806.1294580181784,804.9110226315752,824.7294807475542
1731016101.5840876,806.3868295453017,806.0272705050155,804.4140334592412,824.0382714035677
1731016101.5874996,806.2296761232404,805.9256627858412,804.8195906631186,823.377128902337
1731016101.591403,806.0733901790727,805.8246511766741,806.3361607656894,822.7454875081102
1731016101.5931463,805.9179930315838,805.7242541075171,808.3766642379567,822.1250122789062
1731016101.5953066,805.7635052409514,805.6244862000714,809.7156249664818,821.5012238970324
1731016101.5965228,805.6099469346151,805.5253580085773,809.1755653831149,820.8703579455242
1731016101.59921,805.4573379135061,805.4268790281327,806.4431119059735,820.2356089919787
1731016101.5996757,805.3056975990949,805.3290607496772,802.4681700996849,819.6011644470966
1731016101.6031134,805.1550449470809,805.2319172365144,799.1034211997069,818.9690180825445
1731016101.6070168,805.0053984030027,805.1354619516871,798.1078154576139,818.3389699298888
1731016101.6109204,804.8567759062609,805.039701971411,800.1055537495705,817.7099960279277
1731016101.6120255,804.7091949154018,804.9446345015792,804.2047036892342,817.0813511732003
1731016101.6148238,804.5626724299906,804.8502531462125,808.55836756198,816.4528679003067
1731016101.6152637,804.4172250008603,804.7565672192158,811.4681198970615,815.8247231782951
1731016101.6187272,804.2728687327104,804.6636231831402,812.2548557790294,815.1971221038256
1731016101.6226306,804.1296192857577,804.5714999786641,811.3739240905262,814.5701435857611
1731016101.6265342,803.987491880106,804.4802505453016,809.8633640433437,813.943752137058
1731016101.6304376,803.8465013028838,804.3898032368229,808.6382514216994,813.3178737610648
1731016101.630852,803.7066619165901,804.29991324916,808.103614891196,812.6924519844189
1731016101.630905,803.567987667352,804.2103010356261,808.2146457621484,812.0674602466258
1731016101.6315455,803.4304920927013,804.1210247142135,808.7863054750625,811.4428876033807
1731016101.634341,803.2941883290888,804.0328561256924,809.7367676151239,810.8187218061347
1731016101.6382444,803.1590891194569,803.9471206815163,811.0620182694715,810.1949421309703
1731016101.642148,803.0252068210068,803.8645285761954,812.5936099588414,809.5715216857044
1731016101.6460514,802.8925534131072,803.7833770859935,813.8109673753653,808.948433189001
1731016101.64644,802.7611405052274,803.6989603751666,813.9696215399597,808.3256523640313
1731016101.649784,802.6309793448303,803.606823142588,812.5332250423038,807.7031557727069
1731016101.6499548,802.5020808252274,803.5107705082594,809.5875899392615,807.0809137544538
1731016101.6538582,802.3744554934082,803.4319706712146,805.8823183071432,806.4588841020942
1731016101.6577616,802.248113557755,803.4125084193831,802.4525664772871,805.8370160846779
1731016101.6616652,802.1230648954248,803.5166778380403,800.1231600603335,805.2152714855124
1731016101.662028,801.9993190591643,803.8504625540379,799.2406154273172,804.5936539546212
1731016101.6655686,801.8768852836057,804.587531449378,799.7105283711225,803.9722150439884
1731016101.6665685,801.7557724916325,805.9026181750086,801.1643593530778,803.3509975677282
1731016101.6686633,801.6359893017567,807.742011806011,803.0868792919727,802.7299158024773
1731016101.669472,801.5175440368488,809.5995013222373,804.9019239203545,802.1086630475546
1731016101.6733754,801.4004447326269,810.6175931741433,806.0887480054308,801.4868172455938
1731016101.677279,801.2846991420752,810.0813635754745,806.3235178903027,800.8642538578215
1731016101.6776164,801.1703147322983,807.9384735845193,805.5639669484021,800.2416734141544
1731016101.6811824,801.0572986761156,804.8910741858191,804.0323443855178,799.6206290279823
1731016101.6850858,800.9456578508228,801.9891350112898,802.133369144452,799.0023506438969
1731016101.687543,800.835398861967,800.0771969591863,800.3585568019101,798.3854791013842
1731016101.6889892,800.7265280966193,799.4782888146194,799.1886195695039,797.7645578846749
1731016101.6928928,800.6190517729805,800.0065280840621,798.9954542009534,797.1324802298215
1731016101.6932044,800.5129759137236,801.1641465545022,799.9706954487876,796.488581168391
1731016101.6967962,800.4083061842505,802.3818358077045,802.1028479848043,795.8480992662569
1731016101.7006996,800.3050476545301,803.2495603446249,805.178277186412,795.2410701405121
1731016101.701591,800.2032047312329,803.6798077452246,808.7641651144208,794.6882397963772
1731016101.704603,800.1027815856645,803.895155257418,812.190308763402,794.158524184526
1731016101.706422,800.0037831131041,804.1957966656158,814.6244026704708,793.5453630628411
1731016101.7085066,799.9062157328874,804.6506557010915,815.3221957924038,792.7213659398043
1731016101.7087924,799.810086652869,804.9813175120465,813.989293919714,791.6955444389389
1731016101.71241,799.7154006273572,804.7914222461058,811.0234731286735,790.7802652689256
1731016101.7163134,799.62215559229,803.9829868474228,807.4055928704636,790.5589144576646
1731016101.7202168,799.5303420280444,802.9745543987251,804.2435350275158,791.5382878830251
1731016101.72412,799.4399519144737,802.4559920367718,802.2601926512589,793.7102575756111
1731016101.7243807,799.3509969769816,802.8322564502253,801.5637763205705,796.4391415276654
1731016101.7253013,799.2635220153453,803.8437054641531,801.7880495913658,798.8033482379875
1731016101.7280238,799.1775874061204,804.7416509100328,802.4074606231968,800.0914274964547
1731016101.7319272,799.0932053109136,804.8974519589514,802.9921221404417,800.1052910348626
1731016101.7358303,799.010260900514,804.300282488577,803.327722298015,799.190990485722
1731016101.7366135,798.9285132196843,803.4885690686632,803.4337392270972,798.0829658806811
1731016101.739734,798.8477800662052,803.0036740169429,803.4803873776846,797.599893793762
1731016101.7399688,798.7682822119699,802.9182713536323,803.5935234258478,798.2061063894954
1731016101.7436376,798.6908579318889,802.8990120742477,803.6582655271011,799.6034687289826
1731016101.7441804,798.6165639311497,802.7032852134739,803.3307319705749,800.6791324631544
1731016101.747541,798.545428848728,802.5649072334681,802.3358102975824,800.0328351495137
1731016101.7514443,798.4750473046154,803.0527428524451,800.8382535736409,796.9125844970538
1731016101.7553475,798.400847084735,804.537377546224,799.5321283701379,791.9934057228446
1731016101.7555568,798.3198614877888,806.791895092967,799.2815650863957,787.3904250265941
1731016101.7592514,798.2371757069021,809.1046888965324,800.514737528379,785.6903825607174
1731016101.7630596,798.1692326411275,810.7846784121506,802.8093181382184,788.3999966263204
1731016101.7631547,798.1350549676605,811.5931409139031,805.0162162459296,794.7145206896139
1731016101.767058,798.1322022572056,811.740579073942,805.8985636758895,801.5653589118102
1731016101.7709615,798.1124349780017,811.5099782494816,804.8699768813451,805.2608399274751
1731016101.7711449,797.9929054000326,810.917040481217,802.3122369885558,803.8721000795354
1731016101.7716362,797.7362937361818,809.7751909810934,799.2617604032766,798.6828936037264
1731016101.7748652,797.4827262115386,808.1189667419108,796.7446115829902,793.4500140611534
1731016101.7787683,797.6288006882364,806.5327569029872,795.2818786499882,791.846623000673
1731016101.781939,798.7034269085037,805.9532878623938,794.8646623389717,794.9720924337086
1731016101.782672,801.0078383219814,806.9927619374989,795.2444069953185,800.8092526956365
1731016101.7865753,804.2593373204577,809.3241364400378,796.1589096541317,805.9328274828131
1731016101.7867332,807.6132415500834,811.6997355432906,797.3216464772788,808.0122541709152
1731016101.7904787,810.1560701151972,812.6969107296251,798.3640457076715,807.2005109475247
1731016101.7943823,811.4865938532118,811.7026451471063,798.9831086102284,805.5767707318919
1731016101.7982855,811.8749126357195,809.4181269000992,799.2217597624472,805.337869377346
1731016101.8008182,811.8801751739358,807.4580093345189,799.51339355639,807.1961711294193
1731016101.802189,811.7970338459161,807.2582738413146,800.2872310059776,810.0742967841617
1731016101.8023212,811.4055312424742,809.0565181081088,801.4377241814241,812.1626312585635
1731016101.8060925,810.1850290995071,811.7197622177921,802.2215562214093,812.450539305009
1731016101.806659,807.7782908909537,813.5747266407025,801.793402763254,811.5284030417126
1731016101.809996,804.3625104276183,813.6018713383387,799.9505901018617,811.0159369077472
1731016101.8138995,800.6984640850125,812.0711407042998,797.4030394756596,812.0787842359573
1731016101.817803,797.8266092076833,810.1885120540439,795.2970644786378,814.2882174768976
1731016101.8179092,796.5610700026598,809.1374217329849,794.3921862462059,815.810817600324
1731016101.8196976,797.0582691355178,809.3044478452285,794.5797473753961,814.77043917788
1731016101.8217063,798.7317639700609,810.1878393389478,795.107028502313,810.6506500144411
1731016101.82561,800.5966579713125,810.8898533764118,795.2658825454928,804.6630659744361
1731016101.8295133,801.8499821246,810.7537681717314,794.9539354865235,798.9306659731999
1731016101.8334167,802.3286767384467,809.7726044416064,794.6804340993345,795.222609121891
1731016101.8334975,802.5579470364468,808.6114102853087,795.080902291059,794.1316331921474
1731016101.83732,803.3558307358469,808.2424646153443,796.3878628509494,795.0637646583988
1731016101.8385768,805.2374697610508,809.3417744366317,798.276045639469,796.793589457722
1731016101.8412237,808.0123833687561,811.7780668935101,800.1373947325355,798.1217148425587
1731016101.8416817,810.8771356241969,814.5678806987053,801.4932247000996,798.3566984015787
1731016101.845127,812.9581122048683,816.4010082637527,802.2015568734885,797.5647165043565
1731016101.8490305,813.8749924654605,816.4105501486673,802.3586235448521,796.5415868772436
1731016101.8490856,813.8714077377318,814.65977044302,802.0790920375338,796.4234129180809
1731016101.852934,813.4863351400236,812.0439765254317,801.4131624539766,798.034742954229
1731016101.8568373,813.1436338806585,809.7415296631048,800.4668041692335,801.3777152320656
1731016101.857456,812.9853588013216,808.6076019050821,799.5368861851198,805.6714174953521
1731016101.860741,812.9532614707553,808.8374517560009,799.0295540164993,809.904577260272
1731016101.8646443,812.9424953658072,809.9946058082691,799.1541034082684,813.3970895109866
1731016101.8646736,812.8946907122177,811.313761941445,799.6439850518134,815.9123068119865
1731016101.8685477,812.8082348112747,812.1029282310168,799.7866934297854,817.375820730225
1731016101.8724513,812.7070040666398,812.0476616006025,798.8196972684811,817.6405990600998
1731016101.8763354,812.6109250534745,811.2688814588505,796.4648732386031,816.5771437549894
1731016101.8763547,812.5257649966546,810.1303990533462,793.2360052174517,814.3150760311645
1731016101.8767045,812.4475826318818,808.9655603856753,790.2575774962847,811.2870567482083
1731016101.880258,812.3707045607493,807.9428866980488,788.6447223932096,808.0017358957709
1731016101.880262,812.2922347042759,807.145157013017,788.8341766423349,804.8171191950496
1731016101.8841617,812.2122564456602,806.7202842111012,790.3485960306758,801.9790234497233
1731016101.8880649,812.1320572631703,806.8980788346613,792.1755556669417,799.8611886064826
1731016101.8919685,812.0526128687055,807.8283761257394,793.450889388559,799.0704078731906
1731016101.8952146,811.9741302955473,809.4061402110134,793.8911410841442,800.1456005614107
1731016101.89585,811.8963318020191,811.2758602500637,793.6718854706072,802.953015591715
1731016101.895872,811.8188795722388,813.0311088885242,792.9752582179466,806.2853049472731
1731016101.8997753,811.7415947860808,814.4418971116619,791.7279511205128,808.2291524161624
1731016101.903679,811.6644505147311,815.5228189219577,789.8257804366046,807.3320971100255
1731016101.907582,811.5874719791938,816.3866458850317,787.6053325619023,803.7600585884161
1731016101.911438,811.5106617045415,816.9937479731218,786.007257028079,799.3310499233148
1731016101.9114857,811.4339863185119,817.0084138021175,786.1177781214741,796.1295309447298
1731016101.9117272,811.3574003781305,815.9399287835727,788.3747239767303,794.7868304043792
1731016101.914094,811.2808658064868,813.5441109601292,792.11331373794,794.0415227710985
1731016101.9153893,811.2043418668713,810.1860311353864,795.9074560355493,792.1172684987848
1731016101.9192924,811.1277524714425,806.777303967223,798.4951071181204,788.70061071242
1731016101.9231958,811.0509696421993,804.1983981659987,799.5529186489225,785.6362920333463
1731016101.927026,810.9738623658404,802.6173099097973,799.7012663532578,785.6099103327646
1731016101.9270997,810.8964204595112,801.3219400065033,799.8009419835141,789.9317319117416
1731016101.9310029,810.8188663853479,799.2989821432083,800.2245731319696,797.2979330601046
1731016101.9329731,810.741573912313,796.125933331113,800.7517943664299,804.4962891701823
1731016101.9349062,810.6646564077708,792.4327249004278,801.0853996636075,808.444964532003
1731016101.9388096,810.5873867712502,789.5318397702961,801.3759552754454,808.064924723238
1731016101.9426143,810.5080700470644,788.4881738532132,802.1819567173285,804.7714256207436
1731016101.9427133,810.4251545833024,789.3309612249299,803.9132943193218,801.3960233430217
1731016101.9466166,810.3396091221879,790.9959019656562,806.354104853474,800.3925014903408
1731016101.94675,810.2567892239086,792.0527440445312,808.7820922411064,802.5961714337516
1731016101.95052,810.1844021244226,791.7052979676741,810.5913512090932,807.2687341210087
1731016101.9518523,810.1243523508938,790.3358805908459,811.8101238790717,813.0429855404857
1731016101.9544234,810.0622026476442,789.1819763870335,812.9996366266729,818.7065646811367
1731016101.9582024,809.966400752919,789.3908209793948,814.6274912170636,823.2304007173368
1731016101.9583273,809.8113299395287,791.1941872918849,816.5288865210802,825.507191338149
1731016101.9622304,809.6222135849795,793.8362907009054,817.9896676482347,824.6329640617936
1731016101.9661338,809.5053882967503,796.2369844935836,818.3795994337073,820.7605484241836
1731016101.9700372,809.5999190160546,797.7715517815374,817.7235663866288,815.5542917448529
1731016101.9707315,809.914674753983,798.5503270820268,816.6589612427641,811.3810308414594
1731016101.9737904,810.1299963586353,799.118792580304,815.8333874619817,809.6364447064185
1731016101.9739406,809.587549755353,799.9798968177388,815.3446309548831,809.6948551310542
1731016101.9778442,807.6781418997965,801.328763786848,814.7696036691755,809.60850003714
1731016101.9817476,804.4863187916408,803.0441175959938,813.7334182044922,808.0714065280972
1731016101.981773,801.0799972147673,804.7616410770364,812.4324713700148,805.8609902098574
1731016101.985651,798.9138106830501,805.9461808287505,811.5749010331588,805.3309242180264
1731016101.9893787,798.6779002071949,806.045234884743,811.7788979463336,808.2880229346738
1731016101.9895544,799.6672463419579,804.7666813177799,813.0020495444111,814.0890203524691
1731016101.989611,800.3635475835711,802.3227638107387,814.547668348958,819.6451256481656
1731016101.993458,799.7320474907516,799.405123620169,815.6427273581268,821.4086557473652
1731016101.9973614,798.0158284267106,796.8512612751708,816.0457339008206,817.8001036714246
1731016102.0012648,796.2895840412951,795.2437522967955,816.1364908837057,810.246241235909
1731016102.0049667,795.2268214487914,794.7366485416833,816.4528798663376,802.1581547711072
1731016102.0051682,794.3017666563783,795.1620267198676,817.1518059198678,796.7440472987504
1731016102.00849,792.2498028533186,796.2057484976241,817.8867454780418,795.2784817310404
1731016102.0090718,788.3976478527773,797.4533287678605,818.1487683048753,796.8885134627681
1731016102.0129752,783.6103086325131,798.3599922556846,817.7004517039408,799.6832430720478
1731016102.0167954,779.9435064709937,798.3619198512079,816.7297877715885,802.1902773518483
1731016102.0168786,779.2934349823269,797.1921677853079,815.6730655414517,804.126439104818
1731016102.0205548,782.1938451833067,795.160089774024,814.9236050830798,806.2236785739187
1731016102.020782,787.630898838735,793.072721391637,814.6407277212179,809.4533281336576
1731016102.0246856,793.7554265441153,791.7658313811044,814.7146463178944,814.1675713152372
1731016102.0273695,798.748496564104,791.5964195884246,814.8442314775415,819.57567516369
1731016102.028589,801.3350391529685,792.314906784303,814.6909906576817,823.8559421920254
1731016102.0324924,801.0130100079452,793.3881502613482,814.0718550750044,825.0065961906871
1731016102.0361433,798.2053261082734,794.4303401214505,813.0944965933195,822.095575442148
1731016102.0363958,794.2051155742838,795.3442570101375,812.1191939548813,816.1100961367566
1731016102.0402992,790.6349876974009,796.1205007812007,811.5377775422286,809.6711555412488
1731016102.0442028,788.5933710904458,796.602390163573,811.5166381910108,805.639415398393
1731016102.046249,788.1592411472966,796.5261877562291,811.8979982923559,805.528203622518
1731016102.0481062,788.6576827502499,795.8242006376622,812.3394828782598,808.8365109030487
1731016102.051731,789.32725829281,794.8869826296531,812.594761432847,813.6969110319324
1731016102.051818,789.7691457523042,794.4936981717632,812.7300730116551,818.2289319861708
1731016102.0520096,789.9648874496888,795.3943352456117,813.1006050470378,821.5563068507151
1731016102.055913,790.0630225637975,797.813944820349,814.0664684542774,823.858654881197
1731016102.0598166,790.1884504145675,801.2272857267163,815.627006811149,825.6174346922099
1731016102.06372,790.377023334594,804.5784036666158,817.2549442606771,826.7493895731888
1731016102.065128,790.6036460691059,806.8290531848043,818.1080331167266,826.3390891543366
1731016102.0673192,790.8326227438803,807.5126938962675,817.5221535714221,823.2693449486723
1731016102.0676234,791.0459823837905,806.9680878011551,815.4485888939104,817.3893336606576
1731016102.0715268,791.2445995709896,806.1139921575677,812.5100251461485,810.2978167782812
1731016102.0754304,791.436908294858,805.8961585320184,809.6401951935574,804.888271963495
1731016102.0793338,791.6293306581191,806.7400412822237,807.5998634436389,803.7123003453141
1731016102.0829072,791.8234216852272,808.3404810525366,806.7203505167561,807.3012907269822
1731016102.0832372,792.0176844510187,809.8936153612151,806.9648033916486,813.7714482468167
1731016102.0840073,792.2102584353584,810.5855649558277,808.1012052633612,820.0435651081176
1731016102.0868409,792.4003035459107,810.0168456934814,809.762130216967,823.740926946335
1731016102.0871406,792.5879587328964,808.3387511560259,811.410876862073,824.4002724435354
1731016102.091044,792.7737134566569,806.0941343780141,812.4238725761516,823.2703776857322
1731016102.0949476,792.9579188319601,803.9192949252632,812.3862428798151,822.0251527272991
1731016102.0984955,793.1406637311865,802.2881784578661,811.3967809763479,821.4070515449828
1731016102.098851,793.3218857372772,801.3945914291144,810.0548839448035,820.7738732341332
1731016102.1027544,793.5015159854593,801.1693623424798,809.0549780889423,818.8289800257346
1731016102.1028864,793.679550979084,801.3842094216985,808.7110174530831,814.9100558563589
1731016102.1066575,793.8560482805503,801.7858450869095,808.8262228819179,809.7398576528497
1731016102.1105614,794.0310856296805,802.199790766163,808.9753618379303,804.9712469008035
1731016102.1140835,794.2047172797666,802.5613243391916,808.8727807062278,801.956306605579
1731016102.1144648,794.376948001373,802.881177793302,808.5033168908736,800.8941312992
1731016102.118368,794.5477444486673,803.1918782392494,808.0080373534379,801.0205824940604
1731016102.121766,794.7171003610948,803.5137413392533,807.5203926024884,801.404630419566
1731016102.1218636,794.8851367054398,803.8487542985663,807.0915035627228,801.5308912930443
1731016102.1222715,795.0521482102964,804.1896815112563,806.7065490847184,801.3539862792758
1731016102.1261752,795.2184641607057,804.5298329272563,806.332056125241,801.0489319623828
1731016102.1296716,795.3840801215424,804.8669516357214,805.947569447401,800.7728708126637
1731016102.1300786,795.5482897432477,805.2021244687475,805.5510287837237,800.5760128171943
1731016102.133982,795.7098497703697,805.5372274722783,805.1495532209383,800.4308819188157
1731016102.137885,795.8681448557959,805.8733355984793,804.7497336646355,800.2936587285137
1731016102.140645,796.0249854282422,806.2105397979977,804.3537866832675,800.1408341189151
1731016102.141789,796.1852654151901,806.548483138483,803.9606332974422,799.972297799525
1731016102.14526,796.3540117912728,806.8868710094648,803.5684213716786,799.7980535209227
1731016102.1456923,796.5293294881931,807.2256514339467,803.1760927137556,799.6261920590731
1731016102.1495955,796.6960552975731,807.564940785575,802.7835604879931,799.4589180640929
1731016102.1534991,796.8302951542589,807.9048860743861,802.3911784729612,799.2945208163036
1731016102.1568863,796.9227131533474,808.2455855034257,801.9992375699132,799.1306683467113
1731016102.1574025,797.0116754232736,808.5870836771928,801.6077886915724,798.9662118705252
1731016102.1595244,797.1913973751181,808.9294029886134,801.2167167779978,798.8012219096425
1731016102.160848,797.5508818182367,809.2725730448025,800.8258767273815,798.6362412351841
1731016102.161306,798.0430352733048,809.6166422116878,800.4351710615057,798.471668202543
1731016102.1652095,798.3890829838145,809.9616718675253,800.0445536568294,798.3075831873621
1731016102.1691127,798.2060650370016,810.3077191690019,799.6539986038288,798.1438766730336
1731016102.1730163,797.4146326072424,810.6548168642852,799.2634729998446,797.9804280874387
1731016102.176436,796.608127506414,811.0029657597603,798.872929248369,797.8171904585885
1731016102.17692,796.8716924918928,811.3521601937288,798.4823133738355,797.6541711453183
1731016102.1784036,798.9904296622572,811.7024515229,798.0915784523563,797.4913701054961
1731016102.180823,802.7218890288525,812.05400949843,797.7006917528741,797.3287446384796
1731016102.1847267,806.9052377029333,812.4070916394246,797.3096266009304,797.1662419660867
1731016102.18863,810.3859396903057,812.7618440241317,796.9183378338562,797.0038908038036
1731016102.1919093,812.8829351093475,813.1179992797363,796.5267364993758,796.8418749902066
1731016102.1920242,814.9488069319291,813.4747738623546,796.1346978720414,796.6804627221562
1731016102.1925335,817.0696697221351,813.8313779119161,795.7421332519017,796.5197157553422
1731016102.1964371,818.8309029474946,814.1882090009518,795.3491048758669,796.3591180454433
1731016102.1972828,819.0680683543474,814.5479016717123,794.9558742861893,796.1975581637864
1731016102.2003405,816.9931608628688,814.9145156896982,794.5627261554345,796.0341577404015
1731016102.204244,813.2796410249141,815.2895735290467,794.1695262242865,795.8698612436746
1731016102.2076125,809.9933729283952,815.6665262423431,793.7753033837221,795.7084849422647
1731016102.2081475,809.2532337454098,816.0296031824255,793.3784954065784,795.5549830288146
1731016102.212051,811.6984823096482,816.3645188232055,792.9783814297232,795.4097603890065
1731016102.2159543,816.0707616284341,816.6811573785635,792.5771931680542,795.2620549931152
1731016102.2161622,820.241839484737,817.0310132455497,792.1807365587251,795.0907736420227
1731016102.2198577,822.7708655912921,817.4866640043504,791.7946453244641,794.8814466465535
1731016102.2232003,823.7111880098814,818.0614783319393,791.4159215683623,794.6560167759972
1731016102.223761,824.1476245970767,818.6030838509739,791.025819062767,794.4891222061992
1731016102.2269318,825.0380229313336,818.7686090499128,790.5962271795909,794.4690982652803
1731016102.2276647,826.3934155298834,818.189119263078,790.1182805166427,794.5864768109662
1731016102.231568,827.3836565213123,816.7653943687869,789.641383882306,794.6141089382835
1731016102.2350414,827.1195526470364,814.8247622657439,789.280649606905,794.1365722345822
1731016102.2354715,825.3784831576253,812.9199122625371,789.1428359724389,792.8672505237628
1731016102.2387884,822.7233765954153,811.4113709935611,789.1789598217302,791.1375952206204
1731016102.2393749,820.0324763017145,810.2276154455797,789.0854947372735,790.0701492294685
1731016102.2432785,817.8912375409251,809.0156701053701,788.4089869987525,790.9405928747041
1731016102.247182,816.3110852710738,807.501880962897,786.8371000798355,793.9486773864176
1731016102.2510853,814.9204952321593,805.7174996829468,784.4421159462013,797.4866464386185
1731016102.2539208,813.405629626013,803.9347767625716,781.6761831258062,798.8884609745278
1731016102.2543766,811.8175674805809,802.4496487358426,779.1690793037054,796.3622333350844
1731016102.254989,810.5110449720544,801.433235861126,777.5236169607501,790.5693195576608
1731016102.2588923,809.814580312034,800.9256015177446,777.2014975999972,784.4300419948809
1731016102.2619543,809.7657952849446,800.8815252282271,778.4388882379366,781.1903300668827
1731016102.2627957,810.158140563499,801.1817793605394,781.1473714294392,782.2623534013895
1731016102.2666993,810.8201782423716,801.6406434331727,784.8960310767997,786.5174218652086
1731016102.2699647,811.8160348930786,802.0858031152318,789.0926741158698,791.4326902694381
1731016102.2706025,813.3489335399046,802.4935246318996,793.2907379580406,794.9611236477518
1731016102.2728,815.461983519185,803.0577706000298,797.3634071460565,796.5884721964583
1731016102.274506,817.8422901434304,804.1001991871626,801.3780684564449,797.0215019236593
1731016102.2784095,819.9417722436613,805.8623349004148,805.3092809966572,797.2389305705751
1731016102.2823129,821.3235455009125,808.3128995807062,808.8883473007463,797.9514198149907
1731016102.2855527,821.9196579474919,811.0775037187578,811.7077642303826,799.7090296209826
1731016102.2862165,821.9689131398052,813.5225808541846,813.4161343692983,803.0279231734395
1731016102.2901196,821.7196574519339,814.9788464498051,813.8072072541262,808.0018930035314
1731016102.2916791,821.2055897363377,815.0469647478553,812.8224854597051,813.7221828173296
1731016102.2940233,820.2934588942483,813.8448504282787,810.6176778648638,818.3295620539702
1731016102.2969773,818.8940376656705,812.0058411903477,807.7034039580984,819.9990082701614
1731016102.297927,817.082831739614,810.353918428711,804.9666835442938,818.1758720270785
1731016102.301141,815.0368881359675,809.441422347856,803.4077772781012,814.0281543898192
1731016102.30183,812.9123228196977,809.2902160054894,803.6781152247291,809.7158960781508
1731016102.3057334,810.7857060726565,809.5205498448613,805.7066750165516,807.044703975431
1731016102.3096373,808.6399719065415,809.7100458530159,808.6675730706274,806.4861452224089
1731016102.3105586,806.3633709108337,809.6601320371473,811.335725522234,807.1651208894084
1731016102.3135405,803.8440284623409,809.4098345058386,812.6643538771108,807.6752591097911
1731016102.3167293,801.2023300199714,809.0919864026732,812.2936548365844,807.0762506905558
1731016102.3174438,798.9611505631431,808.8035862094598,810.7062980272756,805.4247405271811
1731016102.3213472,797.8696412436207,808.5678353728555,808.9165918701101,803.5917716867069
1731016102.3252509,798.4079939130444,808.3624265698951,807.8647735465402,802.6181978401785
1731016102.3291545,800.3876900077234,808.1596483608579,807.8903174740215,803.1203015314148
1731016102.3294375,803.0262652076409,807.9468403084769,808.5940921799083,805.1067918245711
1731016102.332,805.4246959692056,807.7257285783556,809.1232564454378,808.1600983096786
1731016102.332317,807.0242930625966,807.5031339022414,808.6769181305006,811.6694395799622
1731016102.3330576,807.7300226516201,807.2837884944103,806.983465751229,814.9267691443813
1731016102.336961,807.7561156517418,807.068551374612,804.5525327750134,817.2049635227842
1731016102.3408644,807.4354275419387,806.8560604029711,802.5487537858199,818.0114238663
1731016102.344768,807.1034849150071,806.6448296638732,802.2455984199447,817.4440645811453
1731016102.3479054,806.981363800106,806.4342278906137,804.2826195369089,816.3151979805587
1731016102.348317,807.0030437725052,806.2243646043095,808.1978518623572,815.8079096428764
1731016102.3486714,806.7117120028158,806.0155778928781,812.6211662886615,816.820061856945
1731016102.3525748,805.417315460065,805.8080710427755,816.0468588307066,819.4381764576192
1731016102.3564782,802.6208897510248,805.6018403225976,817.639398535379,822.8986632963478
1731016102.3603818,798.4332350296578,805.3967732458457,817.5151643262982,826.0442063674384
1731016102.3634934,793.6466390701894,805.1927588403905,816.4042890943072,827.9668603173953
1731016102.3642852,789.3627383389061,804.9897339518845,815.0792079471535,828.4329027090995
1731016102.3670228,786.4235637402463,804.787672422875,814.0006581818214,827.8445809793478
1731016102.3671963,785.0334195514235,804.5865557252256,813.3025155009826,826.8384327258426
1731016102.3681886,784.8039659488425,804.3863542073658,812.916181674169,825.8778358124769
1731016102.372092,785.1563726565169,804.1870268457034,812.625039979888,825.1109926414371
1731016102.3759956,785.7827114072797,803.9885327450003,812.0557172215397,824.4738933990118
1731016102.3790815,786.8355031556282,803.7908421704693,810.7623699490326,823.8564654592902
1731016102.379899,788.7098505195029,803.5939351646416,808.482626812126,823.1992901475219
1731016102.3838024,791.5962483980445,803.3977818724802,805.4312615378875,822.5023921782575
1731016102.3860755,795.1651789671615,803.2023138193481,802.3618558950029,821.791507210584
1731016102.3877058,798.6199686262414,803.007416180005,800.2227869744822,821.0873977052108
1731016102.3916094,801.0489656267993,802.8129782675766,799.5489862640219,820.3957320922302
1731016102.3946695,801.8286602032175,802.6190044852553,800.0386109229669,819.7121525674436
1731016102.3955128,800.8902641311487,802.4257041956811,800.7360230822601,819.0307133147824
1731016102.3994162,798.7915464206367,802.2334022359769,800.7748790269599,818.3484977059019
1731016102.4020455,796.5701528037694,802.042162736795,800.0893904276887,817.6657090433794
1731016102.4033196,795.354913848412,801.8512930679632,799.4452253468586,816.9837592972721
1731016102.404955,795.8173346453074,801.6592900666113,799.7228452498197,816.3036916280823
1731016102.407223,797.735245062102,801.4648934428741,801.0803501362694,815.625732073884
1731016102.4102578,800.0149176309229,801.2691839914274,802.7420253531852,814.9496067519237
1731016102.4111266,801.296888695886,801.0770633547216,803.582613359285,814.2749899634537
1731016102.41503,800.8233888656995,800.8951467082597,802.9734259277293,813.6017285883188
1731016102.4189334,798.9377061290273,800.7243821560556,801.1829971647217,812.9298299978697
1731016102.4228368,796.7876713334961,800.5511576610866,799.0870847796839,812.2593556262203
1731016102.423834,795.4430468403889,800.347899595143,797.5431075771653,811.5903403023832
1731016102.425846,795.1416005443784,800.0951378852936,796.9603156471471,810.9227732900844
1731016102.4267404,795.2483673475392,799.8222197179355,797.2741210420388,810.256618578799
1731016102.4306438,794.8767033569343,799.6346293599272,798.1348208218836,809.5918404893297
1731016102.4345472,793.6010316847013,799.6778300305589,799.0609507550313,808.9284156279459
1731016102.4370682,791.7318372878584,800.0287435287856,799.5444846919787,808.2663290250699
1731016102.4384506,790.0823900104498,800.6109989519127,799.2487184971118,807.6055611137521
1731016102.441434,789.5494238650203,801.2622877102019,798.2908561295701,806.9460757456944
1731016102.4423542,790.8327031175834,801.9118613415385,797.3557287014323,806.2878213458329
1731016102.4427133,794.3249977194296,802.6467461318969,797.4025484348887,805.6307541124286
1731016102.4462576,799.9826148946203,803.5620390088516,799.0634358713738,804.9748761680138
1731016102.450161,807.0995015414617,804.5727569493686,802.1640649959242,804.3202538903855
1731016102.4540644,814.2225023280887,805.411575882074,805.7636635665239,803.6669653148211
1731016102.4570222,819.5459847844154,805.8051229192791,808.7101012398207,803.0149601030362
1731016102.457968,821.7778007979607,805.6378776485376,810.2976718153383,802.3639197931964
1731016102.461593,820.9502203849644,804.9783299958419,810.5629465525813,801.713321498014
1731016102.4618714,818.5056074046004,804.0187359099842,810.0733408192178,801.0628819933236
1731016102.4657748,816.456245631522,803.0359554562682,809.444304535289,800.4132410913253
1731016102.4696782,816.1456125592936,802.3829378717309,808.9569031974742,799.7662082442589
1731016102.472091,817.49004955518,802.4233263284458,808.4931552515106,799.1236341899605
1731016102.4726102,819.2283485618925,803.3527628048614,807.7456515021405,798.4847227297438
1731016102.4735816,819.92924174695,804.9843919588099,806.4960655363782,797.8436171712667
1731016102.4774852,818.9459186527713,806.6839705869104,804.773466087777,797.1911216698537
1731016102.4804718,816.6255501674326,807.5988309642648,802.8401413878432,796.5235012113661
1731016102.4813886,813.7617189618952,807.116995320302,801.0832086608468,795.8548377344111
1731016102.485292,810.9014878249889,805.2640288096987,799.9125355635138,795.2193282804202
1731016102.4881985,808.124033349047,802.7238244714664,799.6840414234753,794.6457055701403
1731016102.489195,805.3443909313535,800.4347655059435,800.5948019180588,794.100888120834
1731016102.493099,802.684428003366,799.0544507834544,802.5374081598711,793.4389362080278
1731016102.4970024,800.5019873459254,798.6812512834695,805.0197719254247,792.4344131427767
1731016102.4993513,799.1182775029238,798.9761191064463,807.2931105151383,790.9688073903797
1731016102.5009058,798.5684223333714,799.4905366183352,808.6877796129692,789.3162671178299
1731016102.5037866,798.5722377952917,799.8991966208525,808.9469503470635,788.2943877776736
1731016102.5048091,798.6667000583898,800.0197353508364,808.299919904377,789.0123612438331
1731016102.5071137,798.3849664567433,799.7423872108853,807.2173339060181,792.2113729853121
1731016102.5087128,797.4550554796879,799.0407632327777,806.0672823937113,797.5904757179064
1731016102.5126162,795.9897109499921,798.081948591756,804.9765469454444,803.6659265001838
1731016102.5165195,794.5422994620183,797.2959751435069,804.0028637199947,808.4162465162048
1731016102.5182304,793.9168484613145,797.2674512643246,803.4180889762008,810.4113381835872
1731016102.5193746,794.8022927283243,798.4563867669956,803.7686328453752,809.7211749420255
1731016102.5204227,797.4530821693108,800.8992697336344,805.5527351795228,807.9445763754228
1731016102.5243266,801.5889226095866,804.0791924646946,808.7091934633069,807.2149785398049
1731016102.52823,806.5155173217433,807.0785030033119,812.3567339119784,808.763397372411
1731016102.532133,811.3602806584231,808.9816460262807,815.1156704077263,812.0503513718664
1731016102.534963,815.3162957333507,809.3347303442932,815.9045457139796,815.1724409190755
1731016102.5360367,817.8165864566424,808.3812625256755,814.6626872454553,816.2978482045048
1731016102.5371096,818.5942775040767,806.8837568330231,812.4112069163849,815.034912855581
1731016102.53994,817.657541356192,805.612415046255,810.5380677817196,812.666522607228
1731016102.5421364,815.2756812935617,804.8576534864957,809.823413889603,811.1099397604121
1731016102.5438435,812.019041174271,804.349316461237,809.9623311166607,811.4883040018999
1731016102.5477471,808.7355163858266,803.6571870098995,809.9492022527742,813.4498149512602
1731016102.5505507,806.2870331698599,802.7285748839287,808.9756766323798,815.6703860063827
1731016102.5516503,805.065537694064,802.0650901803596,807.0836519426604,816.9760189562598
1731016102.555554,804.6122611791496,802.3338294462778,805.0704871514356,817.0934692343769
1731016102.555989,803.7329087607792,803.7274105988075,803.8219018765432,816.4936817653888
1731016102.5594575,801.176642330841,805.6644612133009,803.7122235433857,815.6430078327746
1731016102.5633607,796.470776828455,807.1594465653067,804.5468763081082,814.4446814665009
1731016102.566139,790.3112183739188,807.5813787552124,805.9437602193833,812.3861283602936
1731016102.5672643,784.206700234763,807.132004851939,807.6656932363325,809.2102827814149
1731016102.5711677,779.6305556577676,806.6121111869973,809.5785168276263,805.4222229119747
1731016102.5748682,777.2805843102273,806.7040685269789,811.3764256420159,802.0820382546559
1731016102.575071,776.9067585440068,807.4296241242413,812.470262906849,800.0481615940497
1731016102.5771592,777.6970123096867,808.2278466330495,812.2478032238258,799.4129807882425
1731016102.5789747,778.8388040557221,808.494120157076,810.5223432230314,799.6217709477994
1731016102.581727,779.8696026396657,808.0455600206996,807.7780924719217,800.014100825732
1731016102.582878,780.696491469465,807.1446282144691,804.9716315053677,800.2253331073391
1731016102.5867815,781.4185057480412,806.1697536761388,803.0098353991374,800.222576292266
1731016102.590685,782.1471963157767,805.3039317050236,802.2847332354478,800.1285202194351
1731016102.5937476,782.9271659452526,804.5123628701018,802.5882563221919,800.0535974540035
1731016102.5945885,783.7455275368493,803.7636263085428,803.4116721316885,800.0331568430499
1731016102.5973153,784.5724705196714,803.2239401176513,804.337856094822,800.0479124148734
1731016102.598492,785.3894601409821,803.2003313313376,805.2106644818235,800.0670456725366
1731016102.6023953,786.1943741637356,803.8638476865715,806.0084629698797,800.0739950973665
1731016102.6062987,786.9934758232276,805.0115465896802,806.6192462328419,800.0686517154616
1731016102.6102023,787.792730819415,806.111084391842,806.7749538932251,800.0580291025999
1731016102.612182,788.5942634262907,806.6213574975285,806.224705163497,800.0478050870458
1731016102.6126268,789.3972344517229,806.3346946826728,804.9925904208637,800.0395218800708
1731016102.6129034,790.2000707847609,805.4751082891353,803.4808116969389,800.031967391337
1731016102.6141057,791.0018826168423,804.505195768239,802.2960202975722,800.0234904501392
1731016102.618009,791.8026458498747,803.8211233380955,801.890931651152,800.0132706294314
1731016102.6219125,792.6027396621942,803.5615445661907,802.2757809194093,800.00134512744
1731016102.625816,793.4024958336106,803.6243259240622,803.0385799079716,799.9880846386837
1731016102.6284914,794.2020349130281,803.816331454232,803.670397639422,799.9737603415431
1731016102.6297195,795.0013284124062,803.9939657200388,803.9066659936118,799.9584214007195
1731016102.631506,795.8003195052303,804.1108860139346,803.8030397965792,799.9419828902652
1731016102.633623,796.5989929754616,804.1867475762856,803.5650421704138,799.924348164546
1731016102.6375265,797.3973782222607,804.2557486435535,803.3550662198251,799.9054666356224
1731016102.64143,798.1955200312133,804.3364726940391,803.2222772502372,799.8853246495494
1731016102.6440794,798.9934540733651,804.4290225557482,803.1386507741503,799.863914462409
1731016102.6453333,799.7912039898523,804.525446504397,803.0612041676618,799.8412224158144
1731016102.6472046,800.5887967466082,804.6192884407814,802.967607643645,799.8172473499801
1731016102.649237,801.3862797651358,804.7087700739138,802.8584288357875,799.7920263762003
1731016102.6503854,802.1837179796458,804.7952397729259,802.7437394266252,799.7656247360723
1731016102.65314,802.9811569048471,804.8805535603709,802.6314033468559,799.7380598809134
1731016102.6570437,803.7785667646028,804.9656327156989,802.5234168966365,799.7091920055484
1731016102.6596675,804.5758253040933,805.0504280933121,802.4180002495337,799.6787017057384
1731016102.660947,805.3728140014013,805.1345112817658,802.3128554055943,799.6463037406036
1731016102.6648505,806.1696362713765,805.2175657847447,802.2068902406807,799.612197500195
1731016102.668754,806.9668013387336,805.2995283083135,802.1002061323563,799.5774114301586
1731016102.6692646,807.7650609882214,805.3804913656862,801.9933469819259,799.5433993111994
1731016102.6726573,808.5646764405393,805.4605641389164,801.8866999917365,799.510483050061
1731016102.6752558,809.3644254059427,805.5398023295265,801.7803361070871,799.4758760379115
1731016102.6765609,810.161448117177,805.6182114872129,801.6741392405156,799.433604462044
1731016102.6804645,810.9532690233298,805.6957798357593,801.5679790484344,799.3789588841378
1731016102.6822274,811.7419413919591,805.772503262789,801.4617945588383,799.3170149616794
1731016102.6843677,812.5371065956787,805.8483913232459,801.3555870109059,799.2682366442718
1731016102.688144,813.3520833614723,805.9234613245962,801.249377550967,799.2591527745396
1731016102.688271,814.1894330633644,805.9977309728345,801.1431756594254,799.2918798640588
1731016102.6908438,815.0230460218739,806.0712149779872,801.0369721981112,799.3087960334562
1731016102.692175,815.7982416962179,806.1439254703675,800.930749309262,799.1974771281365
1731016102.696078,816.4738389527222,806.2158738025614,800.8244943381108,798.8827128106741
1731016102.6999817,817.1013470657228,806.2870718553809,800.7182078728823,798.4891514438618
1731016102.7038848,817.8773479197397,806.3575323519245,800.6118993804365,798.4373590488003
1731016102.706432,819.0633516268891,806.4272685307282,800.5055686306731,799.2623342958698
1731016102.7070231,820.735422450452,806.4962936181786,800.399182180677,801.1024618476656
1731016102.7077885,822.5404500323885,806.5646203362745,800.2926698912435,803.2388297912853
1731016102.711692,823.788315811961,806.632260636788,800.1859705002735,804.3227393327154
1731016102.7155952,823.9613304830402,806.6992259945331,800.0791241259246,803.4202382647657
1731016102.71725,823.1908782570932,806.7655285280362,799.9723398451746,801.0395376118579
1731016102.7194986,822.1118851351689,806.8311825229813,799.8659077539041,799.0386536013436
1731016102.72202,821.1002292791569,806.8962047772039,799.7598774647144,799.2163869230525
1731016102.723402,819.6409445327532,806.9606117293662,799.6536606169789,801.6528296140851
1731016102.7259023,816.6073140669031,807.0244132511773,799.5460342795218,804.2950049287631
1731016102.7273057,811.4056283135769,807.0876076612819,799.4360719613202,804.3775688143303
1731016102.731209,805.0065966303252,807.1501868031223,799.3248792741877,800.6769841307615
1731016102.7351124,799.7900962152368,807.2121571454434,799.2166785028314,794.7270712480056
1731016102.7376082,798.0974427283923,807.2735674843692,799.1168016480119,789.8879577833189
1731016102.7390158,800.5953155283695,807.3345117314749,799.0254080051603,788.9639408396573
1731016102.7429194,805.8397999333458,807.3950696796767,798.9303860856152,792.2807076543834
1731016102.7447815,811.4223600805074,807.4551895724815,798.8086721344195,797.6954064575498
1731016102.7468228,815.6742140797121,807.5146059767948,798.6452206029209,802.4000980330445
1731016102.7507262,818.4418650496564,807.5729591709096,798.4654258308977,805.0055534661614
1731016102.7522726,820.3850675555021,807.6302098029281,798.3515860074715,806.2966422360504
1731016102.7531962,821.6768684526829,807.6871377066129,798.3979344447473,808.1799818019623
1731016102.7546296,821.5020475163667,807.7453113554898,798.5869690254142,811.7790047523872
1731016102.7585332,818.8646758456865,807.8058700531441,798.6589287295751,816.2873054177387
1731016102.7624366,813.8471268143381,807.8673139649925,798.1442099480761,819.5537296310199
1731016102.763661,808.0056045459752,807.9241976483866,796.6935944925187,819.9197180559189
1731016102.76634,803.4737264868402,807.9698222691502,794.5626615957385,817.7560578831526
1731016102.7687843,801.6135569288871,808.0043094310612,792.7822204110616,815.390860556467
1731016102.7702434,802.3974192858464,808.0434346132043,792.6497212016764,815.482099818892
1731016102.774147,804.8693344820123,808.1163128366067,794.8021665322723,819.1630985051362
1731016102.7780504,808.0085258995165,808.2402855988572,798.6439915471655,825.3772116921897
1731016102.7819538,811.1585840469048,808.3785729331955,802.6764640933184,831.7277675763694
1731016102.78254,813.8924159465142,808.4172368447796,805.4944336039244,835.9640262575883
1731016102.7843726,815.8208865905336,808.2139411592881,806.6457694297167,836.9660145665223
1731016102.7858572,816.7059054671654,807.7225003267192,806.7042584493059,834.8260051081239
1731016102.787295,816.6624708483162,807.0836785429126,806.5976140845203,830.4429999388926
1731016102.7897606,816.0975457367643,806.5380955099433,806.8162990170327,825.1478143799347
1731016102.7936642,815.4279618439109,806.1995778690443,807.1361101879276,820.4076872907904
1731016102.7975676,814.8709392856836,805.9403669593219,806.9943189384497,817.3836899039474
1731016102.7999606,814.4405526841317,805.5548616960592,806.1278826701744,816.397930154169
1731016102.8014195,814.0607202414611,805.0499829703336,804.9224915686041,816.7655286736211
1731016102.801471,813.666062762997,804.7440491869509,804.1949856431364,817.3256414130478
1731016102.8053744,813.2372545499877,805.0259348916887,804.5824450641508,817.3664408579742
1731016102.809278,812.787014974313,805.9585776331957,806.0015298678851,817.1486804264946
1731016102.8131814,812.3339251781713,807.0956683361686,807.5854686807716,817.4880577809773
1731016102.815549,811.8874655194873,807.7280783837027,808.1648011873904,818.7152096665617
1731016102.8170848,811.4472554737788,807.3927684143852,806.9781619029845,819.9959879498958
1731016102.820299,811.0088829060527,806.214369458366,804.1434590099643,819.7612248796279
1731016102.8209882,810.5689265289125,804.7846127987256,800.591594373983,816.9824597716023
1731016102.822318,810.1264945148631,803.7074495143687,797.5399289752723,812.1684863051365
1731016102.8248918,809.6823047913343,803.2316106329101,795.8880011958964,807.1394054514682
1731016102.8287952,809.2372835825585,803.2656213313666,795.9231725138507,803.7618922476187
1731016102.8311367,808.7918324845772,803.6687010398878,797.4325885964901,802.7968124096345
1731016102.8326986,808.3458404124669,804.4579652249124,799.9925813243221,803.8196961418982
1731016102.836602,807.8990077076493,805.7145989959464,803.1419126955801,806.0433562642886
1731016102.839178,807.4511019679488,807.3293202271323,806.3704743711141,809.0257373537077
1731016102.8405054,807.002026095366,808.9055990223032,809.1008705807347,812.5541629748246
1731016102.844409,806.5517656638687,809.9561132949339,810.8384568227469,816.0295577338951
1731016102.846725,806.1003188306298,810.1994676566404,811.4379911873053,818.2530755832199
1731016102.8483124,805.6476595066865,809.656400805188,811.2419137281593,818.0444223425914
1731016102.8522158,805.1937286473258,808.4719919173518,810.893250838581,815.1651580360787
1731016102.8561192,804.7384329598623,806.6965652570834,810.8852748685678,810.6319106464379
1731016102.8573408,804.2816500923527,804.3039812721738,811.166921678817,806.0871831090836
1731016102.8580573,803.8232615906003,801.4585957124779,811.1497839535082,802.8081120416236
1731016102.8600228,803.3632243226664,798.7430587189557,810.1852506184166,801.2066275809815
1731016102.862313,802.9016364472843,797.0429375651003,808.1764450887795,801.0731148741231
1731016102.8639262,802.4386926252153,797.0811511743593,805.8052160830738,802.0651410866449
1731016102.8678296,801.974441147744,798.9296376190656,804.1166181347348,803.85589775094
1731016102.871733,801.5084298201173,801.8859312095097,803.7500941238704,805.917759311101
1731016102.8756366,801.0396074373808,804.8339661125541,804.4536919028754,807.3982502579095
1731016102.8769364,800.5669643635719,806.8503166761122,805.2999257518306,807.4207749953633
1731016102.8779013,800.0909626489167,807.6575944570926,805.4041625363016,805.6292682239025
1731016102.87954,799.6147245443476,807.6524631256916,804.5149625556783,802.4929609162912
1731016102.8834434,799.1429310417972,807.5199956500672,803.0161606735226,799.0811391891708
1731016102.8873467,798.6769934870058,807.7036831957033,801.4567711938695,796.4673617673091
1731016102.8912504,798.2085727042308,808.0929746521313,800.1197157237858,795.1992250425889
1731016102.8923635,797.7186731102873,808.155115073447,799.001514166135,795.1691666380766
1731016102.8934894,797.1910190071776,807.4316053058299,798.1134673395721,795.8845915361086
1731016102.8951538,796.6391978353289,806.0333270391395,797.7190757003917,796.8649407785143
1731016102.8958158,796.1263252811597,804.7206686216076,798.2393777844393,797.8765753425826
1731016102.8990571,795.7385727532683,804.4217723405144,799.9055381872141,798.899821442502
1731016102.9029603,795.489367951834,805.4765555563006,802.4653460480263,799.9268368238437
1731016102.906864,795.2001239383559,807.1890640964259,805.1875806624191,800.7887193766816
1731016102.9090774,794.4953048821588,808.1423401602754,807.1636974478943,801.1744242053348
1731016102.9107676,793.0570157373973,807.1710411027691,807.7047285630176,800.8503573353283
1731016102.9146707,791.0712742100288,804.2928449532643,806.609930958264,799.9040877740724
1731016102.914695,789.431026352943,800.8207412311727,804.2122602582525,798.7806522334826
1731016102.9185743,789.2438258651997,798.4912174829489,801.24804863481,798.044392033005
1731016102.9224775,790.899835120368,798.2709614781756,798.6421636233255,798.0470270256526
1731016102.9246657,793.6539428705144,799.7928436188386,797.2528971039903,798.7647005350238
1731016102.926381,796.2566707554842,801.8253698427919,797.5878531414991,799.9014119633144
1731016102.9273863,797.9842996695977,803.2917775015623,799.558369303735,801.1191430962544
1731016102.9302847,798.9611300828448,803.9454244313267,802.4281937415767,802.1795133677235
1731016102.9335744,799.5085533828867,804.2221290677613,805.0878546165851,802.9259053191573
1731016102.934188,799.3955460978867,804.578346979233,806.5852089113945,803.2385304723392
1731016102.9380915,797.9959053524435,805.0230942017165,806.6010178043674,803.1275344884787
1731016102.9402535,795.307288913549,805.2436651028069,805.5271606020156,802.9213724817432
1731016102.9419951,792.6921619295986,805.0940423953363,804.0905652689112,803.2809049659057
1731016102.9458983,792.2925374261396,804.892085861175,802.8508974115749,804.8463623106389
1731016102.949802,795.3495371687054,805.211775770572,802.0017451626882,807.7121314425217
1731016102.9524536,800.8606813746931,806.3664870520038,801.5820306488531,811.205173754422
1731016102.9537053,805.8932306111373,808.069212589332,801.7689397382065,814.239827061412
1731016102.9558418,807.4894510537388,809.5927980264039,802.8484240057264,815.9964995050847
1731016102.9576087,804.7254082864081,810.3150895133957,804.8480793867448,816.3707244278814
1731016102.9615123,799.3529439971533,810.2084605956743,807.2500851942925,815.8679011180899
1731016102.962409,794.6103852091528,809.8798167235204,809.1803904407832,815.122733813434
1731016102.9654157,793.1590767554013,810.1202890038771,809.9859922123467,814.495791032375
1731016102.969319,795.5818610788891,811.2874230771956,809.6814974626443,814.0178429512351
1731016102.9713328,800.2733440475117,812.9581297143487,808.8452553464313,813.5647267722068
1731016102.97143,804.5478752746717,814.1100274121409,808.0780830475178,812.9755258000376
1731016102.9732225,806.159192625704,813.742331456305,807.5453856481931,812.0126992406351
1731016102.977126,804.3922843007965,811.5385089543327,806.999294222552,810.3311475763887
1731016102.9810295,800.2367348425928,808.107724417113,806.1827585142306,807.6372357827748
1731016102.984933,795.6451542583856,804.6188646174463,805.1698946634225,803.9757609031205
1731016102.987018,792.3631406166826,802.0963237638152,804.3147116011365,799.8846591974005
1731016102.9888363,791.0530434820104,800.9004235946766,803.8951269677419,796.2322812681649
1731016102.9902122,791.2065612729015,800.7228667376748,803.8272900662072,793.8155997111432
1731016102.99274,791.7716673165891,800.9766526064916,803.7414052101727,792.9861092866031
1731016102.9966433,791.9523634099849,801.1916212660065,803.3672300775314,793.5230492714516
1731016102.9974318,791.6202214836203,801.1561053664831,802.8849501238506,794.7672932896578
1731016103.0005467,791.152202951379,800.8587147629703,802.9016214450043,795.8790905266605
1731016103.0026062,790.9543760281534,800.4267830668388,804.0251456907781,796.1102487060346
1731016103.00445,791.1272309383226,800.1259473456124,806.3705122126387,795.0747002491424
1731016103.0083537,791.5413872480536,800.2951368879907,809.4055076040012,792.9747776997639
1731016103.0090914,792.168774463639,801.1078154708341,812.2382217451227,790.6271253189128
1731016103.012257,793.2440560422951,802.288266046459,814.0761244250915,789.1652637436546
1731016103.0161605,795.0249298830324,803.1000676895948,814.5272579059972,789.5369925706879
1731016103.0181944,797.4083549764763,802.7820753622875,813.6639716951004,792.0965564346394
1731016103.020064,799.8780973146978,801.1857438595191,811.9677546585532,796.483388510847
1731016103.0239675,801.9028261794747,799.0715418294357,810.2053248195563,801.7384084222682
1731016103.027871,803.3695473738911,797.7097116194801,809.1553256936887,806.5459704163011
1731016103.0279708,804.5763648181518,797.9973708278095,809.1985431997367,809.6054034883927
1731016103.0317743,805.8063035909599,799.7500652585296,810.0314734025566,810.1478371829662
1731016103.0324545,806.966432689214,801.7451040850618,810.813701762853,808.407315222865
1731016103.0337825,807.6760926758377,802.54193384123,810.7518010726193,805.6775112908026
1731016103.0356777,807.6793199684437,801.5136636702845,809.7141030314789,803.7377186938987
1731016103.0395813,807.1332756542054,799.3394859642322,808.375940437859,803.8878766348982
1731016103.0434847,806.5149743711789,797.5752815152035,807.7483776816498,806.2151364973603
1731016103.04685,806.3317671560685,797.5852233972736,808.447615317416,809.6352792858895
1731016103.047388,806.9957684395076,799.5929104323169,810.2647845671185,812.6966526984374
1731016103.0493703,808.9240905313535,802.5321519495676,812.3267055821913,814.5292028242814
1731016103.0512917,812.5139307723801,804.7932018095206,813.6636627671217,815.1884440038185
1731016103.0551949,817.6762263792817,805.3021177791221,813.737475740012,815.1429046199763
1731016103.0590985,823.1876712758433,804.1378139901208,812.602427859508,814.4136730185014
1731016103.063002,826.6242227878311,802.2764205902354,810.6989788171497,812.250568820896
1731016103.0649586,825.3685918689662,800.7582371315975,808.5228295874772,807.8097222293273
1731016103.0657291,818.2286809877248,800.0025510107778,806.4163638390937,801.3345231266929
1731016103.0669053,806.4798873200899,799.7758421093432,804.5577035755513,794.6883011535643
1731016103.0674772,793.4417651882114,799.6841086679703,803.0513574483043,790.4883209813663
1731016103.0708086,782.8219431471398,799.6328417337044,801.9848143704024,790.3563124664079
1731016103.0747125,776.9991279393427,799.8463720083314,801.3980291256897,793.763765247888
1731016103.0786157,776.3337407795169,800.5295956411468,801.2094622804509,798.5385315885712
1731016103.0805469,779.6363691591268,801.5731342301648,801.1738901258552,802.577589949432
1731016103.0825193,785.0769272825421,802.5991253615748,800.9279018519164,805.2004713521021
1731016103.0846086,790.8535442058097,803.3018145695887,800.1476337545913,807.0497592073248
1731016103.0864224,795.5690816818287,803.7829179183746,798.784201166807,808.9583921922738
1731016103.0903258,798.5708416207727,804.5842087769496,797.2407529462602,811.1079963072484
1731016103.0942297,800.1823884877565,806.33954594918,796.2977823588136,813.2231819466738
1731016103.096135,801.4450390295051,809.2536561201847,796.7083989823939,815.2837298823852
1731016103.0981328,803.3153454663451,812.7785827112823,798.6532508681709,817.7276996915288
1731016103.1020362,805.910923636107,815.7658470346232,801.4453698017492,820.8239404563228
1731016103.1025,808.5059813857318,817.0544390603034,803.7824337818614,823.9199728303228
1731016103.1034875,810.3013456664047,816.1303737445841,804.4669169307148,825.477950810053
1731016103.1059396,811.2265489023196,813.4172579275205,803.1302181884096,824.029397033515
1731016103.1098433,811.9943318900004,810.0093195639231,800.4383941588542,819.2750567135288
1731016103.1117227,813.3620988998509,807.0587480382103,797.6247903403438,812.4295448948569
1731016103.1137466,815.3205226736213,805.2592788190383,795.7191845429032,805.600275796758
1731016103.11765,816.9841330246975,804.7338950544507,795.0673048172844,800.7575870579377
1731016103.1215534,817.2746437051941,805.2658543504533,795.4364897578856,799.0083164747849
1731016103.122367,815.7502344243283,806.5621026950105,796.4615035344059,800.4320945853046
1731016103.125457,812.852900152554,808.3254494523118,797.9355177511165,804.2462926257251
1731016103.1273112,809.4523437065968,810.1936533502791,799.7232790732877,809.0168138249915
1731016103.1293604,806.2085955978292,811.7552925300544,801.5308319782508,812.9486979757787
1731016103.1332638,803.3290402216976,812.7313320730186,802.8942465842093,814.4583644373523
1731016103.1371672,800.7931307004585,813.1777775491427,803.4444622092831,812.9212586624102
1731016103.1375227,798.647747352812,813.4760718202133,803.1631354868425,809.0394817682402
1731016103.1410708,797.0070026842141,814.0316379005186,802.3619517068627,804.3566154131886
1731016103.1412463,795.8095373659534,814.8690900917035,801.4343456162125,800.1863330951227
1731016103.1428993,794.6934822790405,815.4635331414838,800.6504439792275,796.8694144994754
1731016103.1449742,793.2173647565093,815.0234811093674,800.1602737690492,794.0264885757831
1731016103.1488776,791.2553142365296,813.088140415704,800.1039021041718,791.4900867839852
1731016103.152781,789.1838188436838,809.9840800317011,800.6218734049257,789.9034611416342
1731016103.1566844,787.6872061193864,806.7174543973321,801.7150413185965,790.3131753608609
1731016103.158487,787.384920872847,804.3173534203754,803.1187202978384,793.1065177118236
1731016103.1601255,788.5888592040448,803.1441315148794,804.3804667426183,797.3136462460351
1731016103.160588,791.258130967121,802.746843855911,805.1327016994205,800.9774143803587
1731016103.1644914,795.0041369968447,802.381658806428,805.3389357268572,802.3438926587118
1731016103.1683948,799.1032020304044,801.7207425913356,805.2900529904858,800.941288798859
1731016103.1722982,802.6801287131632,801.1446658846887,805.3465469166097,797.7591991057363
1731016103.1725454,805.1260097411349,801.4220824214102,805.6510120708494,794.4956911848841
1731016103.1740756,806.453868311008,803.1021308987114,806.050681176412,792.5081948853716
1731016103.1762018,807.1825047089434,806.0985337145888,806.2628847583107,792.1790089629193
1731016103.179005,807.7379420610882,809.6916880296933,806.0928778768131,792.9605472796953
1731016103.1801052,807.8814390986428,812.8542827045474,805.4891563608912,793.865643585281
1731016103.1840086,806.7273034342544,814.6820646196641,804.4175811679746,794.0031632935269
1731016103.187912,803.422475767376,814.7448665649434,802.75488780481,792.9403513049369
1731016103.1896636,797.9945010154718,813.2221491649183,800.40309381818,790.8977187781262
1731016103.1918156,791.7149672072037,810.752723716292,797.5726923420098,788.7789714064169
1731016103.195719,786.6521998036127,808.0799123911607,794.9311004215649,787.8989938591068
1731016103.197884,784.6359130185429,805.7344158785751,793.3729232297064,789.3450701099357
1731016103.1996224,786.2688528850596,803.9750687743026,793.5277809307263,793.2721235371554
1731016103.2035258,790.6310434678054,802.9663206789661,795.4027345199324,798.6781203237458
1731016103.2052517,795.8930348549296,802.9423655703434,798.4385712158941,803.929111426462
1731016103.2074294,800.4394661010529,804.139559548952,801.8697576831161,807.6976068209644
1731016103.2075682,803.7302715233305,806.5354782589246,805.0461001876474,809.6367830916321
1731016103.2113328,806.3011311525129,809.6405148945339,807.5200546058688,810.3404551937667
1731016103.2152362,808.9479902817225,812.553711633101,809.0027857272061,810.6918204010697
1731016103.2167633,811.7808635851007,814.290439699275,809.3838511257311,811.1394837617987
1731016103.2191396,813.9397998751804,814.2128279185201,808.8303030476218,811.4689352504074
1731016103.2208395,814.2126525986189,812.3431572792759,807.7958659109399,811.2218068231748
1731016103.223043,812.0243587787169,809.3891103117513,806.8180538858453,810.3187237657639
1731016103.2269466,807.9528372198214,806.4291937931179,806.2025389767065,809.1987189321071
1731016103.23085,803.3601700803922,804.3921871026622,805.8414418700303,808.2594957274919
1731016103.2347534,799.5136846982318,803.6289180754882,805.3339120615611,807.2006445696577
1731016103.235643,796.9704647450386,803.8500265403721,804.344546892893,805.1313868335407
1731016103.236428,795.6546282691731,804.4441505141943,802.939301650414,801.574155377368
1731016103.2386568,795.3625234359079,804.9048660878287,801.6311073923118,797.458206405155
1731016103.2425604,796.1033183725932,805.0550214057914,801.0683818905867,794.9876458001761
1731016103.242591,797.9945321332992,804.9853068674545,801.5785002592982,796.2119857536261
1731016103.2464638,800.9592183048464,804.8614517279708,802.914869418534,801.3565654484344
1731016103.2503672,804.60939658496,804.785129338681,804.405040223251,808.3053280020985
1731016103.252016,808.3556272866371,804.7693000705724,805.3597540568592,813.7399923207287
1731016103.2542706,811.4629197164861,804.781452556615,805.391937519736,815.1314705650561
1731016103.2545218,812.948803053491,804.7900846740761,804.4317330590491,812.1848873477771
1731016103.2581742,811.6712838540809,804.7838833406485,802.5638344060142,806.86374595216
1731016103.2620776,806.9701787426916,804.767298944936,799.970769351556,802.1676552300274
1731016103.265981,799.5577539235177,804.7487757629568,797.0604241512127,800.5267207399523
1731016103.267604,791.7404500250327,804.7331917573307,794.5471954376736,802.6680872537124
1731016103.2698843,786.4125218951428,804.720835434807,793.2361632936996,807.4078641588994
1731016103.2734013,785.4287596961896,804.7098330580455,793.5741287299259,812.398002946119
1731016103.273788,788.6749514148362,804.6985427250246,795.3269245864728,815.4670046432086
1731016103.2776136,794.5311706846827,804.686438454271,797.6876601966064,815.8105245292991
1731016103.2776914,801.1113903133887,804.6737928877434,799.7643390030797,814.2256468473628
1731016103.2815948,807.1140827441558,804.6610418928898,801.0795880506256,812.2400533726302
1731016103.2831924,811.8423615143454,804.6484094693535,801.7199680173007,810.9503251560619
1731016103.285498,814.927952433001,804.635878922923,802.078546961293,810.5380975862848
1731016103.2894015,816.3197225000911,804.6233308954904,802.4649061656633,810.5950059732904
1731016103.2922804,816.3966294529854,804.6106668783436,802.917217152945,810.6739322418367
1731016103.2933052,815.8157014068038,804.5978493207282,803.3034217669178,810.5773959268865
1731016103.2972083,815.1497590655632,804.5848808377382,803.5211434900166,810.3343836358472
1731016103.2987804,814.6609850814256,804.5717702428765,803.5856837393582,810.0517636257921
1731016103.301112,814.341386117201,804.5585141510153,803.5815909966715,809.8026924064276
1731016103.305015,814.0806943966244,804.5450967783429,803.5820080817534,809.6000170499454
1731016103.308919,813.796489449689,804.5314976980729,803.6132655485787,809.4226244886722
1731016103.3111596,813.4707927528272,804.51769817884,803.6663558284384,809.2480180587302
1731016103.3126364,813.1249020473373,804.5036829624565,803.7231144174638,809.0671940794485
1731016103.3128223,812.7838282268089,804.4894389794473,803.7729247110329,808.8826081269777
1731016103.3143685,812.4586220396124,804.4749535596476,803.8150943319098,808.7001412774979
1731016103.3167255,812.1474779127,804.4602135524033,803.8536471957126,808.5235063764964
1731016103.3206291,811.8442334720174,804.445205395879,803.8921290277117,808.35319796903
1731016103.3245327,811.5447418461395,804.4299155592689,803.9316705983601,808.1880512222494
1731016103.328436,811.2483495344331,804.4143308770899,803.9716633861315,808.0269481448659
1731016103.3299568,810.9563475862349,804.398438636162,804.0111366032106,807.869520990319
1731016103.330039,810.6700897302283,804.3822265097307,804.0495754816513,807.7159850960805
1731016103.3323395,810.3901432363382,804.3656824746777,804.0869881700853,807.5667019634028
1731016103.336243,810.1164142347561,804.3487947806555,804.123607879591,807.4218993724251
1731016103.3401463,809.8486135568936,804.3315519681182,804.159624358443,807.2816338568948
1731016103.34405,809.5865778433953,804.3139429032259,804.195095753073,807.1458807765159
1731016103.3455448,809.3303277844473,804.2959568051422,804.2299930751254,807.0146229329301
1731016103.347659,809.0799769812894,804.2775832597829,804.264273881971,806.8878831760189
1731016103.347953,808.8356335658794,804.2588122257503,804.2979224685806,806.7657125616909
1731016103.3489182,808.5973601944837,804.2396340396114,804.3309505266795,806.648166811166
1731016103.3518567,808.3651840937064,804.2200394238066,804.3633803591678,806.535292443554
1731016103.35576,808.1391222212679,804.2000194967517,804.3952310567227,806.4271256785742
1731016103.3596635,807.9191970379985,804.1795657833819,804.4265146172922,806.3236974112297
1731016103.3611329,807.7054383489174,804.1586702249592,804.4572388790286,806.2250375969627
1731016103.363567,807.4978782970657,804.137325187969,804.4874116792458,806.1311766909319
1731016103.3674705,807.2965471677796,804.115523472439,804.5170429074228,806.042145202377
1731016103.3677976,807.1014726452195,804.093258319876,804.5461439935455,805.9579731124621
1731016103.371374,806.9126804542404,804.0705234206523,804.5747259782289,805.8786896650914
1731016103.3752775,806.7301930103823,804.0473129206032,804.6027978554712,805.8043226373537
1731016103.376721,806.554025264241,804.0236214271162,804.6303669310724,805.7348961458097
1731016103.379181,806.3841817848571,803.9994440158051,804.6574421832408,805.6704278864545
1731016103.3826818,806.2206624059799,803.9747762390544,804.6840392162155,805.6109293351468
1731016103.3830843,806.063479999153,803.9496141361678,804.7101818036151,805.5564128903462
1731016103.3866768,805.9126803330481,803.9239542415964,804.7358935308945,805.5069049307149
1731016103.3869877,805.7683375028683,803.8977935852639,804.7611787300378,805.4624536040823
1731016103.3908913,805.6304989564863,803.8711296820088,804.7860062328632,805.4231129171222
1731016103.3923092,805.4990931785593,803.843960518489,804.8103232273209,805.3888947245877
1731016103.3947947,805.3738847928557,803.816284560099,804.8341189335442,805.3597157890347
1731016103.398698,805.2546053275665,803.788100800704,804.8575115860525,805.3354103218651
1731016103.4026017,805.1413025948596,803.7594088454199,804.8807631878784,805.3158766316039
1731016103.405556,805.0346907803842,803.7302089550712,804.9041047791794,805.3013225781461
1731016103.4065049,804.9359932460667,803.7005019413941,804.9273748647047,805.292384060143
1731016103.4078972,804.8458336274575,803.6702888712487,804.9497487533038,805.2897758356007
1731016103.4104085,804.7625247725609,803.6395707597654,804.9700728481987,805.2933618728003
1731016103.414312,804.6814441204698,803.6083486864771,804.9881204001142,805.3012266229763
1731016103.4177046,804.5978447709616,803.5766247287368,805.0061655642322,805.3100985139082
1731016103.4182153,804.5135734776923,803.5444034410398,805.0290097355853,805.3183038258567
1731016103.422119,804.4431126262922,803.5116924546228,805.060368577599,805.3303136809405
1731016103.4234853,804.4092671424963,803.478500158747,805.0960436452004,805.3583879619895
1731016103.4244354,804.4210325866212,803.4448299624488,805.1195378376406,805.4150767400656
1731016103.4260223,804.4421884412509,803.4106749409214,805.1097248181286,805.4953562256017
1731016103.4299257,804.3839943796276,803.3760211571894,805.0653965976201,805.5606309552795
1731016103.4338293,804.1646584650902,803.3408663356519,805.0333423691943,805.5503738655216
1731016103.4377325,803.837944357039,803.3052471031316,805.1036658212013,805.4412692059828
1731016103.4390736,803.6964167068421,803.2692465581114,805.3351994607824,805.3312765984011
1731016103.441636,804.1678687514154,803.2329450644422,805.6252064549032,805.4606401287155
1731016103.4433146,805.3881405857205,803.1963104798972,805.634247703427,806.0627619467941
1731016103.4455397,806.6635649022729,803.1591070452665,804.9343655516627,807.0623953892319
1731016103.4494429,806.4510994803434,803.1209801278276,803.4175782852901,807.8859967054544
1731016103.4527273,803.348237948554,803.0818268970579,801.6575248227434,807.73884464262
1731016103.4533465,797.552417440792,803.0422933744466,800.7324463559394,806.3374359194066
1731016103.4546616,791.3374769550867,803.0038429315298,801.439117170852,804.4892820820186
1731016103.45725,787.7323638934915,802.9677281690085,803.5316031807822,803.8033052535544
1731016103.4611533,788.3627337377377,802.9329060575224,805.7289428650892,805.5284849059765
1731016103.462194,792.3223835852157,802.8945253421025,806.5681845633248,809.4327888298936
1731016103.465057,796.9748302804825,802.8459443840287,805.4426874672193,813.7744037364905
1731016103.46896,799.8581689254902,802.7860299943471,803.0202225300424,816.540561176804
1731016103.4702497,800.1120510186189,802.7281343818182,800.7417593135984,817.0135043092364
1731016103.4728634,798.5514239881776,802.6999326597928,799.8205572492149,816.392557517348
1731016103.4767673,796.7213684974943,802.722252134126,800.5113274227773,816.947754206478
