timestamps,eeg_1,eeg_2,eeg_3,eeg_4
1731304522.5886996,610.622039776488,897.7654712521378,1197.6951196851173,592.4628574923852
1731304522.5926008,570.2365029347422,903.9890135469171,1171.465946498262,585.5605586275797
1731304522.5965018,547.9339498597785,909.2953816607342,1146.3036165116778,590.2558169101741
1731304522.6004033,549.2733133290552,915.106986181034,1121.9989440442914,606.3915867405361
1731304522.604304,564.2444737921955,923.8427427905563,1098.3078348613442,619.8242287801593
1731304522.6051087,575.6138986265304,935.0620125845513,1077.931634217525,612.385495776183
1731304522.6057265,571.5073577616881,944.1116514596956,1068.6035456384611,576.8617864539847
1731304522.6082053,552.4631742256792,946.0653380268939,1081.4273382669426,524.837549955265
1731304522.6121066,528.0759232138728,941.694524855346,1125.6912625468312,479.56158494254635
1731304522.6151886,506.65684451289735,939.1926363988704,1204.1376773497418,457.86789209907596
1731304522.6160076,486.8517976220175,949.0248819596601,1313.3150956366449,455.5644648429337
1731304522.6199088,458.52941224190585,975.8946012152106,1449.3933652763765,449.5729301285315
1731304522.6206667,412.292820427171,1014.6295466534499,1613.6813259758685,416.4786766009045
1731304522.62381,349.08849134956677,1053.251345925774,1810.6134024382354,352.35821191881763
1731304522.6277113,280.8865706550454,1080.406007292012,2037.6748837315336,276.7535304544864
1731304522.6316123,221.45212649125074,1091.320920614279,2276.107086733955,217.06190004237737
1731304522.6340473,175.66304788051332,1088.5138152615384,2492.8541139526965,186.50042035685954
1731304522.6355133,137.4660601897226,1078.0360396800697,2654.879552021069,174.18018312853633
1731304522.6362247,98.43685256259869,1065.0587410005292,2745.6930509886297,155.42328513222196
1731304522.6394143,58.71821732669912,1052.0559353979488,2771.9965831834866,113.61611489465679
1731304522.6406667,29.65037765996783,1039.8125844564768,2756.892686587384,55.50533184072424
1731304522.6433158,24.95395324160154,1028.9754650627033,2726.1097163787117,7.1197436397497995
1731304522.6472168,47.84553618335383,1020.0960161322698,2696.8005541886246,-6.788356818179523
1731304522.651118,85.58213968342181,1012.5187129177953,2674.273601315925,16.959814528123275
1731304522.6517825,117.09171963929589,1004.1990497087352,2655.806988323803,57.15031521276785
1731304522.6529057,128.32601763013417,993.4583923680369,2637.094889423737,85.77304135693817
1731304522.6550193,122.85367067019763,980.9559706162324,2616.8492067419907,91.31014068891113
1731304522.6589203,118.36944763188069,969.2353748120634,2597.2517143558052,87.52125277223479
1731304522.6628215,131.46298060158313,959.7511692965193,2580.68155011764,99.97347105291203
1731304522.6667223,163.56176621860686,950.6214252539713,2565.2393671904188,142.32834703079402
1731304522.6673405,200.5141193001799,938.181637573942,2542.2485093273976,203.48772607314663
1731304522.6706238,226.28097045018706,921.2385536960096,2497.875351294338,256.7398945182414
1731304522.6717644,238.3879243691622,903.3346676642395,2418.7463308087745,282.49598317777736
1731304522.674525,251.20482909634404,889.8515368590827,2298.9669416205506,284.90284579152126
1731304522.675607,284.13388080352297,882.2575134821582,2144.538365157923,288.71366547091
1731304522.678426,345.0206029425018,875.3747028227477,1972.0095783403358,319.6491966739921
1731304522.6823273,422.8896055483159,861.0778759865307,1801.4970965482685,384.5514394276113
1731304522.6828983,495.9207989210954,835.565909848716,1648.0873748674062,467.11409819668575
1731304522.6862285,547.9831609879573,803.565652988144,1516.923590636287,542.1276548767
1731304522.6901295,580.3325024133553,775.3764540911933,1404.5141776319151,596.172152790417
1731304522.6906228,609.1871212776427,759.0664608370929,1304.2649725147933,637.3158176229367
1731304522.6940308,651.3164696234285,754.3333721177595,1211.8014091101763,685.4939121899786
1731304522.6979318,709.4810168940121,752.9670757258581,1126.8477739055254,751.9701901089288
1731304522.6984563,769.656932172267,745.3460856888698,1051.539067851831,826.2516761189706
1731304522.701833,812.1712833867742,727.7614303867897,987.4402633227112,882.5731566656228
1731304522.7057345,827.4052565611954,704.9949421916731,933.868858202524,900.763187582868
1731304522.7094817,823.4385709415064,686.3712932189485,888.5425519681714,883.6616362869224
1731304522.7096353,820.2159039849429,678.4920870503174,849.4271919293998,856.4765409308718
1731304522.7105472,835.5170648295901,680.3296918678595,815.7395636782277,848.84660581367
1731304522.7135365,873.3161448418324,684.3789955088762,787.2542370319294,874.0373802018208
1731304522.7140143,922.1759440180833,682.6712710587447,763.1457295074641,920.9746513615505
1731304522.7174375,963.8794331202797,672.6783144656538,742.1313367756309,964.2765544035694
1731304522.7213387,985.9600180034804,658.5893530324086,723.8437353007699,984.070022209322
1731304522.72524,989.6151405018776,647.5090496839282,709.3516706788982,980.6603391706165
1731304522.72834,987.6835030858392,644.1099895250811,699.3533415391992,973.2377270174769
1731304522.729141,994.3265406385417,647.9119326411843,691.5035794170468,983.7880998478581
1731304522.7295723,1014.2763520905432,654.6481336777344,680.1690926573264,1018.7715223481985
1731304522.7330422,1039.9500518022414,659.8930131785905,660.0632925734824,1063.1655385591027
1731304522.7369435,1058.4496679600475,661.926069045415,631.1968070718822,1091.8884815807194
1731304522.7408445,1062.4825428776098,662.0616303136393,600.5139375552278,1089.651748357704
1731304522.7447455,1056.3336115569275,662.8059460825968,577.8598028568363,1063.4254755979357
1731304522.7451303,1052.4147239865433,665.5146491060267,568.7460830861694,1037.686460439356
1731304522.7454877,1061.4939635934834,669.1551882247438,569.5120519844952,1036.258407890926
1731304522.7471986,1084.3111038609209,670.8236357921486,569.0736849039446,1064.7155844038307
1731304522.7486467,1110.9217267299541,667.590619916388,556.4550730860112,1106.5931271781208
1731304522.752548,1128.2577537217235,658.5541494858655,528.6178002498161,1136.191921457675
1731304522.7564492,1130.099515338537,645.8781076443825,492.6002056063217,1138.1654400079972
1731304522.7603502,1121.3735816222961,634.1541245829148,460.32270823389064,1118.450002376333
1731304522.7606883,1112.8784788101307,628.3967788335312,440.1920070833853,1097.6164881196178
1731304522.7642517,1110.806942265222,631.7539093976842,431.96253971093915,1092.4507507755275
1731304522.766057,1110.7122344028721,644.069498697587,428.26980565837204,1102.1703982956112
1731304522.7681525,1102.070220195913,661.8806807433923,420.7597901170963,1111.6402580458428
1731304522.7720537,1079.6315752641572,679.7742885666123,405.63512252854866,1108.0076529967896
1731304522.775955,1050.7982718644835,692.5578078314093,384.86655722181496,1094.3498751111888
1731304522.776246,1031.4895241150598,697.3887993649969,363.2792585416302,1086.9024888876042
1731304522.779856,1033.5133683755312,694.9318501143673,344.59065828320547,1098.4411590342438
1731304522.7804277,1054.286596383836,688.9837106743571,329.324009255032,1123.82293198098
1731304522.7837572,1077.8452869606108,684.7435973583806,315.28686270961725,1141.8215873722556
1731304522.7849157,1086.6465351180168,686.5440172168314,299.3680599089414,1132.4400886664457
1731304522.7876585,1074.8675959135362,696.0212384627231,279.22062268377954,1094.850421826748
1731304522.7915597,1052.6183218621015,711.437735099456,254.3523453166822,1050.2377844179987
1731304522.791804,1037.5567532549833,728.4287051829714,226.68293575535841,1026.4066602878404
1731304522.7954607,1040.5243228221439,741.9646956309068,200.24704923633396,1036.2720294006483
1731304522.7993617,1057.008569771106,748.8189772817395,179.49718080508273,1067.7038321371622
1731304522.8032627,1071.7616470917314,749.429859772483,166.6120286336445,1093.1162018308828
1731304522.803774,1072.8742093853689,748.0517310349298,159.64554370141832,1091.036678386965
1731304522.8071642,1063.2556705480397,750.7373431813933,153.4088832100516,1062.1785783778814
1731304522.807362,1059.232510392046,761.8784494323669,142.97604055723298,1027.4879191584403
1731304522.8110652,1076.6553045062842,781.1598084165256,127.3062597756109,1010.7071223373566
1731304522.8149664,1115.6368532282095,802.9925433663461,110.10214241506185,1020.0842820922917
1731304522.815368,1156.8702765879586,819.2706122752788,97.22591558685315,1043.3060982757506
1731304522.8188677,1173.6747025609163,824.1277182690875,92.7995391583853,1058.3233969478201
1731304522.8226328,1151.3360315440857,817.7315530009639,96.99354114249911,1050.6381437245245
1731304522.8227687,1098.9952536341268,806.4477671661614,106.8351092771561,1023.8685075941175
1731304522.82292,1044.5530436457284,799.0107607923215,118.82068546049993,996.406521311498
1731304522.82667,1015.9352334580503,801.1231741370397,130.93045143900576,987.3148849822747
1731304522.8305707,1022.503582271507,812.1192129390218,142.59902784990004,1002.0438494370776
1731304522.8344722,1050.123567516398,825.949831391275,153.21707485611364,1028.4196533279633
1731304522.8383734,1072.7278797650065,835.6583361333015,161.0199441068927,1045.7787452637515
1731304522.8384778,1070.8496647121947,837.9944604503057,163.74192042313427,1040.2379621158273
1731304522.8414912,1043.297242235823,834.8591461699972,160.6583490448379,1014.3332079912798
1731304522.8422744,1004.551947259054,830.8775246040143,154.1428971966825,983.7404481582464
1731304522.8461757,971.651178553089,829.413731838984,149.01435180379167,964.1860179702823
1731304522.850077,951.5560863162139,830.2909429485508,149.78177290465078,959.4430423914989
1731304522.8503082,938.5790461829546,830.7363371891632,157.8807544970473,960.07900683283
1731304522.853978,923.032452953248,828.3023163596313,171.1900272211111,953.5205197484263
1731304522.854036,903.1133877544972,823.0761452851837,186.12415190964987,936.5714554824222
1731304522.8578792,889.0948573089627,817.4078945250023,200.27022709908567,919.405730073695
1731304522.86035,895.0622379101726,813.6979471037209,213.2461661463385,917.0584547200374
1731304522.8617802,924.4939007196235,812.4813902375041,225.48041104695005,935.1361277161782
1731304522.8656814,962.6708089393386,812.6692125224524,236.72221050059443,962.1261632863933
1731304522.869583,984.3893948126333,813.6264546742201,246.04617524891455,976.0343771449182
1731304522.869594,972.436066934986,816.7612109453904,253.17044226864493,961.2239426308759
1731304522.8734837,931.9931404005117,824.5606864506904,259.38476434692706,922.0973054813447
1731304522.877385,888.4311604364991,837.5758386954677,266.896585793874,881.9417595848499
1731304522.8792086,869.420200255027,852.2559431221139,277.1512341678979,866.8621937001886
1731304522.881286,885.1725218519883,862.1732598603965,289.6908863712398,886.6650392736725
1731304522.885152,921.8760275325873,862.1834046699056,302.536089676083,927.1899348147226
1731304522.8851871,952.6280165043416,852.2818178382379,313.7414036116181,960.0971972051012
1731304522.8852484,956.8837645735236,837.9932864889804,322.92069708761164,963.1413286407715
1731304522.8890884,933.8249890491977,826.9497166877305,331.6328708147585,936.0232890350076
1731304522.8929894,900.4508315491265,824.2635907315394,342.32746998089243,899.8642506131933
1731304522.8968906,876.9464927360672,829.8921981733725,356.5651361911174,880.4531316274987
1731304522.898067,871.3080584450522,839.2964198443792,373.8234836213761,888.0110533390126
1731304522.90071,875.2696931420908,846.3583042956237,391.84105173938536,909.3651479298485
1731304522.900792,873.9930147463749,846.5657366893506,408.2504455116123,918.9068441324374
1731304522.904693,860.3499615954769,838.8985278212816,422.1693543638474,899.6360640718061
1731304522.908594,841.0196237051051,825.6973029718653,434.4906371052224,857.2857003279394
1731304522.9124951,829.4474297637445,810.7424926661403,446.81662940886525,816.1088694324352
1731304522.9162676,832.791137535499,796.8756566982607,460.1328746933548,799.8514471932456
1731304522.9163964,845.0193812304514,784.994501219577,474.312283228443,813.2630068242643
1731304522.9169257,852.084214699301,775.1490899538518,488.56700136199345,838.692180247894
1731304522.920189,844.153491509817,768.4049582571969,502.1753982913337,850.1226837456978
1731304522.9202976,824.3280564745813,767.2802886867034,514.9122879192045,833.4823438716817
1731304522.9241986,806.9077990163032,774.0133478833031,527.1546833932946,797.4073385726979
1731304522.9281,806.751393375186,788.1848172138865,539.8157613848538,766.0405032789761
1731304522.9318256,827.6744293350105,805.9192239501916,554.0118482781844,759.4370306451906
1731304522.9320009,858.326054781217,821.4525356861657,570.3186019088156,777.2782381872117
1731304522.935784,879.0124977504661,829.9280994556841,587.9293586657594,799.5112923242283
1731304522.935902,875.5327192954389,829.633839827463,604.4621492787969,803.9520946726078
1731304522.9398034,850.4891180948323,822.6081385575941,616.8931425380722,786.3403217472578
1731304522.9437044,822.9635940297402,813.5367272547074,623.2143522527305,765.3280562930147
1731304522.9473836,815.2611101214466,807.4921289551868,623.7281332726284,767.023880028934
1731304522.9476056,835.9578952993581,807.5017090082434,621.0521661297047,801.4482393991406
1731304522.9515069,872.824736004512,813.1939647292784,618.8168845488467,851.2097930902645
1731304522.9546428,902.1007172369377,821.3616928201651,619.9887591775448,883.2399583874404
1731304522.955129,907.0731542403752,828.0823939776781,625.9713402863854,875.0175942823136
1731304522.955408,890.754825707356,830.9404160498807,636.8549742422157,833.8219026717101
1731304522.959309,872.1598772363735,829.9160142184188,652.041258483637,792.3780509467045
1731304522.9629416,869.372736658884,826.6017816494667,670.1608998479661,783.3505847921865
1731304522.96321,883.6400881321464,822.594515190809,688.2781542482495,813.0518168934437
1731304522.967111,897.8813776627445,818.3279711414337,701.7737597644166,856.2201234118313
1731304522.9710126,891.0340055468487,813.1329636244012,706.2034658487065,876.5825420388018
1731304522.9735012,856.4327152227992,806.3660678083336,700.4451429977245,856.1767744559801
1731304522.9749136,808.9328026481387,798.6499985677643,688.5118098401275,809.0570310845696
1731304522.9784994,774.6498963645611,792.1454287518732,677.8589000899769,768.6489192667301
1731304522.9788148,771.4101584987098,789.4766239311617,674.8449883331904,760.3649563023924
1731304522.982716,795.538100985922,792.0139941857528,680.6473764731905,782.5318506420617
1731304522.986617,825.3391462268804,798.8182661739412,690.8598074220155,810.2603902235916
1731304522.990069,838.0723789873599,807.081790054211,699.1757487248393,817.2615681490629
1731304522.9905183,826.629632615322,813.693262378979,702.3432691594215,796.8576758525496
1731304522.99236,803.0377257253455,816.7114860530722,702.5632453559413,765.8662294093181
1731304522.9940574,786.9947012964893,815.8623455597345,705.4794301008907,749.7925811226081
1731304522.994419,789.4932281110872,812.221202704203,715.3771810025594,762.1230005829002
1731304522.9983206,804.7999292419445,807.7712635595908,731.4905195805102,793.9512775400011
1731304523.0022218,816.6224526542381,805.0141543547777,748.4807851127833,821.3737357124332
1731304523.0061228,812.5645965531188,806.134606751109,760.6690192566962,824.3212140820458
1731304523.0096154,794.5227217987122,811.5465370407572,766.3764021951811,802.029090492019
1731304523.010024,776.6486728759384,818.8048941551062,768.7132938011839,773.3399270562923
1731304523.0112183,773.2012761817409,823.3626026850407,772.4171586191461,761.9435400349871
1731304523.0139253,786.7464343652732,821.4287083592305,779.7692841975138,778.1238069889869
1731304523.0178263,806.2192506221411,813.1023053089857,789.0802097506181,810.932699197803
1731304523.0217276,815.9277625267272,803.1419788290821,796.6464457704253,836.5880840619039
1731304523.0250092,808.0229624593015,798.3283232403161,800.1253410493925,836.6421235277148
1731304523.0251734,788.7284925713248,803.1517457582214,800.4559649796797,812.0945349933029
1731304523.0256286,773.682264721682,816.9906479741072,800.9881989098835,782.5279338281155
1731304523.0295298,775.9366430893654,834.7361087746276,804.7535651084389,770.658444073921
1731304523.030077,795.6698516281934,850.1101244442758,812.1097775749408,784.2509593627096
1731304523.0334313,819.6153783218219,859.0718660480736,820.5988772099942,810.042881178289
1731304523.037332,831.0408208924481,861.0790596911974,827.1270183430173,825.108089013846
1731304523.0407312,822.769855238302,857.9470592689526,830.6797366738962,816.5683187044895
1731304523.0412333,802.8845817683693,851.8414404657708,833.2395726600924,792.8797029053907
1731304523.0451343,788.3418909987699,844.1888867166547,838.0686441408949,776.5782120845355
1731304523.0489354,791.6028822378823,836.0233828931785,846.8935214825202,784.422626201955
1731304523.0490355,811.091136917142,828.7451172264531,858.4901377966015,812.2130850847789
1731304523.0529368,832.8926922448909,823.9029859582538,869.6952401750963,837.6672429770098
1731304523.0562892,841.8195153208818,821.829477163321,877.5628855667808,838.9591397910241
1731304523.0568378,832.8773020580754,820.582582749496,880.7046101294593,813.1243396624014
1731304523.0599494,814.6090269083415,816.8444297659498,879.2408134616128,779.0824111449932
1731304523.060739,802.3404547633444,808.6276893787975,874.2938979047825,763.1083045981518
1731304523.0646403,806.60643378125,797.5190797726057,867.8272605037873,778.5103676290897
1731304523.067794,825.2488230787503,788.1352921924167,862.4667923405532,815.2506193604372
1731304523.0685413,845.0875558662946,784.8875698277944,860.5954899553317,847.3294098105093
1731304523.0718472,852.1120305200652,788.7163245505909,863.0135354863354,852.39566660749
1731304523.0724423,842.2827171569401,796.5168472863085,868.3820566901954,828.7154543325377
1731304523.0763435,823.9154093668847,803.5070037908708,874.1688811941933,796.1570305067203
1731304523.0802448,809.3732376578963,806.3551521652512,878.3945799209445,779.9417634416318
1731304523.084146,803.4114494366023,804.7292508474903,880.7540253316456,789.9551933121812
1731304523.0866525,799.0806431124893,800.7102564606909,882.3616315967955,812.7466683016411
1731304523.0874052,785.4673385259468,797.180682376904,884.5843636171172,823.2818907192968
1731304523.088047,760.3994606972752,796.5105457520767,887.9985605397981,806.8796478204856
1731304523.0919485,736.0267675249453,800.0125579635429,892.1408094624504,772.8241625578262
1731304523.0948896,731.0701503199041,807.8599613488011,895.9790469063705,747.8528294282227
1731304523.0958493,755.4574170268993,819.0524304706091,898.5666999631478,754.5541353231815
1731304523.0997505,800.3608777647313,831.3991357941137,899.4142754250986,792.4547968301731
1731304523.1029632,842.6316291693201,841.858151930649,898.519329727872,837.4546338807786
1731304523.1036518,860.5871393883118,847.5121337656248,896.3079783452371,860.091559833681
1731304523.1055112,848.5252202781677,846.9168426017782,893.6706776039407,847.7078979545624
1731304523.1075528,818.6204420250918,840.9879820376545,891.9470540704455,812.7734390695476
1731304523.111454,789.8771249176905,832.6731457822857,892.5510226289971,781.4160504699067
1731304523.1153553,774.5671185783673,825.5336057747763,896.1985342143143,772.4489956391269
1731304523.118521,773.0367214505499,822.2364116046065,902.1941410402369,784.3127449481934
1731304523.1192565,778.3304900296932,823.8541422606665,908.427031011868,799.7659090873769
1731304523.1231575,783.6532348204399,829.9056303385119,912.3288105061447,802.7866036097779
1731304523.12437,786.1945231659237,838.4866694960863,912.3282025568963,792.3574035341769
1731304523.1270585,786.5244155672017,846.4044649064857,908.9017042593912,781.6962781662678
1731304523.12983,786.2809443907113,850.0559669597931,904.5223572372743,784.8826950539391
1731304523.1309595,786.5281612850952,847.4004085503603,902.4733113479936,803.4870996511444
1731304523.134079,787.415314639309,839.8366609183387,905.1383787944432,824.7835581368778
1731304523.134861,788.6040016472004,831.9972210330739,912.6530611244712,832.3439165225905
1731304523.138762,789.757138036562,828.8614539004528,922.632025000245,819.3809857141587
1731304523.1426632,790.7485266202705,832.11778934922,931.1888843898989,793.789103991954
1731304523.1432283,791.6212416188498,838.7382301126655,934.8113263065045,771.4833154330216
1731304523.1465645,792.464003224597,843.0377661707425,932.1323888419973,764.0700055069453
1731304523.149637,793.3295321681032,840.6518194051727,924.5868658955125,770.6179681017306
1731304523.1504655,794.2219586684549,831.480231620193,915.5199205291275,779.4393305867756
1731304523.1543667,795.1217796528413,819.6958903238028,908.2593038872366,778.0640265771173
1731304523.1582675,796.0113615845748,811.1669665424496,904.3399072894863,763.6556658647403
1731304523.162087,796.8847415148088,810.1943103752012,902.9413386291958,745.8970651691645
1731304523.162169,797.7445505318713,817.4220064924344,901.7491336920093,739.9621039953443
1731304523.16477,798.5953186181116,829.6487797683384,898.5594625857495,754.6883985614287
1731304523.165195,799.4394072176683,841.1871310133904,892.6402837341649,784.9971921997309
1731304523.1660702,800.2766257490391,846.049066793231,885.1640062620572,814.8216488718283
1731304523.1699712,801.105696229323,840.3362875433421,878.546223964611,828.9187825012987
1731304523.1738725,801.9256137272687,824.192555871487,874.9905583168899,824.560573971502
1731304523.1777737,802.736084822733,802.4435157649223,874.9402831097071,813.2844782195256
1731304523.1807528,803.5372062859649,783.1281455470346,876.3979066183605,810.4105573925992
1731304523.1809454,804.3289134809825,774.0111588178892,875.8551190539674,820.6478154164374
1731304523.1816747,805.1106870334888,778.6113088707064,870.6217952560608,832.5861705599376
1731304523.185576,805.8818204004538,794.1782749538557,861.0858304301149,828.1102265786925
1731304523.189477,806.6422313370246,813.2260895823523,851.0188329049445,799.6479796257206
1731304523.1933782,807.3932600129622,827.8089513829938,845.2829145358706,760.2262632466558
1731304523.1963108,808.1373559395569,833.6078006445317,846.4631484028534,736.3390332111225
1731304523.1972797,808.875741799007,831.1456279953178,853.0641594930253,747.9744305237988
1731304523.1997104,809.6048181897542,823.9406858435938,860.7130292354805,791.5650237937793
1731304523.199804,810.3148609615179,815.7198120591114,865.2940621505792,840.2457035642807
1731304523.2011805,810.9959200849504,808.8477717766929,865.4361183181345,862.4845574964652
1731304523.2050817,811.6518789105927,804.3226570276324,862.5842555082471,845.3667394686363
1731304523.2089827,812.3130565333382,802.2301989173988,859.090684991553,804.336503884267
1731304523.2118688,813.0271046925986,801.7815801590276,856.274883717583,771.2158423785639
1731304523.212884,813.8126428719627,801.2350213640424,854.004955658902,769.5479796126056
1731304523.2167852,814.5935994494862,798.5277746422215,851.6766265498662,796.823185892042
1731304523.2186625,815.1840944254617,792.7437005857796,849.2332297723499,827.7930015974083
1731304523.2206862,815.4128290379601,785.4270206314263,847.1771974689792,836.0001654806924
1731304523.2245874,815.3910510809769,780.3894638255479,845.8337107592783,815.9526187274174
1731304523.2274268,815.724502603953,781.5424275034844,844.9305443862188,787.9537101993321
1731304523.2284887,817.2853598764486,789.9278909605054,844.0239387572037,781.5702818094481
1731304523.2323897,820.2871677689594,802.2341286179578,843.153742943332,810.8919590553351
1731304523.2346506,823.0680329755734,812.4002054983279,842.755877819247,861.5415371806512
1731304523.2362907,821.918112190593,815.5392690348303,842.7413787982898,900.2726347008146
1731304523.2375212,813.446502142522,811.2704080097708,841.7546530629035,899.9533378118024
1731304523.240192,798.9817507730002,803.7806677213302,837.6525152079787,860.241084549648
1731304523.2429843,786.8422565305569,798.5843870987856,829.0634387135501,807.5990758596015
1731304523.2440932,787.8145121919705,798.6633178216366,816.6599904874813,774.9344127904778
1731304523.2479944,805.7527994678364,802.9975778749728,802.8046542401705,777.4615246566115
1731304523.2518954,832.4058235871768,808.2532531287131,789.658874807283,803.9028309256008
1731304523.255797,852.8345432146632,811.7403019807598,777.4184597013799,828.8535581880894
1731304523.2563796,857.1066852235841,813.0449922531086,764.4497117492164,834.5868399072166
1731304523.2585423,847.7232995812799,813.3617609654033,749.3949190197038,823.8010890729058
1731304523.2596977,836.5514693473207,813.7604805125377,733.2962016149309,813.9319860056686
1731304523.263599,834.5363159450167,814.349169793913,719.525745145278,819.7289967281243
1731304523.2675002,843.1937180327981,815.0385039070652,711.297069738936,839.7691905302638
1731304523.2695909,854.5645264031616,816.7784830523434,708.9282227770599,857.8671095261878
1731304523.2714012,858.8302816671063,821.5654999014192,709.4050286909503,857.2905104192407
1731304523.2741003,852.7553400587663,830.7690298879708,708.6948593371009,835.4998250381054
1731304523.2752385,842.1043717389764,843.186886885247,704.7595901467046,807.3103796037401
1731304523.2753024,836.5195699499366,854.8506257212089,698.7326190983792,793.8886881494652
1731304523.2792037,841.4111367681624,861.2101884894793,693.5500761315682,806.2164079118947
1731304523.283105,853.5793903091892,860.1021017795281,691.5255855314431,836.1600990584886
1731304523.287006,864.1568549820444,853.0138865323227,692.9179344437306,862.5281752481297
1731304523.2896583,866.5317460578601,843.6364441418435,696.2820474475421,867.6138030094216
1731304523.290907,862.6709661336307,835.1722002712578,699.7990453682805,851.0791241867693
1731304523.2940967,862.0990444064103,828.8214019713399,702.2851732448966,829.9116256672487
1731304523.294808,873.5510925535891,824.40366141788,703.2821308189282,824.3025703598762
1731304523.2987094,895.876484672035,821.9095447119868,702.5833096247331,840.663092299316
1731304523.3026104,916.509282162734,822.1782050992696,699.8971134561388,865.4910007234141
1731304523.304531,920.2380948641327,826.1355572025293,694.988229324471,875.4908432674325
1731304523.3052163,901.9445691376778,833.4860372547795,688.0370426164711,856.5906619934557
1731304523.3065116,872.3938994358552,842.0690962520576,679.6809995893857,816.9582572822089
1731304523.310413,851.0522093421031,848.4219981447042,670.5343138325992,782.8415117814967
1731304523.3129554,850.9049133636137,849.3152190274111,660.6642453556752,779.0511150512823
1731304523.314314,867.8005407390286,843.5555485060747,649.8046094908065,808.8082127744622
1731304523.3182151,883.6860560987349,833.0908544071533,638.471184749026,849.782000188505
1731304523.3207743,881.3821362918391,822.4920075496112,629.0103850273331,871.04480573619
1731304523.322116,858.5296299238388,816.605505109339,625.1684873318679,858.0446876346882
1731304523.3260174,829.1409078037562,817.506648986033,629.8243144104961,824.7507321509073
1731304523.3299186,812.0790257523844,822.8733045865798,642.3880195305293,802.1090082891241
1731304523.3318138,816.7476685491673,827.3452080598905,658.2002464829379,812.1033104220002
1731304523.3338196,837.6092649123909,826.2863766553879,670.916173132566,849.2818752023416
1731304523.3363323,860.5373619789575,819.2719017135986,676.3074374887449,885.2607651466552
1731304523.3377209,874.0549169874429,810.5795162433146,674.5504115228624,892.147355677996
1731304523.339471,875.9175151818611,806.247002336987,669.2836230701198,865.1704627795668
1731304523.341622,871.2838640384201,809.9020676312258,664.418379892863,826.075958488278
1731304523.345523,866.4007628026728,820.3074233806199,661.4035159927189,805.2263960036075
1731304523.3494244,864.1461658206532,832.0305678312466,658.960197455967,817.664065535324
1731304523.3506725,863.974095022798,838.4776537186945,655.0503892913343,852.4984590534784
1731304523.3518903,864.2057223138574,835.4092953839692,649.0966100715057,883.278101707673
1731304523.3533254,863.8005918214772,823.2119356449895,642.5928706174006,889.8608272970658
1731304523.3572266,862.6861290796282,806.896780899592,637.8547053023543,873.6643966244909
1731304523.361128,861.2652976053225,793.666979519527,636.2066675890459,854.3439524897055
1731304523.3650289,859.8983507438492,789.053404409858,637.1359308086355,851.4119677622701
1731304523.3674483,858.7036758037484,793.7099136148782,638.8783549117264,866.6591490463446
1731304523.36893,857.6223138570612,802.9557406245578,639.6761056667974,882.5101397239404
1731304523.369531,856.5561767016166,809.57051956744,638.6435633051341,877.9802909478663
1731304523.372831,855.451798230957,808.1514211213535,635.8499745218235,848.6183400308867
1731304523.3744116,854.308416079167,798.2152885151213,631.9915127777818,812.7523119371016
1731304523.3767323,853.1485021773386,784.0654063770345,628.1190215468548,797.5467295642381
1731304523.3806336,851.990574126128,771.6619156125124,625.4482134256947,815.8465250619284
1731304523.383006,850.8399779536148,764.782069462417,625.0141298052185,853.5739020790894
1731304523.3845346,849.6931554526664,763.1646226280034,627.1796547630004,879.3832309695782
1731304523.3883896,848.5450407765653,763.7422112895772,631.3700905811012,869.6106101948164
1731304523.3884358,847.3931792187815,763.6432735253752,636.3361755425494,828.1446987500186
1731304523.392337,846.23786253945,762.3544838364835,640.7757739280737,784.4556144293649
1731304523.396238,845.0804685440019,761.3966409903727,643.8155382478841,770.8801880184818
1731304523.398564,843.9220705108044,762.2052854709615,645.0363321907663,797.38813376002
1731304523.400139,842.7630370242327,764.4377313383116,644.1949393756283,844.1000257457758
1731304523.4040403,841.6033080490718,766.2715885925426,641.0525022855455,877.2302563215197
1731304523.4072485,840.4427771540362,766.2174054158097,635.563851636953,875.2209816864068
1731304523.4079416,839.2814567969908,764.6079025736159,628.3206395106963,844.1764850327042
1731304523.4093518,838.1194305245731,763.4168337075566,620.8706195315187,811.0435643590532
1731304523.4118428,836.9567675937996,764.6696988133604,615.5021134515814,801.0619232926466
1731304523.414122,835.7935584857096,768.839438260929,614.342856623774,818.1061410581348
1731304523.4157438,834.6300807107016,774.4369410872546,618.1462679692252,843.4099944720859
1731304523.4196453,833.4669104901681,778.9506134972011,625.6089330953929,852.8029823480191
1731304523.423546,832.3046952493928,780.3567068901741,633.9334944473368,837.5355668616235
1731304523.4261067,831.1434766091518,778.2255288517497,640.4528010073238,811.2764088543933
1731304523.4274473,829.9819807555682,773.8914216929204,644.1596253771626,797.9080606867913
1731304523.42968,828.8178839515272,769.7502991487148,645.964426611584,810.9862346445377
1731304523.4313486,827.6499639127952,768.1261724849048,647.5980997372692,842.2557450822571
1731304523.4352496,826.481505380963,770.2532172675952,650.2423909620738,868.3042917655356
1731304523.4391508,825.3216668415373,775.830773352057,654.0351598290886,869.1742661788761
1731304523.443052,824.1801146035385,783.339276259295,658.5612651381077,843.6657153796025
1731304523.444292,823.05379447163,790.8956829307792,663.4561480510486,809.7724224749245
1731304523.4449654,821.9146436641626,797.1013588349381,668.343530686369,790.7847545315028
1731304523.445238,820.7173573195471,801.3707861320365,672.3203401947061,798.0715747847834
1731304523.4469533,819.4425321439323,803.6453506303748,673.9370454225706,823.3213063692201
1731304523.4508543,818.1594276056104,803.8698238906617,672.1980566548795,845.768398645139
1731304523.4547553,817.0432228340367,801.7426068624278,667.8651197916141,848.8437709086685
1731304523.4586563,816.2615990121091,796.9418841929024,663.6334400883193,833.3512364970568
1731304523.460796,815.7230365092169,789.5957966366593,662.5487613805008,816.5349685852142
1731304523.4625578,814.8719282723541,780.6304856843317,665.7621241208175,817.4833451164151
1731304523.4638238,812.8985855408249,771.8316241901613,671.6202406383917,840.705235249533
1731304523.4664588,809.6342327539512,765.6154699940205,677.0505720456512,871.6103133581156
1731304523.47036,806.8155499759524,764.4325156749644,680.0821208148145,887.9241687295037
1731304523.4742613,808.6074300295188,769.7550311704758,681.2242476462561,877.752922491131
1731304523.476354,820.1437213923593,781.0206199700125,682.4628243906578,849.3452407318316
1731304523.4781623,844.0142610870153,795.3233145598725,684.8471095066441,824.4437046698164
1731304523.4792323,876.5390202983453,808.3926959935696,686.9319106892325,820.7486295436615
1731304523.4820635,906.9405948843148,816.4984659894827,685.564430271096,837.9934175911418
1731304523.4826825,921.743667635767,818.1667081104508,678.4433596834717,859.0453852740404
1731304523.4859643,913.250041452318,814.6797104606721,666.3465199712672,865.0058579215355
1731304523.4898658,886.515208244085,809.1366370179194,653.1651694406946,851.7229571727286
1731304523.491912,858.2114990575963,804.7154596063502,643.6440027934434,833.832904254154
1731304523.493767,846.0178962421796,803.1501231727949,640.5448850607902,832.6171692919795
1731304523.497668,855.6240403244407,804.2031601006829,643.3407095743817,857.5127436395258
1731304523.501541,876.1662451761167,806.2845444610435,649.2109874115873,896.7679083562299
1731304523.5015693,888.9000802934287,807.7007418611109,655.231098013244,925.4054539829717
1731304523.5054705,882.46556069937,807.6886349176257,659.8559537589852,924.2929242607648
1731304523.5074697,861.8402423979968,806.6124440949174,662.7190839275619,894.9125371763956
1731304523.5093715,843.3793906452596,805.3387429117116,663.4495993141946,858.0891984450553
1731304523.5132728,840.5352672829185,804.3914611239414,661.0386669788762,838.0698903372726
1731304523.5141726,852.7463621223156,803.5818874829517,654.5476630303251,844.8265127565404
1731304523.5171738,866.7680564264128,802.3532927505712,644.4950120933391,868.1874263127813
1731304523.5203996,868.7896774322345,800.4490141143972,633.5592764679193,887.5136622593719
1731304523.521075,856.7055245990362,798.2133620509383,625.8376738643535,888.4841299691846
1731304523.5230277,842.1169715160243,796.1418021082695,625.0346227766981,873.5342141794026
1731304523.5249765,840.4426941057166,794.0285779419823,632.6103999867217,858.0222512985445
1731304523.5288773,857.5589755755224,790.6154526720558,646.8438471069301,855.7666009926797
1731304523.5327785,884.3848539567828,784.4159732757362,663.2862014820702,866.2529376209171
1731304523.5366795,904.0887406175971,775.3722139243156,676.4650477040512,874.5786208726176
1731304523.5385857,905.7307308388672,766.0041062457747,682.095428025257,864.6330079809263
1731304523.539258,892.6873215534819,760.7358754056685,678.796776198895,834.5526095342644
1731304523.5405807,878.9559270497467,763.3573396965837,668.6219815575005,800.9505709171867
1731304523.544482,876.9371101999311,774.2044947435732,656.277731010996,787.403125172581
1731304523.548383,887.1724609550783,789.2425244713799,647.2966646234819,805.921890522719
1731304523.5491128,898.2649121339266,802.0819912267274,645.6758498895886,846.52741287054
1731304523.5522842,896.5082423687218,807.765463754763,651.9468734759675,883.9302618227895
1731304523.5541437,877.1387524279876,805.6877343527916,662.9691839929897,896.4154839103774
1731304523.5561855,848.3127385993803,799.5734366691701,674.0569539369335,881.7428898322526
1731304523.558117,824.8788735797787,794.6220438572648,682.2849435068579,857.0465515461275
1731304523.5600865,816.933213098604,793.9500275601131,688.4644284643559,842.9719151068645
1731304523.5639875,822.1885436002169,796.7822871182557,696.0424018070354,845.6954673475366
1731304523.5678887,828.3121894871598,799.4139762493179,707.7956493014834,852.3970176895848
1731304523.5697017,823.4853028163175,797.9808328546583,723.2424215695518,844.045214101273
1731304523.57179,806.5812391507461,790.9495564082732,739.0430635591931,813.9769587540447
1731304523.5756912,788.4132201644945,779.6791520047232,751.8730868924677,775.4806485510883
1731304523.576975,782.8152227147946,767.0086434238572,761.0769850729189,751.4040877695577
1731304523.5795922,794.8165434413496,755.3059508469,768.8687130534856,754.8881200425494
1731304523.5834937,815.6247246890428,745.561493360716,778.2380400186828,778.1392503691221
1731304523.5840528,828.6511034868382,737.9143634679299,790.6249303298849,798.9337846862466
1731304523.5852594,822.0861046018526,732.6759155884579,805.2343581839971,799.1436386369085
1731304523.5873945,798.3713193729196,730.6745822679381,820.1152618620895,779.5703515086117
1731304523.5912957,773.0430976616634,732.6165318315768,833.6009201763219,758.8711632723364
1731304523.595197,763.3489998522523,738.1516053737191,844.7023503443756,757.7390917636592
1731304523.5958338,775.1481507846189,745.5768845358424,852.408521501444,781.4352374874305
1731304523.599098,798.5436350396677,752.5706504418807,855.1984454230977,814.8343740413388
1731304523.6008174,816.1439144109328,757.5655636644886,851.947894149642,833.9685928120808
1731304523.6029992,817.4756302547725,760.8361409348139,843.7258228769763,825.0031294018771
1731304523.6069005,807.6023568066166,764.3793975687083,834.4608631085608,795.8147257296051
1731304523.6108017,802.59899456588,770.3665895548909,829.0749036306197,771.0542655956415
1731304523.6146922,815.5679602783327,779.1067452189203,830.1926773544159,774.1609559961164
1731304523.6147027,844.8818786376736,788.2041671310544,836.3241037984345,809.639519087831
1731304523.6163754,874.4826090184703,793.9613876516353,843.3216314746118,858.7312651858316
1731304523.6186037,886.1042156388321,794.234715890453,847.8695882188488,891.8118438062164
1731304523.618993,873.5812728155187,790.4441591251924,849.8595728069972,888.7891495794124
1731304523.6225047,847.7191377720318,786.8684060583819,851.6093530713711,853.0092657243204
1731304523.6264062,827.7413199902494,787.6032424300666,854.7976467192897,808.6529166588371
1731304523.6303072,826.1151740805087,793.6368525956516,857.9590176451461,783.374097231664
1731304523.6319337,839.007249593668,802.4112312676926,856.8242308596006,788.8658595513288
1731304523.633551,850.171463452276,810.0673579653812,847.4054370486166,813.8636260006436
1731304523.6342084,845.103549654489,814.3689407346463,829.5044964395252,834.6930958559468
1731304523.6381097,823.7395184822223,815.9733087270839,807.8924935353389,834.6414455000267
1731304523.6420107,801.0454953875521,817.2953958419371,790.0452589992523,816.3563267722029
1731304523.645912,794.8477588240086,820.1871784909871,781.8534452661627,797.4244786575507
1731304523.6474912,810.9097974474915,824.4964742221531,784.2497809003307,793.5985385110342
1731304523.6498127,837.6056586017493,828.7254852466763,792.9939678514675,804.6262206370695
1731304523.6524096,854.6352748793694,832.1222934589305,801.5505118330813,815.1088012133127
1731304523.6537142,848.8052538507432,836.1178177930558,805.014569546747,809.4514995906527
1731304523.6539333,824.3333884093423,843.4388249088845,802.7408018715237,787.4535996686518
1731304523.6576154,799.6161295829764,855.3699082606397,798.4273038811646,766.2933577211754
1731304523.6615164,793.089938903128,869.6276954916294,797.803083937317,766.3516992756914
1731304523.6630492,809.3393688231948,881.1185717081285,805.1325028886048,792.63976080238
1731304523.6654177,836.3487043712266,885.399955642634,820.3829767134781,828.2568440982259
1731304523.669319,855.8335162966599,882.1216810886242,838.8075047082414,846.7748907223277
1731304523.671268,857.9649916663103,875.4827695275983,853.4463655025211,834.1784147837263
1731304523.67322,848.2836484109148,871.1271183645813,859.082516832547,801.8196213359236
1731304523.6771212,841.3428994141335,871.8796115604246,855.0218104157115,778.378624333912
1731304523.6786072,847.0240938969566,875.7351759111071,844.9262302695664,786.3707061789544
1731304523.6810222,861.6629160760135,877.6902553082523,834.1803679846062,822.4991976400728
1731304523.6849234,871.6625027739045,873.876683081914,826.9225629314094,858.7689219221357
1731304523.688825,866.1321885355928,864.6397869969118,824.6326839214258,864.1810708657083
1731304523.6888735,847.2172008459461,854.1700881386735,826.6279592022222,829.5213594002113
1731304523.690127,828.9992891395025,847.1361445960553,831.4919366418414,775.0523706931658
1731304523.6927257,825.8639366507397,845.0652740541601,838.19881566009,734.9416823957795
1731304523.6941652,840.2028523505525,845.2313787709976,846.2794755693207,731.0890371135146
1731304523.696627,859.829718526522,842.7761462600093,855.2003606768924,757.3324759394314
1731304523.700528,867.3897554753512,834.4151438215272,863.7232203269714,786.3602572964796
1731304523.7044291,854.0733511295597,821.0391595453455,870.0479661141167,793.0602548384682
1731304523.7083304,826.3115749964642,807.3821967107735,872.8659183995476,774.6592687397607
1731304523.708985,800.0688460781134,798.9975015004791,872.4605153845665,751.2292777008674
1731304523.709723,788.1058645611139,798.6618416985089,870.6308313315856,747.3747453112593
1731304523.7122314,791.5663538568961,804.7618378981889,869.1245744244593,771.8852501812615
1731304523.7161326,802.2933327562422,812.7867780121192,867.8283785015542,812.5590101047973
1731304523.720034,811.4446013848152,818.6007639533599,864.5691651450043,848.4997394245614
1731304523.7238138,815.422575007379,820.761407161866,857.0900031304789,866.6413070880083
1731304523.723935,815.5709805177471,820.3449411554632,845.5765645526224,868.0210623498256
1731304523.725281,814.7492055734687,819.2026413464646,833.2241409170578,861.838873367479
1731304523.727836,814.7566778658463,818.517538426422,823.9141967674773,856.3351672408364
1731304523.7278438,815.8373364433398,818.4968309773254,818.833580840945,854.5226486914246
1731304523.7317371,817.4220598834579,818.8153479774713,815.1419433635563,855.356450743398
1731304523.7356384,818.9504421862283,819.1277257867141,808.1375392634776,856.7238936146402
1731304523.7395396,820.2168226152776,819.2975671793664,795.1855926802488,857.3809928882954
1731304523.740839,821.2967947428896,819.3641952807392,777.9679443080134,857.2369039209026
1731304523.7434406,822.3396972638593,819.4181821882951,761.0664483366809,856.7539986487099
1731304523.7467022,823.4332830294043,819.5156970789359,748.1707285220656,856.3437955733483
1731304523.747342,824.5840115175773,819.663141274317,739.2665532796057,856.138915087687
1731304523.7512429,825.7593666630647,819.8416218658217,731.1848491209607,856.0692679706705
1731304523.755144,826.9303986384342,820.0332657510646,720.8654442336333,856.0214443469057
1731304523.756397,828.0877827236882,820.2318857436001,708.3608770448055,855.93428550735
1731304523.758754,829.2364603700228,820.440257345144,696.9426959005525,855.8073130012583
1731304523.7590454,830.3844186430848,820.6633424617667,690.2408112686429,855.6664352885625
1731304523.7629464,831.5359558435115,820.9040051109934,688.8844317653519,855.5327181310093
1731304523.7655609,832.6910832425004,821.1624747898971,689.5366314557688,855.4119852458853
1731304523.7668476,833.8479505223097,821.4377552164265,687.2394442956191,855.2998727543277
1731304523.7707489,835.0050787155167,821.7289885781883,679.2399210792394,855.1903725864347
1731304523.7719548,836.1621299334963,822.0359491885312,667.189528860488,855.0805401176121
1731304523.77465,837.3195405358009,822.3588572704211,655.8801326569356,854.9706057813206
1731304523.778551,838.4778106910069,822.6980198286568,649.4889288266747,854.8620239749639
1731304523.782452,839.6369943420726,823.0536206482981,648.3260547299571,854.7558352287878
1731304523.7844193,840.7966106559313,823.425696932152,648.6248660809385,854.6521909709942
1731304523.786353,841.9560460489985,823.8141967029221,645.3982793949289,854.5507282288293
1731304523.7875128,843.1153529507893,824.2190289052962,635.9732156864238,854.4511646078914
1731304523.7902546,844.2759474199257,824.6401002469751,621.5287024781541,854.3536590109011
1731304523.7936945,845.4402364167626,825.0773772956135,605.873537448136,854.2587191799811
1731304523.7941556,846.6093819894425,825.5309724431365,592.9383118155347,854.1666345282439
1731304523.7980568,847.7799727533601,826.001157885827,585.0655087010723,854.0767225278146
1731304523.801958,848.9429483930747,826.4881659694141,582.9360609102388,853.9871207253065
1731304523.8030708,850.089297960115,826.9917630561938,586.3542069845028,853.896016834296
1731304523.803278,851.2232273916201,827.510911232825,594.6630723008614,853.8043786649937
1731304523.805859,852.3735708513582,828.044130848053,606.4453078494068,853.7182159849613
1731304523.8097603,853.5845364804208,828.5909723733332,619.2554714902594,853.6464990041474
1731304523.813661,854.8718280451508,829.1539322214701,630.2523752585591,853.5920201110061
1731304523.8175626,856.1619918105888,829.7386161368447,637.6216986187304,853.5391256586087
1731304523.8186288,857.2808880866712,830.3495865631845,641.6255179801424,853.4519934036267
1731304523.8214638,858.073158257336,830.9822041460113,644.1837419075334,853.2999422584319
1731304523.8221364,858.6526286416979,831.6170085794929,647.2019561001623,853.1088394564729
1731304523.8253648,859.5928413314896,832.2281739767391,651.1568987089986,852.9984982196255
1731304523.8286345,861.6998015877689,832.8124110708039,655.284370092351,853.1331293260008
1731304523.829266,865.1384362454808,833.4234036570557,659.0576264061085,853.5415707939161
1731304523.8331673,868.3109727152456,834.1689951166802,663.1806846346503,853.8959807617787
1731304523.8341868,867.7445697617228,835.1255999125036,668.7761767866567,853.5159067198613
1731304523.8370683,860.3547666224001,836.1838348263695,675.5296074398574,851.8917101697307
1731304523.8409696,847.52887506118,836.9566255813156,680.9620058650592,849.6582371712258
1731304523.8409953,837.0396590341606,836.9603738669775,681.9626074476835,849.2093404587233
1731304523.8448706,838.4345586537808,836.1499722293532,677.2398417873663,853.6104440726201
1731304523.8487718,853.9492071271459,835.4437052370309,668.2751381506141,863.2151191573165
1731304523.8497446,873.9409866009402,836.4368295787742,657.9752263626721,872.1133756637267
1731304523.8526733,883.0617579404392,839.9605574195593,648.6413324094292,869.380832874261
1731304523.856574,872.6746980112979,844.6338550012392,641.3318004708991,847.7637241239669
1731304523.8598535,848.5021710085605,847.2193647664775,636.8277513297671,813.4801420783024
1731304523.8604753,826.5774959391015,844.9573398939239,636.5460251786449,785.5597504979374
1731304523.8635747,820.5968719386715,837.8810573556943,641.9821380709387,781.7765463152142
1731304523.8643763,830.9935412110142,829.0719390231304,653.1323657646791,802.9007074900895
1731304523.8653026,844.9293453833377,822.7408210750976,667.6355621571536,830.5512470451722
1731304523.8682775,847.6792921107592,821.7425147112345,681.7629600208626,841.9950334889377
1731304523.8721788,836.0856775252854,826.2604051288931,692.622921209935,829.5395388397005
1731304523.8760798,822.0935668949858,834.2517688584753,699.7777316832913,807.3614486760296
1731304523.8787122,822.2761125776756,842.9747084026043,704.8993034511839,799.3246666986576
1731304523.879981,841.9360929666441,850.42635207613,709.7321334673543,818.1534146690076
1731304523.8808606,868.3296318510882,855.9271602711445,714.1558092103528,853.9639862695792
1731304523.883882,880.1881927460907,859.842520262043,716.2029634353702,881.7475502813767
1731304523.8877833,865.9313643007013,862.8939778006726,714.1930189577884,880.9591417499422
1731304523.8916843,834.5700958599167,865.4828087924186,709.0407295711751,850.7782332900138
1731304523.8955855,809.4894141309003,867.2367608878062,704.4052439608704,809.4830072266572
1731304523.8964186,810.2757583802303,866.940917665338,704.3305503388459,780.0354270284784
1731304523.8975708,837.6694549012375,863.0573879006937,710.5014791414571,774.1557427891954
1731304523.898515,873.3776227419712,854.8066345972984,721.5869625493116,786.5100226874921
1731304523.8994868,894.0753911711715,843.2040291144751,734.9891716947736,801.6306112907661
1731304523.903388,888.3118098317037,831.1002317786968,748.9831436691582,806.8261746343273
1731304523.907289,863.7832276310327,821.8388577305733,763.1062484028508,800.979014602365
1731304523.9111905,840.2522787057851,817.3555428759764,776.683886182736,793.1190787550863
1731304523.9119763,834.0351016029002,817.1522992407998,787.3661511455545,792.7928218667278
1731304523.9150913,845.8914776796537,818.8069248809376,791.5705502551092,800.7002366497526
1731304523.9164293,861.247836971056,819.3562690933712,786.8803466356703,807.7898542149187
1731304523.9189923,862.2165530045844,816.504820849096,774.4954088401232,803.7755503727946
1731304523.9228938,841.9842876229845,809.3194559329872,759.4851863510822,787.6465973066893
1731304523.9267948,810.5185810645082,798.6206598258748,748.1778763640598,770.519017348744
1731304523.9275343,787.3257525790691,786.9526788457026,744.3158014082604,767.4369006683905
1731304523.930696,786.9328007550224,777.6788532817455,746.7447414307736,784.3834364999799
1731304523.9334552,808.2487290743403,773.377543041275,750.3364167853503,811.5534116851007
1731304523.9345973,835.8444939491609,774.6841716085362,749.3798022516763,829.4944135381024
1731304523.935288,851.9385357724352,780.569965781035,740.9196756465803,824.2515257760643
1731304523.9384985,849.6069134724353,789.628133140525,725.9156923358444,799.5390497884821
1731304523.9423995,836.861251776456,800.8699522743768,708.0591153856548,775.2988101705538
1731304523.9430923,828.6265309982854,813.1911439644291,691.7013652431883,772.6463954094859
1731304523.9463005,833.6427931188148,824.3649510929939,680.3459181655146,796.9254555155569
1731304523.9502015,847.6141298801195,831.1412166669285,676.0162242247116,833.087433772679
1731304523.954103,858.4108274612662,830.8849338718004,678.9726704374193,857.7424896293446
1731304523.9541464,858.2431883300841,823.4826843148801,687.4644867697014,858.0271525271772
1731304523.958004,851.3468057135955,811.8593644441988,697.9071458283374,841.5459441535222
1731304523.9586504,849.9704461893971,800.6308227277747,706.0360926647065,829.3795008424968
1731304523.9619052,862.3952617072308,793.8072432405048,708.8559939203578,838.3989917459157
1731304523.9658062,884.0341586322746,792.90248481789,706.2452313960595,867.4568018153553
1731304523.9683957,899.7914183870594,796.3585896262291,700.9252173778468,898.1381750242836
1731304523.9697075,895.8746364839988,800.4615106982578,696.5723520302048,908.8924070644059
1731304523.9730053,871.1850167681172,801.2289594872932,695.3701555942968,891.2381274351252
1731304523.9736087,838.8317359187848,796.2657771049466,696.8730528031915,855.6025640249524
1731304523.974208,816.3488290684783,785.6164891394687,699.0054799364626,822.5424689798169
1731304523.9775095,812.2453218973567,771.3320690466113,700.2093532873894,806.5154356054982
1731304523.981411,819.6569791866722,756.3502116490954,700.8378940543739,805.4754804623717
1731304523.9853122,822.5401374396282,743.5893256232441,702.7029564601255,805.0829348396844
1731304523.9892132,809.728025373967,735.585640857269,707.3903495823979,793.9709852116886
1731304523.989766,785.1862497711404,734.1944955729593,714.931559929095,776.3386140158823
1731304523.9918635,765.3684582098473,739.8254806784894,723.8529575992873,769.6816769180723
1731304523.9931145,765.4241396756814,750.5750328546959,732.2460523736916,788.5141358211836
1731304523.9970157,785.9764084817274,762.3958480906414,738.7094840848953,828.2704997762867
1731304524.0009167,812.0489621135622,770.8991409800628,742.4392216390437,864.6766592578246
1731304524.0033357,825.2737864157172,773.7866715141091,742.78083526565,870.8966418039792
1731304524.004818,819.1119981058876,771.9724151929732,739.1187320801339,839.0050463900316
1731304524.005324,804.4100443296129,768.4077381907437,731.5457248813394,787.9275674174806
1731304524.008719,800.7046827934838,765.6465118784026,721.7780167673207,750.7953795945934
1731304524.0107222,820.1127422473392,764.2518188941027,713.2218253910544,751.232901244904
1731304524.0126202,856.4943811982541,763.2452406668306,709.6030783191654,786.7514453638644
1731304524.0165217,888.7339755845545,761.8933515072579,712.8350689591377,831.6634789778051
1731304524.0204225,896.1876229078679,761.0020203039143,721.6955690809301,856.7436383124667
1731304524.020882,874.5105478985657,762.4627393289767,732.453604158901,850.1958615306477
1731304524.0243237,839.2266595171874,767.4634222160373,741.0736435269101,824.1433548983647
1731304524.0282247,813.9741565034499,775.0571679570813,745.3945927965474,802.8443249607348
1731304524.0295806,812.7707848418306,782.5394205232573,745.8573159924974,803.1627030813396
1731304524.032126,830.3819735891162,787.4697064362185,744.6538455760301,822.8916639543377
1731304524.0360272,848.062692735979,789.5919970444613,744.2763961639429,845.017541909236
1731304524.03644,849.5608227926244,790.8546815907365,746.4457180747465,853.0126214674965
1731304524.038276,834.3832588065972,793.3871103226564,751.6404525790584,844.2948304517472
1731304524.0399282,817.7709525164837,797.2057489559245,758.9458966832719,831.4508239366088
1731304524.0438294,817.4096148515023,799.7862645254097,766.1599836452515,830.8595354917993
1731304524.0477304,837.5678180578719,798.0169734619564,770.4960955360409,848.1695592576347
1731304524.0484393,863.8770439024247,790.9007935493812,770.0139698967372,872.5203107086351
1731304524.0516317,873.8728031302693,780.6918447232488,765.0955275461338,884.5966545696398
1731304524.051998,855.5115046489105,771.5280458505971,758.7561169855296,872.5039126869822
1731304524.0555327,818.576251148009,766.7018011178137,755.1447782308098,842.6731639378828
1731304524.059434,788.8733851553382,766.6423155375818,756.9877424065627,816.3714132482801
1731304524.0633352,789.0227954960811,768.8936899570525,763.7652866307907,813.7733185339537
1731304524.0672364,820.9788987384333,769.831695502759,772.0404535120923,837.9454759870334
1731304524.0672977,864.2945891499506,766.8498728860553,777.7615626226504,871.7743132307485
1731304524.067556,891.3097441512217,759.7337827719871,778.8697053264949,890.8636048690428
1731304524.0711374,886.8469824961321,750.5946149336473,776.3994089390451,882.6098547288036
1731304524.0732162,857.0019183502392,742.5447240660976,773.4818394623048,856.3403682338584
1731304524.075039,821.4316420910934,737.9376778418319,773.1594074633906,836.060902833286
1731304524.0789397,797.5297370879824,737.214536384691,776.5849904556567,841.1425136748011
1731304524.0828407,790.3155762923133,739.0180207689303,782.6944096538589,870.358782263656
1731304524.083114,794.0990387393456,741.4086492436132,789.3041702089313,902.4704971183967
1731304524.0861564,800.5413455235436,743.2913373289457,794.6298870278977,913.1725942835099
1731304524.0867422,804.7147185449993,745.0744286384966,798.0803836328394,894.5782686764758
1731304524.0906432,806.0217386065918,748.1871541028992,799.9089302977059,861.2209166009803
1731304524.0945444,806.0297635818013,753.9082252993827,800.2984740218974,837.8159021908846
1731304524.0984457,806.2346229991484,762.3955533106844,798.8863683281675,839.1159091283184
1731304524.098672,807.1594160715346,772.5599864450488,795.2210029880465,858.4034132711441
1731304524.102347,808.5799277574806,782.7526619557757,789.669515902247,873.7058549849875
1731304524.1050148,810.0900835097852,791.7072817186855,783.7976298610585,866.3660943296977
1731304524.106248,811.4591537787852,799.1268226269714,779.6976099323947,836.894273444693
1731304524.1081564,812.675899303779,805.5965191107724,778.699850651441,805.2908566368326
1731304524.110149,813.8304567717606,811.8841353731508,780.464797467571,795.2507787357871
1731304524.11405,815.0002452203497,818.0612793066041,783.12963699429,814.6663074207604
1731304524.1142297,816.2088782759962,823.1212598304016,784.3208038317896,848.4953100093475
1731304524.1179514,817.4421265903686,825.5597951867079,782.2472729059493,870.5227300624591
1731304524.1218524,818.6784284716629,824.6167606340721,776.2534126827506,864.6400365446423
1731304524.1238737,819.9065889474551,821.1264524415324,766.8266522482024,837.566599995628
1731304524.1257536,821.1269083119186,817.0700058910683,755.3869294077755,812.0098113794312
1731304524.1296546,822.3444748864806,814.0760739993142,743.9571292040487,806.482857098163
1731304524.1297877,823.5632762743087,812.1998566248216,734.5339501839903,819.7044889574196
1731304524.133556,824.7843527010474,810.1243681261062,728.2024160369756,832.9141673084241
1731304524.1374571,826.0068719856398,806.579617278894,724.5456868908254,827.2172948328646
1731304524.141358,827.2298203643842,801.6622330012764,721.9489813297895,800.40148685114
1731304524.142732,828.4528902349655,796.962566878821,718.7155276749568,769.2512625126922
1731304524.1430967,829.6763729497824,794.5730257044642,714.1367653341381,756.2532159947924
1731304524.1452594,830.9005391339687,795.8875353182676,708.6338114433803,771.8447781640633
1731304524.1453457,832.1251227599606,800.9660792841674,702.932991518504,805.8816042953337
1731304524.1491606,833.3494070150161,808.6143877186843,697.1853476443189,834.5452939868285
1731304524.1530616,834.5731018791215,816.9590575093747,691.0402265745594,837.6615924004401
1731304524.1569629,835.7975660540064,824.2856975919176,684.723316420248,813.7849283231087
1731304524.160864,837.026082912386,829.8481422192843,679.9845349709299,781.5429393392374
1731304524.1609037,838.2616532387127,834.1217230711623,679.5916521486787,765.5897500656263
1731304524.1615906,839.5023023932735,838.0293876695341,685.2769548128688,777.499251172344
1731304524.1647651,840.7374423364619,841.4325002592906,695.7172699076189,806.527397700974
1731304524.1686664,841.9519531898648,842.1634818620367,706.5740506617162,827.8714062979741
1731304524.1725674,843.1422657338975,836.9053207261617,713.0800743382628,822.1909892641096
1731304524.1764617,844.3369746537323,823.7841592803957,713.301475312415,791.0248660375652
1731304524.1764686,845.5980290200862,804.7445859898327,709.3053168333057,755.9516989773698
1731304524.1780367,846.9750086588776,785.4664818031284,705.1537729337367,742.2442392963785
1731304524.18037,848.4167187931872,772.3747781468547,703.4885597343942,759.8120975322458
1731304524.1804492,849.7119785085649,768.7448833010388,703.7211189037093,796.02949164189
1731304524.1842709,850.5843408127309,772.810443575266,703.277463353711,825.6818038293271
1731304524.188172,851.007051273089,779.2782870481223,700.5128638148844,830.2061725691449
1731304524.1920197,851.5719510482343,783.0417310193724,696.5003579785263,811.4496274895824
1731304524.192073,853.4457832174303,782.3670521478957,694.0934439040451,789.4977717986877
1731304524.1959743,857.4244714309876,779.5099528449509,695.2070360609125,786.5245806232733
1731304524.1993077,862.2462854442072,778.7468253382106,698.8336665251165,809.4586307630215
1731304524.1998756,863.5796896191179,783.4240165878593,701.6350753591628,844.8891008327429
1731304524.2037766,855.88846437704,793.8604839178762,700.7037430164421,869.6743738369647
1731304524.2075777,837.7758177478689,807.1141557367888,696.1751996801792,868.4714587105086
1731304524.2076778,816.9374573942068,818.5394723569609,691.3737321639654,844.6070819913716
1731304524.2115788,808.0075146975772,824.1924324057799,690.163891721061,816.5347496786718
1731304524.2129767,821.655468768251,822.731382364612,693.5978551385987,803.3911223235658
1731304524.21548,853.4594456161327,815.8084455913464,698.7296906821045,811.1449199811303
1731304524.2181664,884.2135340196419,806.9671207053227,700.7810496673269,829.826180895076
1731304524.219381,893.8422992991601,799.9591157696464,696.9998510149287,843.392124607618
1731304524.2231357,877.9225787856251,797.3945035863353,689.0181103532957,843.7601237838608
1731304524.2232823,852.0369763814077,800.007895257593,681.7091615424074,837.2223982997401
1731304524.2271836,839.0514810470557,806.5019914929611,679.4897718894304,837.808527436864
1731304524.2310848,849.650908866722,814.1413810625966,683.1449360856144,853.3941139787609
1731304524.2349858,873.1558160366224,820.2080181029957,689.7039856768012,877.0180735262637
1731304524.2370248,886.9594599968264,823.6420715869559,695.186902927197,891.7153116314272
1731304524.2386932,876.4113335350021,825.5614019657575,697.6230631674097,885.2804663436816
1731304524.2388873,847.7813418506981,828.0189308417088,697.7638020948374,862.1258857658659
1731304524.242788,823.2105174228119,831.9686530590127,697.237169395269,841.2762029059622
1731304524.246689,822.1868847447961,836.259078972674,696.294551988186,841.3224083974416
1731304524.2479172,845.3034247468913,838.5192563618222,693.5348631580255,864.7047205179142
1731304524.2505906,873.7943129487446,837.012485199547,687.8878564451104,894.7809082752664
1731304524.2542512,885.0594055462977,831.7844851115884,680.7531100448177,908.5616918631753
1731304524.2544916,871.1654067457595,824.3633509269519,675.8897279076796,894.795494376762
1731304524.2558837,844.8882617051876,816.6829442364944,676.78916413926,862.56559187521
1731304524.2583928,828.298734428669,810.3132383361611,683.7552456164849,833.4606482334541
1731304524.262294,833.7429211221929,806.3576310319602,693.2883901269614,823.9704556118219
1731304524.2661953,853.7164966073803,805.5808330985802,700.2915698403557,832.7447592994517
1731304524.2698092,868.3812438217703,808.2818579271271,701.1970332897627,843.1223569006079
1731304524.2700963,863.806872673242,813.925081273386,695.6430016175027,838.4036631754091
1731304524.2739973,844.5508598729748,820.9434742321081,685.9456851442525,816.6488925798384
1731304524.274742,829.5435087966541,827.1267391887054,675.4462751667685,792.4745923381527
1731304524.2778986,835.2421068633921,830.6552001536108,667.1882896260695,784.6210318247839
1731304524.2817998,860.9361268632625,831.2792243019268,663.4085754405479,800.0236750262242
1731304524.2828574,888.7667878021145,830.7203116469112,665.3527859685393,827.6920812866432
1731304524.2853673,898.3782663728368,831.6587094160255,672.9105529895581,847.3367356390721
1731304524.2857008,884.1009407744664,835.7995898808671,684.2548171384022,845.7478309584857
1731304524.289602,860.5041800185448,842.5483936095172,696.1257758616206,827.8182966378486
1731304524.293503,851.2337993314609,849.5237874061502,705.0356888227478,813.1496302085562
1731304524.2936006,869.3661623096335,854.5027428169108,708.8111790270135,820.2951399250477
1731304524.2974043,905.0002965066419,857.033303260914,707.4330823505571,850.7720402546801
1731304524.3009253,931.1011864937949,858.3368380155365,702.6253201422262,886.1025588678939
1731304524.3013055,924.307018620158,859.8245195044442,696.655285047373,901.4396430444746
1731304524.3052063,884.514323582335,861.762697286639,691.341004454071,885.626756527466
1731304524.3091078,836.8622784324508,863.2458712913049,687.816793289028,851.2166035920649
1731304524.312459,813.5539832802716,863.3046528007353,686.7380902897957,825.3904002827339
1731304524.313009,829.5061495185605,862.0338699218876,688.2791019739379,828.4600577171389
1731304524.316483,870.8875974772304,860.7364130716247,691.7973792239075,857.316321253836
1731304524.31691,905.1955297590764,860.9432071534922,695.732452188495,887.421503457404
1731304524.3177977,904.911394276887,863.0735046326099,698.3031611811188,891.8861513191816
1731304524.3208113,867.170964669764,865.8182224320883,698.772658386822,862.4280123320076
1731304524.3247125,815.5111874826597,866.8332478827082,698.2527308154649,815.6804508364085
1731304524.3286135,782.9221289032241,864.358273515363,699.1180168896179,780.1726529165304
1731304524.3313177,788.6244048399446,858.6464723872106,703.203024626083,774.6714112289794
1731304524.332041,825.207824117739,852.1446526161993,710.1729773268822,795.1362144927876
1731304524.3325148,865.0815547268741,848.1730242743098,717.6088057004283,820.1172223386461
1731304524.3364158,881.0200201770061,848.8864349870232,723.0313546965231,829.2345611260508
1731304524.340317,865.30735099492,853.8533949156199,726.263648015257,819.0257844192244
1731304524.3442185,833.3599495537203,860.214659841615,729.8788370049982,803.4432371430248
1731304524.347599,809.8307353987445,864.3084656282316,736.9094228663779,799.7583893217569
1731304524.3481193,808.7866449568957,863.7327681298437,747.5099088518728,812.8003167822409
1731304524.350176,823.907929635672,858.7170600505445,757.5839824116197,831.0569084614858
1731304524.3520205,836.2155833082529,852.1838722387054,761.0249832989175,837.408987366978
1731304524.352738,832.2963127128835,848.40670572533,754.1296832978481,824.8807697160538
1731304524.3559215,817.178743758304,850.6541987554117,738.67673024231,803.899115450924
1731304524.3598228,810.3882615303955,858.8867631298343,721.1070111699695,794.6678167857918
1731304524.363157,828.0882606116458,869.0560059476418,708.4403200938667,810.4467170475539
1731304524.363724,866.7335049831332,874.97464594011,704.1358021166864,845.3362043737711
1731304524.367625,903.1954105450582,871.9849313848456,706.8507440330554,877.2551373353674
1731304524.3690348,912.4165941371207,860.0333010014008,712.4991829481921,884.760697643605
1731304524.3715262,888.0189774751484,843.8261988343819,717.5991926331793,864.5035279980734
1731304524.3754272,848.0476021428706,829.7660561524851,721.4380547961296,834.6778384787839
1731304524.3787148,820.6337006532827,821.8548143351713,725.9009115304942,820.9350034743361
1731304524.3793285,821.7273350280338,819.5913390863452,733.5495675725796,835.9495433138103
1731304524.3832295,843.577067192226,819.2291484677492,745.5477958620336,869.3925470334925
1731304524.3871307,862.833042916321,816.996048552432,760.8591047362147,896.4058742700544
1731304524.387678,860.4287771885589,811.4985470188894,777.0345451587564,897.2754694847904
1731304524.3878932,836.4803750599235,803.6927367373855,791.7214476597759,872.1311394915934
1731304524.391032,808.8227747380865,795.1651927839515,803.7041118041586,839.2329342229439
1731304524.3942728,797.539974201861,786.7010833677743,812.9680475155158,819.0583658201218
1731304524.3949332,808.5328585589926,778.2977475658148,820.1429689058782,817.6093824129669
1731304524.3988342,829.221289869145,770.0802323800243,825.9259900108432,822.5847422800156
1731304524.4027357,839.4678517850857,762.7858517597659,830.7625525314427,815.4400205424492
1731304524.4066365,828.429956820735,757.2079176230093,834.749093062892,789.1130884010893
1731304524.406752,803.1508476573385,753.2508795867328,837.705120150626,756.0129153873037
1731304524.4098308,781.7984308609641,749.6959487072141,839.4207503857629,738.7334420009677
1731304524.4105375,777.8195612867707,745.0533818132511,839.9648855110661,750.9090838360713
1731304524.414439,789.0012354885547,738.8145082090685,839.7680024206737,784.6499482401746
1731304524.41834,800.5409072517069,732.0425607295701,839.3128569288903,815.60883631402
1731304524.4222412,798.6124056526379,726.8129947238884,838.6952599240464,821.5816779224172
1731304524.4226184,782.3161464510173,724.9353984956377,837.5722379780578,799.3076353888571
1731304524.4253888,764.3009979264523,726.872525906956,835.669868356522,766.3057334787325
1731304524.4256103,760.2383408581667,731.5233232573682,833.3674590191556,747.065050026273
1731304524.4261425,775.8409879322336,736.8919768417387,831.6830646162473,754.6411408542219
1731304524.4300437,801.4324176045011,741.1502486217845,831.5524539617777,781.3350884147501
1731304524.4339447,818.3983967013708,743.4567559954388,833.0130648096754,805.0944530796176
1731304524.4378457,813.2549014233003,744.0744949860255,834.9937114152906,806.8666907808729
1731304524.4409466,788.9668763239035,743.7475302511648,835.8363785621735,785.8622730226101
1731304524.441747,764.1983566137079,742.8394326689222,834.1085114354148,760.7023631147081
1731304524.444469,759.8377941055443,741.0373125625327,829.2166012406391,754.9989697747401
1731304524.4456482,782.5680973797413,738.062786493122,821.6421264675911,778.4072006775258
1731304524.4495492,818.6825668829804,734.8848825962938,812.8342683454113,818.24830125854
1731304524.4534504,843.8579334129646,734.1872120123501,804.7844423894976,848.5855826891889
1731304524.4565046,841.7060129400854,739.1724587426314,799.3098171075759,849.7581553201544
1731304524.4573514,816.4891640541705,751.1901674715598,797.2430113151647,823.1900795108829
1731304524.4575586,789.8777226295366,768.0116726136828,797.919152090434,790.1273265853282
1731304524.4612527,784.3001947709007,784.4788645060223,799.3287016121885,775.4130719804889
1731304524.4633276,805.920343865697,795.497761924671,798.9951042207935,788.8544305719597
1731304524.465154,840.4618732768562,799.3215430599815,795.2005946358918,818.6766227123809
1731304524.4690547,865.0568932987505,798.6240716834103,787.906988666177,842.3150307423722
1731304524.4720626,866.6358470912763,798.5282081305546,778.8293338500798,845.8357704283686
1731304524.4729562,851.890423531753,803.1163061607706,770.5997692283801,835.5990060425721
1731304524.4768574,840.4637268094938,812.9827729192433,765.5078384210977,831.7474435147133
1731304524.4807584,847.1326172557054,825.3376943982139,764.5509817242398,848.8710616288298
1731304524.482186,868.5268665578724,836.1306527750793,767.3022962073535,881.1305487699605
1731304524.4846597,886.2067472415185,842.385817035868,772.547068063264,905.7453779039517
1731304524.4876206,883.4035936876328,843.248430365845,779.1421800726445,902.4185632309631
1731304524.488561,860.490156681955,839.5557184006793,786.4856730165459,871.7374356916197
1731304524.492462,835.5224932841633,832.8314096882724,794.3802138816283,836.1575275291486
1731304524.4924989,829.5580320320855,824.666840418977,802.5607649219252,822.2768283237116
1731304524.4963632,849.5113982264763,816.6793506197989,810.3173716763896,839.250654873346
1731304524.5002642,882.7423733885281,810.5212227888823,816.4353015659366,871.4566745730509
1731304524.5010448,907.130650942891,807.4746978854848,819.4021877380229,891.4893329696974
1731304524.5031784,907.8218406232429,807.8449600805052,817.7586882512373,882.6619924222819
1731304524.5041654,887.3734743759657,810.800506999677,810.5503457971131,852.4313521987511
1731304524.508067,862.2027373458714,814.9530449719891,797.8434586855739,825.7945979123866
1731304524.5119677,849.1598115729565,819.2027275553188,781.1029660529877,824.4422588064045
1731304524.515869,853.058716336825,823.0797226932942,763.085827707083,849.273805469556
1731304524.5187364,864.3054402799942,826.3607753026573,747.0491989848797,880.5773155251993
1731304524.51977,867.5517589351308,828.5566595660857,735.51255261106,894.7271961048558
1731304524.5199032,854.2877836872785,829.0410132505702,729.2020907858061,882.6750405170726
1731304524.5236712,830.0208828945744,827.8759985656923,726.7748064052603,855.4929162694881
1731304524.527439,810.8634029082518,826.5148855801251,725.4675304985524,834.2189586858493
1731304524.5275724,811.691674407961,827.4772975834837,722.3181725517186,833.5344675982666
1731304524.5314734,834.1125830828158,832.9551054837698,715.4104409059711,851.7832217003956
1731304524.5342944,863.4729616176392,843.2966999519122,704.683560340271,873.5155369323387
1731304524.5353746,878.4508242599613,856.4894913681044,691.985330447578,881.6135039421142
1731304524.538762,867.1417165095734,868.9965063541138,680.1939456449957,870.1753840834966
1731304524.5392756,837.1390564299692,877.3477161142507,671.6271878776429,849.1322767605046
1731304524.543177,810.4498724978329,879.5159888300016,666.5860761567694,836.806858196726
1731304524.547078,806.2208944016222,875.438836643159,663.1261842554496,845.048136469291
1731304524.5498524,825.3151072696552,866.6583751577656,658.4129348923211,868.1415240899098
1731304524.5509791,850.0141301817192,855.506651057892,650.719213964233,885.3807590456262
1731304524.5548804,858.9908926793239,844.3703413875461,640.5395593168546,876.9172794350104
1731304524.5576203,844.0905452666002,835.3324954834261,630.0899901246721,840.7842673915857
1731304524.5587816,814.6006184618294,830.0743187972588,621.8198204036357,796.5593288707089
1731304524.5623794,787.2588569133994,829.6515576859836,617.1436524472357,771.391813350974
1731304524.5626826,773.0377819152003,833.934150990648,616.0705045836797,778.9188134236741
1731304524.5654104,772.0458864896307,841.0437939541066,617.5797642856336,808.2161886688448
1731304524.566584,777.7504217462482,847.5146974237883,620.2786912665106,832.3306339496228
1731304524.5704849,783.7682092476621,849.594408743947,623.0415395945518,829.9562303203807
1731304524.574386,787.3572993932391,845.1754298025153,625.4789618225168,802.6015515986757
1731304524.576479,788.9203773523805,835.1107714633993,628.0442803831598,772.9210572992199
1731304524.5782874,789.9167376246728,822.9081468162624,631.6177559386406,765.5159806500652
1731304524.580968,791.3339478473628,812.9179065944571,636.7111661134448,786.3019887801778
1731304524.5821884,793.3352243170261,808.1654565619391,642.7889818777958,817.6436909656626
1731304524.5860896,795.6260482723769,809.078925291054,648.2434548128343,832.9243522901423
1731304524.5899909,797.8987621898533,813.5967814938787,651.1838028340268,817.957204976252
1731304524.593892,800.0322050792105,818.274508382377,650.6444743035509,781.6127817447948
1731304524.5953374,802.0610976382012,819.6761436127449,647.4488772819469,747.8581776858339
1731304524.596526,804.0655175181679,815.5471706349116,644.0448002431499,736.8284275465248
1731304524.5973196,806.0950639752856,805.5855956859201,643.200532639336,750.5429490127476
1731304524.597793,808.1553108694319,791.68289701821,646.2626259347119,773.9246187586632
1731304524.601694,810.2294959076503,777.3826287776692,652.1679068529004,789.0560660430128
1731304524.6055954,812.3018014290465,766.4538173581877,658.0234280324726,790.3388312243985
1731304524.6094966,814.3667681752885,761.079828108987,660.8969336592934,787.9523018537468
1731304524.6120842,816.4268606691779,760.704092572069,659.4459745651502,796.8880569627773
1731304524.6133976,818.4864598663918,762.3590929371596,654.191296347763,821.2669051463824
1731304524.614196,820.5480851723036,762.3617883247696,646.5308874951736,848.2358024773313
1731304524.6172988,822.6119594611318,758.3620223668079,637.7007605201229,857.821067861179
1731304524.6211998,824.6773013844712,750.5477572109253,628.6810749083281,840.8562987890731
1731304524.625101,826.7435311777581,741.3490115864751,620.8284349404875,809.0717972930721
1731304524.6276422,828.8106023370111,733.845693461268,616.1695706413759,787.4129296201587
1731304524.6290023,830.8786437522594,729.856846374512,616.7163263149994,794.0236757417559
1731304524.6322598,832.94752370004,728.9576368428973,623.3285338293906,824.6379101473661
1731304524.632903,835.0168905120873,729.1184898872167,635.2447981784607,855.1087117896531
1731304524.6330545,837.0868505399749,728.4900604386426,650.7528686215683,860.7457642577658
1731304524.6368046,839.158800446989,726.9314777910542,668.2683527180812,836.8031039724087
1731304524.6407058,841.2353099438606,726.0564490072254,686.6537557826746,803.0233967252726
1731304524.6432,843.3180336181381,727.8019543252021,704.4794554107027,787.9844087636
1731304524.6446068,845.4041698589964,732.7592810712597,719.2283045908166,805.700833956413
1731304524.648508,847.4847359684786,739.6513727267463,727.7523514746509,843.7195360990236
1731304524.6519132,849.5495736619986,746.3077081890877,728.147005263143,872.8467470775066
1731304524.6524093,851.6007134891825,751.2564849209714,721.6659775641323,870.8111108864904
1731304524.6563103,853.6657410715698,754.6691641719196,712.8850168677995,840.4403035848069
1731304524.658758,855.7917323646956,758.0255903554412,707.537290630007,807.4087495333025
1731304524.6602116,858.0028009144819,762.8666554980789,709.3179067228303,799.6309472169837
1731304524.6641126,860.2347010157806,769.6148525911874,717.9211269235963,825.3980796427995
1731304524.6672,862.3111062243013,777.3274557366308,729.7553842156774,867.766507747281
1731304524.6680138,864.0512885314399,784.5246682925213,740.7188196298706,898.7906481044522
1731304524.6707718,865.52684320069,790.4041495954087,748.7585172493398,901.2281537736851
1731304524.6719153,867.2915776522597,795.450318101784,754.1734175713345,880.315939382675
1731304524.674316,870.213560324954,800.9504993043197,757.7058165498878,857.160821424352
1731304524.675816,874.6219865642873,807.8273822702599,758.5911529803052,850.1426638433488
1731304524.6797173,879.0886201224822,815.7232513453762,754.833733946316,859.7614859411947
1731304524.6836183,880.0950387856778,823.0297485624233,745.7703525159636,869.0580089073799
1731304524.6875196,874.1354508044184,827.8170521995252,734.4941465339592,859.0441329424414
1731304524.6896305,862.0937654726591,828.9671748700916,727.4150103505134,826.4569233901844
1731304524.689874,852.1389754071217,826.6973964551213,730.594407533819,789.1140650442817
1731304524.6914208,855.9718951881111,822.1561448428467,745.4425884125594,773.8925717247038
1731304524.6953218,878.6515824369005,816.5629926521564,767.2459187180137,796.2711999160117
1731304524.699223,910.6751216888199,810.7955996322676,787.9373415289385,847.4450289858235
1731304524.7021403,931.7285894297727,805.8706120785304,801.1717920655053,899.459050485808
1731304524.703124,925.4106990779671,803.6840548921163,805.8996108182682,924.8167289451173
1731304524.7054317,893.186545858085,806.7728659048929,805.8590534763057,915.6628891792569
1731304524.7070253,855.1192448814961,816.6356741157343,805.7434152508481,887.9604154135795
1731304524.7084887,835.50831116951,831.797931580037,807.4137803440722,867.7588159894838
1731304524.7109263,844.3359263034089,847.5994760611072,809.2124744517621,870.4835582765138
1731304524.7148275,869.5869330884501,858.479747351315,808.5287492479222,889.4869245176432
1731304524.7187288,887.207595864939,861.2769225978757,804.8943709630746,902.7801600149663
1731304524.7209897,880.9954516907057,856.9981861063723,800.6391434817778,892.3863857747766
1731304524.72263,856.0237723483345,849.7941305239594,798.6717348410943,860.4136636843023
1731304524.726531,834.1824914735955,844.2001945715007,799.7228835287315,828.3612658817285
1731304524.7273474,835.4289443065479,842.8292584928064,801.6600386698462,819.8638186743943
1731304524.7304325,860.6069659408519,845.7833091871869,801.213933651487,840.9181654748681
1731304524.7343333,890.4683018262511,851.3360968416666,796.2423708775631,873.9796718223157
1731304524.7365477,901.8224030312673,856.6926543903742,786.6875512774072,891.1095357527365
1731304524.7370806,887.3001953177486,858.3769963051458,774.1107507946298,875.8853378472772
1731304524.7382343,862.1260162910361,852.9518976975218,760.8779499345167,836.6269518245228
1731304524.7421358,851.9268281319041,838.8128991461999,749.6204473432772,800.2581123294682
1731304524.7460368,871.1956454001846,818.3966372619752,742.5711895766835,791.4375068930415
1731304524.746206,909.9509431333497,798.7450575691723,740.3554727342024,813.4348032539467
1731304524.749938,939.8635207828581,788.8477230482558,740.8791894312493,846.0529390030903
1731304524.7521057,935.4805541010244,794.6936360744301,739.6897994794843,862.2618229727424
1731304524.7538393,893.8140195071135,815.3427076410031,732.3814469333188,849.9660846404323
1731304524.7577405,836.7473699582367,843.0926727261863,717.7333327701732,821.1303955669993
1731304524.7616415,794.5795424001668,867.8112624597646,699.1285308081651,801.0105214498817
1731304524.7650645,784.0745697433586,882.309605050326,682.8048394138771,806.7533165032677
1731304524.7655425,798.2578680454028,885.11206957944,674.0454091819126,833.2897309944823
1731304524.7676637,815.1411419159565,879.4190464325729,674.2319717810027,858.0827206789406
1731304524.7694438,817.3078929684897,870.0054290519048,680.9476605917354,860.423456840171
1731304524.7720208,806.186576509168,860.6779757881148,690.6303916457509,838.9427677320866
1731304524.773345,799.7544978680703,853.4979300646673,701.1789945993565,812.7228069493458
1731304524.777246,815.9189844632581,849.1336219305497,712.3526974358027,805.2305124188878
1731304524.7811472,855.3003494282269,847.2068305607044,724.1886184467199,824.6303392669353
1731304524.7832215,897.7991360809393,846.3645146633918,735.5304220527413,856.9409278087888
1731304524.7839231,916.5384992774843,844.6794891290145,744.3399840627003,877.6622507061375
1731304524.7850482,898.6919282960915,840.7277628429077,749.3896826421993,872.0678281274937
1731304524.7889495,856.4815378058977,834.6403506560883,751.429795108893,847.1865896600563
1731304524.7928507,818.8410719241988,828.0025478094334,752.4810686769921,825.5207150573591
1731304524.7967515,809.7888327822251,822.4703938089549,753.8734288370996,825.9429098493806
1731304524.7987795,830.761125653148,818.396844034221,755.0112825802548,848.0137829341776
1731304524.800653,861.0939850122173,814.8395835234115,754.1921318012937,872.7744968218962
1731304524.8027816,875.7209252429583,810.7848551672515,750.7377761693174,878.6386646912205
1731304524.8045542,865.0226317529992,806.0656764050476,746.2772734226644,858.2552642878683
1731304524.8069613,840.6922340640028,800.9641776027458,743.7503430251688,822.4509030542035
1731304524.8084552,823.8050532020428,795.2276332479103,744.950816899774,789.722887383658
1731304524.8123565,826.0736034779309,787.9970172955911,748.9649548006049,772.198738415738
1731304524.8143375,840.3009242129401,778.9781086851411,753.0577577919098,769.9161011090474
1731304524.8162577,847.7048087269233,769.5437418039772,755.1437507124737,775.3510944302565
1731304524.8201587,835.3824206167018,762.3870656630438,755.3844585067064,781.1186924212309
1731304524.8216405,808.7226957141484,759.9467040727792,755.352918822311,784.0435612641069
1731304524.82406,787.9734017938267,763.1343168806661,755.7144052410099,784.6045648007397
1731304524.827961,791.6163419979349,771.3319242931789,754.9274358534234,784.5067234023113
1731304524.8298955,820.3641164624187,783.0016642247981,750.4699162280426,784.9019922799085
1731304524.8318622,855.1522686693955,795.7515995098721,741.5338554726247,785.9800128878393
1731304524.8357637,870.9859200600727,805.9885006217054,730.547206994636,787.3967204687266
1731304524.8396645,855.669730688999,809.5221043341253,721.8206763496919,788.793095693713
1731304524.8404987,818.8112653644156,803.7548696750074,718.2028141679422,790.0278215244234
1731304524.8419013,784.4759819480311,790.0461008980915,718.5030641894551,791.1413680573091
1731304524.8435657,773.4958721749463,773.9371666245142,717.9650688596904,792.2270048555106
1731304524.8454533,788.8453864352518,762.3935129800287,711.6378910484973,793.3423798535274
1731304524.8474667,814.7027457928424,759.7197281060127,698.089109561128,794.4937752273435
1731304524.851368,829.3942912675905,765.0547357469436,680.5293502036569,795.661436475534
1731304524.8552692,822.0278267406425,773.3182404297531,664.5008076012268,796.8267285302486
1731304524.8591702,799.931579800952,778.9646041751503,654.1358535581282,797.9831089220667
1731304524.8593574,781.3658866746098,779.7683817325322,650.0605418654286,799.1332886823423
1731304524.8610113,779.8555680221549,777.7922671507606,650.2940437689145,800.2822303589287
1731304524.8630714,793.2244528318125,776.9302597798185,652.7066782096178,801.4327317973892
1731304524.8669724,806.2761019127447,779.2813405037971,656.5098276480684,802.5848807519626
1731304524.8708737,804.5303053919444,783.5641587742997,661.7402497650545,803.7375140563197
1731304524.8747747,787.254373071524,786.8222320335549,667.9387121602044,804.8896266694856
1731304524.8765693,768.802346184068,787.5689054848706,673.8144424601433,806.0408787598086
1731304524.8768413,767.0609904908447,787.2700739953341,678.2558612732132,807.1913982577086
1731304524.8782158,788.3924857663592,788.8240187514942,681.4116437582179,808.3414039474314
1731304524.878676,821.4729519816497,793.619791960318,684.5418690937132,809.4909869147724
1731304524.8825772,845.5989516135104,799.955150420755,688.7943139407307,810.6400966030719
1731304524.8864784,847.4066087655649,804.1083957201448,694.2709331048974,811.7886235085664
1731304524.8903794,832.4124523385692,802.9315882245224,700.3921360816404,812.9364717207995
1731304524.8921273,821.0403541270798,795.8731359878217,707.0701666369671,814.0835817473712
1731304524.894281,831.3847876387541,785.3623258437779,715.1845737257266,815.2299176799528
1731304524.8970745,862.7664733186406,775.8967907893508,725.4407892236023,816.3754470217052
1731304524.8981817,894.4317487638397,772.4773418343228,736.4264451418942,817.5201299318047
1731304524.9020827,901.4177200101924,778.6254842286716,743.9099868645801,818.6639192026287
1731304524.9059842,874.9756019028064,794.3907194027659,742.7897943991566,819.806764826392
1731304524.907685,830.7225629339245,815.5167344860769,730.8439248085135,820.9486176403271
1731304524.9098852,797.6124057434195,834.8955128575466,711.424695147327,822.0894302550521
1731304524.9117815,796.444811431482,845.9488633969202,692.4851571167466,823.2291561910561
1731304524.9137864,824.9223699676567,845.9395169570479,682.0263139821727,824.3677487416606
1731304524.9159331,860.7197899213874,837.1374777795313,683.1206689570134,825.5051603879886
1731304524.9176877,879.6100541613924,825.2955950436337,692.3422675088741,826.6413427747418
1731304524.921589,874.0173681151321,816.5635812646833,702.8371838731126,827.776246891554
1731304524.923243,857.3663501521984,814.6181600115824,709.4791922118884,828.9098231636488
1731304524.92549,851.0890956280892,819.3957746266777,711.9260993152769,830.0420213714771
1731304524.929391,865.1963205720998,827.8864235979012,713.4177084479646,831.1727904876832
1731304524.9332922,888.7331010288431,836.357616253108,716.9358939378004,832.302078572657
1731304524.9347916,898.4522236985316,842.5552499177841,722.381380008244,833.4298328116174
1731304524.9371934,878.7848202676163,846.4850740338015,727.0229765330284,834.5559996302047
1731304524.9388013,836.3944339213014,849.4830383192987,728.2704489777755,835.680524656298
1731304524.9410944,796.8484752531142,852.6135932525378,725.9182928710092,836.8033522558947
1731304524.9449956,785.79795106182,855.7949285058412,721.9346519965275,837.9244246532219
1731304524.9467218,809.8333015840244,858.1537748916325,718.3928920499834,839.0436812640953
1731304524.9488966,852.1624331862447,858.9437881341902,715.7652130748729,840.1610593872692
1731304524.952798,885.9260135406358,858.0654496306645,713.1591594305316,841.2764969367618
1731304524.9536502,893.9745116698314,855.8713702296807,710.0131164513607,842.3899358373895
1731304524.9543593,879.5324233812978,852.6457911327241,707.3198099934214,843.5013219185164
1731304524.9566991,860.208691827256,848.2525702048625,706.9593758267116,844.6105967120577
1731304524.9606,851.3232993202715,842.1548643613562,709.6750388742834,845.7176822401759
1731304524.9645014,852.7679539671872,833.805037794575,713.7196050183583,846.822471512683
1731304524.9684026,850.2557361705431,823.3000285956746,715.7099744296212,847.9248460313531
1731304524.9699168,829.6275323397535,811.9418381444053,713.1301749508864,849.0247305944127
1731304524.9723036,791.7918392712841,802.1019195053099,706.2849456143731,850.1221551309186
1731304524.972509,755.1059227294742,796.0902478557132,697.9992050271243,851.2172429265443
1731304524.9762049,742.362885390095,794.611140153304,691.4557056487504,852.310044643003
1731304524.980106,762.553480851165,796.0305323416223,688.1253972320238,853.4002547928053
1731304524.981662,802.4579597084108,797.2460598895436,687.36249244557,854.4870668446661
1731304524.9840071,835.6720242210781,795.6536611740373,687.5656197046983,855.5695614408527
1731304524.9854748,842.6326037581271,790.7305152038103,687.5771866128033,856.6477705269543
1731304524.9879084,825.8154335750567,784.0563030559216,687.1572966998468,857.7237670628601
1731304524.991367,807.4437735199515,777.9030525511537,686.4476275518966,858.8012301181197
1731304524.9918094,810.9065950366977,773.6443455883823,685.2362652602262,859.882095097346
1731304524.9957106,840.783127694771,771.2214830677561,682.8780792947451,860.9612919552443
1731304524.999612,878.2286784140289,769.8689749966204,679.0252210546141,862.0246840680721
1731304525.0010328,896.0322704501142,769.2064328190021,674.5019861203883,863.0574497737402
1731304525.0035129,880.9962661432381,769.5892185583211,671.4038143299438,864.0645748850977
1731304525.007414,844.9544365758142,771.4163316204283,672.0785336391156,865.0897317375826
1731304525.0102258,815.4188812448291,774.1532506900531,677.6086907652888,866.2029593446545
1731304525.011315,813.8897641594041,776.1453055001425,686.8925568760379,867.4336651030217
1731304525.0152164,839.5308613403273,775.5819177173919,696.9753453514423,868.6738025801181
1731304525.0165908,870.7528883355346,771.910610713097,704.3775760977959,869.6523892111692
1731304525.0166025,882.6108396865392,766.5623861018505,706.6435810130025,870.1129696739796
1731304525.0191176,865.9364441552773,762.3686301890632,703.4481682898612,870.2050387848216
1731304525.0230186,833.4997263320847,762.0218272388233,696.893108606446,870.803552831298
1731304525.0269198,808.9169071903211,766.5962366223893,690.7429332019873,873.1945514479348
1731304525.0290844,807.4663720042081,775.08880405228,688.5910388832885,877.7365219364661
1731304525.0308208,824.3382876501743,785.2576552189317,691.6703980893584,882.0647582099127
1731304525.0321488,839.8970660546684,795.1610924691134,697.7600775652272,880.7812632481998
1731304525.034722,837.4916850207201,804.2897094656339,702.355825798193,868.8623230328042
1731304525.038623,818.6453311860638,813.4367963511615,701.6960116891177,848.179509874641
1731304525.0425243,802.5206435076383,823.393835714451,695.5646715307103,831.1406377991087
1731304525.0464256,809.9579150937312,833.5510550030414,687.6847467583882,834.2773699825627
1731304525.0477066,845.4921019817549,841.7058650664865,683.2918936370666,863.798460180457
1731304525.0479429,892.2908239851213,845.5011185740661,685.6629472578886,906.4693531491554
1731304525.0503268,924.135715404205,844.4977818226055,694.117093041176,936.8570321760511
1731304525.0515423,924.9176965171674,841.10845355155,704.8113397448265,936.3416156276654
1731304525.0542278,900.4246060889756,839.33153094069,713.5802122742975,907.5588821261517
1731304525.0581293,873.2493485180938,842.0442244173148,718.6682015011493,871.8060578737087
1731304525.06203,864.6348859808772,848.9691034567277,721.412633714314,851.722897389188
1731304525.0632646,877.4459497587208,856.9521916568351,724.5829089454311,853.8406622963392
1731304525.065931,894.1178534999424,862.2187191830792,729.9261891754446,865.27292050728
1731304525.0668015,891.7688053900453,862.6767234208166,736.9868927132883,866.6177121376611
1731304525.0698326,862.3277388505464,858.5856929385986,743.9886866492711,849.5656011126596
1731304525.0737336,820.6187995957778,851.5504287473437,749.6756781477209,824.1604052854445
1731304525.0776348,792.9940954577107,843.1300259328812,754.2753487826043,809.8431642237994
1731304525.0788226,795.7213322609368,834.2708627718165,758.776933119536,818.2860076457024
1731304525.081536,821.346317155193,825.6993731084264,763.4132304876329,842.8065218920464
1731304525.0854373,844.4906983515182,818.5170550884782,766.9669255473706,863.2600365589999
1731304525.08566,842.1492219236293,814.2170423381618,767.7047007581657,861.9873634281288
1731304525.0864828,811.915528276747,813.9855917085844,765.2029023899391,837.182357692062
1731304525.0893383,773.8808461601704,817.8290169920152,761.4210534391794,802.8192250663054
1731304525.0932393,755.1715021218001,824.2741785965494,759.8588754709064,776.4422990172814
1731304525.0943806,769.3175166825772,830.9831285211734,763.1594176438125,766.496950284497
1731304525.0971406,806.2114614793192,835.8702793886167,770.9207637632092,769.5664965079421
1731304525.1010418,840.1169401282506,837.8383908708638,779.5570876301639,776.9785292170177
1731304525.104519,849.2751843728513,836.5856507867079,784.5742453004145,782.3753572383812
1731304525.1049428,831.7420678784306,831.8744628421664,783.7002457768907,784.2594833276829
1731304525.108844,805.3435307187104,823.2627101039126,778.557653751853,784.1703262305381
1731304525.1099384,792.5653687046525,810.847659634286,773.6652459824489,783.9946846724755
1731304525.112745,803.112753219152,796.4055954256371,773.5814768374175,784.5909634415028
1731304525.1166463,827.9691297243093,783.6116031771556,780.2543415024032,785.8395314953183
1731304525.1205475,848.6268470063978,776.6264143681027,792.1991238857757,787.2751914850991
1731304525.121423,852.7443089099093,777.7943013607384,805.59935254082,788.5748597080446
1731304525.123377,843.0450598006253,786.1299822589519,816.2427752621658,789.6783564418942
1731304525.1244483,832.7663126670229,797.7451430027515,821.1756096547318,790.6760448087914
1731304525.1254964,832.4133762184749,807.8631733459563,819.638917677876,791.6664687870409
1731304525.1283498,839.5992202571006,812.9899561124598,813.2970535625012,792.6900507706467
1731304525.132251,840.8948101010951,812.0049196723204,805.700482116851,793.73691088866
1731304525.136152,824.2744622916426,805.9775497238476,800.8830589753659,794.7816617159733
1731304525.1400533,791.4043626747577,797.3290656968717,801.4434584831602,795.808057847287
1731304525.1410544,758.727355594226,788.9660688447606,807.1016194807635,796.8138812317038
1731304525.1422358,745.6358504152038,783.5301313665228,814.7959879213905,797.8042733750951
1731304525.1439545,759.1317318626357,782.6407507916657,820.5262332517887,798.7842620301761
1731304525.1478555,787.6994533971781,786.2740557694724,821.8539759561208,799.7556129514041
1731304525.1517568,809.8208376184522,792.8019590763932,819.3293340703518,800.7175250038688
1731304525.1556578,810.7089693184001,800.0145269282361,815.8335800482535,801.6685712368686
1731304525.1563632,794.0669503840662,806.5773898303746,814.4453072613298,802.6079757629623
1731304525.1566124,779.3549242246957,812.7155974714105,816.5303698287753,803.5357660534127
1731304525.159559,786.2858836682466,819.4043088941049,821.3376765495066,804.4522390221924
1731304525.1610944,818.4345880444731,826.7252560688911,826.963221334827,805.3573601783006
1731304525.1634605,859.0957910112612,832.9374670322728,831.5550935051427,806.250562278467
1731304525.1673613,883.4628791322287,835.2367499109922,833.8732985065539,807.131186187751
1731304525.1712625,878.1838716657451,831.6804423844695,833.2558565094087,807.9994449768836
1731304525.1721702,852.6002643402335,822.7455260892555,829.5892706286562,808.8571875191627
1731304525.1751635,831.8285012457327,811.2768175162785,823.5733499797518,809.7072143284921
1731304525.1790648,836.5435566061227,800.7908964798672,816.9045432955079,810.5503303974012
1731304525.1799529,865.8137902069612,793.2964346038578,811.8033213163758,811.3814511634918
1731304525.182966,897.3638705997307,788.2268403276887,809.8771671383569,812.1891459335517
1731304525.186867,905.3402982863631,783.4300993047092,811.1088793665809,812.9638114929621
1731304525.1877282,881.0858502198823,777.6435962335265,813.9208238966587,813.7140260576136
1731304525.1907682,840.0567105710164,772.4691173312242,816.4554363192974,814.4781615859276
1731304525.1913035,809.7115865722168,771.8781877277517,818.0788226437287,815.3080903878393
1731304525.1946692,808.7776860949276,779.1479357383998,819.7726301423717,816.2116576576922
1731304525.1985705,834.6416153463947,793.5018233833824,823.000167678389,817.0828448832303
1731304525.1988115,867.9700371115907,809.388915333637,828.0459737345133,817.7047988065265
1731304525.2024715,889.1743527750587,819.3941559501461,833.3779210995924,817.9179287788861
1731304525.2032862,892.3420318034273,818.8036283534856,836.6694487944125,817.927521797659
1731304525.2063727,885.7638794132519,808.4696991156206,836.5643154078316,818.4882900370311
1731304525.210274,880.3996210925188,793.9753180239098,833.5566429160845,820.5328387523329
1731304525.2141752,877.7525223971626,781.9144825057294,829.2110864774909,824.0419254025053
1731304525.21767,868.2836957663313,776.068846523939,824.5645487878855,826.7789749983904
1731304525.2180762,841.6294896846354,776.006719113529,819.3452251061588,824.5052122000354
1731304525.2188442,799.388662664295,778.6080552409628,812.7962324735726,814.1938751281406
1731304525.2219777,758.9128826796112,780.8881314695159,805.213604820077,799.140611320553
1731304525.2258785,743.8093464679981,781.8377132692551,798.4913107737166,790.7070739939663
1731304525.2262435,767.5065584089677,782.2046070948768,794.8843094066697,801.5167934763726
1731304525.2297795,822.0066912748273,783.0864155376361,795.0027878447911,833.3938917739241
1731304525.233681,880.7357832542518,785.0943255772657,796.9650551605879,871.9448288821907
1731304525.2344022,914.5279834816743,788.8294763975844,797.6991768307361,895.578571583692
1731304525.2365286,910.1117810708938,795.5836094678949,795.3925722016496,892.4518083784151
1731304525.237582,878.0085393862532,806.668063954413,790.8968239682729,870.2043493742215
1731304525.2414832,843.9025469392625,821.4260159793309,786.7152022555396,849.4089774561304
1731304525.2453845,829.7019659410743,836.06544401063,784.4210538568071,846.1950001412264
1731304525.2492857,838.5222717132345,845.3412925867797,782.9332083482002,859.1592979568285
1731304525.24996,854.8594396664031,846.4143283737212,779.3751105592821,871.8698527045434
1731304525.2531867,859.1163626537981,841.6028226994642,771.7848508515169,868.4210593032591
1731304525.2553873,844.2070788426829,837.1734987551107,761.1114351861522,848.0843860710435
1731304525.2570877,820.7099559608844,838.6697202288527,750.5981079985496,826.1859286404986
1731304525.260989,806.9020255306998,846.4201544913967,743.1580788522845,820.5636293038438
1731304525.261184,812.6541854338677,854.9163402416848,739.1916954645784,835.4364585117823
1731304525.2648902,831.1098206109098,856.7083058545138,736.744843735194,856.7989436029935
1731304525.265518,845.2401780136682,847.9314308231849,733.6551408681592,863.8351751563092
1731304525.2687912,843.4899326194707,831.3281489222106,729.5992731516471,847.1917790595139
1731304525.2726924,830.7149118712388,814.540219295564,726.2518984497145,818.4948386468641
1731304525.2742455,824.4308834241008,805.0120450263788,725.5954569844673,802.094865510924
1731304525.2765934,838.9955346581662,805.3513173457787,727.9957434052071,814.9247522090501
1731304525.2804947,871.1379205244074,812.5208469968918,731.6752453321304,851.1935825134093
1731304525.281076,899.9121480080772,821.1334970956689,733.8947680241032,885.5296587570775
1731304525.284396,902.4459427666504,827.8459681699491,732.7737698918588,892.9122023614447
1731304525.2882967,873.1719272112716,833.1111665509018,728.3334478582132,869.1715899912667
1731304525.2921982,830.2669122275834,839.0473252671846,722.1296447539258,834.8937733180251
1731304525.2931042,802.8885613905263,845.7672898418672,715.9905461201249,819.2876660037077
1731304525.2960994,808.7562204446208,849.9116759167487,710.9684698774275,837.0475044892798
1731304525.2961242,840.1616956296797,847.0045972178652,707.2540735492934,876.5732199891444
1731304525.296634,870.0613936931862,835.594387374677,704.8559587707839,908.4252627118744
1731304525.3000004,873.5938373042479,819.3910186979228,704.166944209546,907.0797930351144
1731304525.3039017,847.6380013284323,805.3413812318413,705.739571593053,869.3238276505729
1731304525.307803,812.532525072352,799.1188588568525,709.4766838467076,815.7788720693164
1731304525.311704,794.8155420844637,801.6210309590439,714.1199482285234,775.1818928911447
1731304525.3119628,805.568558124571,809.0089104550241,717.6846682205335,764.0491512655947
1731304525.3121915,832.2662224036821,815.8081790498699,718.5796468386784,777.166746711664
1731304525.3156052,850.270242827317,818.4399009394984,716.5034459303218,795.0509718331249
1731304525.3195062,843.7108216874026,816.8147421932355,712.4411863198404,801.0344960186932
1731304525.3234074,818.3945694170327,813.445663069702,707.8834282207007,793.8824474691369
1731304525.327309,796.7729589514831,811.1330387660164,703.9486763112619,786.5479157613191
1731304525.3277495,799.844837925818,810.843166563697,700.9901093882573,793.2304862749941
1731304525.3308213,830.7985243312454,811.1310678208317,698.7650943469513,815.9598284934613
1731304525.3310645,872.9197643783837,809.5642437197124,696.8700516222361,841.8305716867316
1731304525.3312097,902.6086311509057,805.2222660168447,695.128484615955,853.2733220135918
1731304525.335111,906.8254539951403,800.2321862412259,693.7753949612202,843.1239034247741
1731304525.339012,891.4760488011885,798.6632967597429,693.3441731099366,821.8783865510163
1731304525.3429132,874.7958503786194,803.2124811098414,694.1788737549891,810.2231731763698
1731304525.3433075,871.6961312112726,812.348642127097,695.7152304908441,821.9480636552806
1731304525.3468144,881.992259269915,820.6517336802351,696.0645722710881,851.175127510153
1731304525.34968,891.9040220317876,822.4838690628528,692.5240136082812,875.4309680287577
1731304525.3507154,887.1307749244248,816.1116746924112,683.0543605894139,873.3840154498401
1731304525.3546166,866.3188923806717,804.8694003630484,667.8573597121538,843.2875434532542
1731304525.3585176,843.5351421838526,794.4844444712387,649.808641302704,806.4863122943193
1731304525.3588655,837.3984209149999,788.9128517625005,633.1589439479642,791.9509876783612
1731304525.362419,855.4655088145893,788.0449703417344,621.1778241297876,813.4701959737138
1731304525.3660047,886.6781302181435,788.757798474077,614.299889973117,857.7735050694307
1731304525.36632,908.7242878179331,787.9280975504216,610.1230960010635,893.6476464248732
1731304525.3685384,905.3129169422324,784.6737538580253,605.3542371143335,895.4177045707575
1731304525.3702211,879.7185760895633,780.1559130899298,598.32328225334,862.3861696467017
1731304525.3741224,852.9707209724875,775.5843709749026,590.1467825747043,818.6720392277713
1731304525.3744235,847.2229647689426,770.5905864911543,583.6347537830027,793.5474003657811
1731304525.3780236,867.6151527681145,763.6146663508146,580.9319740762862,798.3260743737321
1731304525.3819246,897.9052329022713,753.904246936787,581.9892257669553,818.664646487297
1731304525.385826,913.6982410964606,743.0519146996041,585.1323840352615,828.086112684717
1731304525.3873973,902.0909832332993,734.3499854456336,588.9520986096662,810.7888998934159
1731304525.3897269,871.4225573070074,730.345140192231,593.4994058009646,774.6724256289608
1731304525.3899815,843.7103931368449,730.7707700091386,599.6045535948447,744.56154363655
1731304525.393628,836.7738868700237,732.7294944971302,607.1607169663423,742.1986560740272
1731304525.3975294,850.7029541095505,732.9211459639322,614.3183102197942,769.5557166681634
1731304525.4009447,868.8966883314542,729.929761851082,618.5925957952823,808.1832396434293
1731304525.4014304,872.058956636141,724.7469100843551,618.8968822708758,834.0885675561469
1731304525.4053316,853.8135076873028,719.4621398859185,616.5061748678813,835.8754820698756
1731304525.4055395,825.8534529947818,715.573266003968,613.9164425422063,822.0360108922163
1731304525.4062555,808.6916485331468,713.3056180612784,612.537325246151,812.0615173020042
1731304525.4092329,815.0169996173537,712.0490378596526,611.2898001860777,818.7958936086249
1731304525.413134,838.6197803583633,711.0062737822849,607.4774657008701,836.6994065019829
1731304525.417035,858.2344747267888,709.3504112887161,599.3889749802131,846.320947909485
1731304525.420936,854.298402706855,706.1470574945704,588.5519018978157,831.8288396204097
1731304525.4210975,825.7176212547597,700.7790437335061,579.6332663189119,796.7623381336984
1731304525.4248374,792.5600783709841,693.9937974508745,577.6805422309526,763.8949602914546
1731304525.4251142,781.3904093636385,688.6332709538945,584.5158944396518,758.3873707334519
1731304525.4287386,804.4127703121943,688.8661416525515,597.0153134062214,787.7769370956639
1731304525.4326396,849.2761559806811,697.8280224866709,608.828742014226,835.2034857901762
1731304525.4358852,888.0102726414756,715.0967613858336,614.494501678554,871.4075593309286
1731304525.4365408,897.985915630507,735.9340620797902,612.8838777871098,875.9765029743155
1731304525.4366553,878.116268438367,753.1508745883698,607.3218007747021,851.3570080646758
1731304525.4404418,847.7055538957728,760.6389110161791,602.4498168585815,819.2997718760562
1731304525.4439728,829.7344196961856,756.4479246986976,600.6245794989492,803.2615155205201
1731304525.444343,832.9346592676281,743.592855620661,600.8754322206933,810.9822553104248
1731304525.4482443,847.2825995662413,728.3009513460771,600.9331857310473,830.777080187665
1731304525.452145,855.3096380300475,717.0467599513962,599.9872913715284,843.4571405299984
1731304525.4522133,847.7051434211221,714.2109845365189,599.4272237218586,838.5855183803483
1731304525.4560466,829.0760632171034,721.211817685419,601.2163050387265,820.7954929131031
1731304525.4599478,810.8303697194665,736.6305719374475,606.0016601613007,802.5052402904564
1731304525.4628313,800.6658853266388,756.6623840490452,612.8374405188284,792.5187381120973
1731304525.4638488,798.6238572718078,776.1143210895992,620.264330677365,791.3485453451834
1731304525.46775,800.3447246957791,790.496765482594,627.3418200873762,794.4681918129149
1731304525.4677713,801.8316074428933,798.5346536769223,633.8840910171924,797.5041877389584
1731304525.4708252,801.5882546247867,803.042927680292,640.1276825587862,798.7160726688909
1731304525.4716513,800.0785929485638,808.7742577254271,646.3370455021156,798.5290165296084
1731304525.4755523,798.3031553606262,818.5371150311585,652.6215650662193,798.0161132301979
1731304525.4794536,796.8628018535344,830.8516567854981,658.9551100339905,797.8530060731227
1731304525.48169,795.8095561146927,841.2702444499422,665.2695405634458,798.1207415411591
1731304525.4833293,794.9265758385579,846.18095519021,671.5212932140674,798.5938028522332
1731304525.4833546,794.016863769712,845.787524507985,677.7046965012626,799.0558700290583
1731304525.4872558,793.0150873228323,844.0196350492921,683.8340395401037,799.4299264507918
1731304525.4911573,791.9534154931076,845.9772522213607,689.9234039916904,799.7471831932577
1731304525.495058,790.8859284396266,855.2250624671844,695.9781327544217,800.0661114216907
1731304525.4988873,789.8424432887396,872.5745045822301,701.9966296651571,800.4206116755702
1731304525.4989593,788.8238320841892,896.231679228975,707.9754745178384,800.8130892158288
1731304525.5005484,787.8180986879572,922.3517462241749,713.9127665902112,801.2311567184565
1731304525.5028603,786.8153327183757,945.6592408651383,719.8086171992173,801.6640557590348
1731304525.5057654,785.8128369070469,960.6797895356797,725.6641086974704,802.1086965324954
1731304525.5067616,784.8128267731876,963.9196361041431,731.4802443890715,802.5674612497824
1731304525.5106628,783.818374846826,956.0590476081891,737.2575502974669,803.0438396869523
1731304525.5144453,782.8311347044837,942.3268275711321,742.9962055697265,803.5398598180417
1731304525.5145638,781.8512527698804,930.0115738667324,748.6963182399717,804.0558953455081
1731304525.518465,780.8782763782281,924.2476332103184,754.358090775624,804.5916151623721
1731304525.519407,779.9119225658056,924.9501002913437,759.9818344190828,805.146830454391
1731304525.522366,778.9523045030135,927.3156657502471,765.5679092039142,805.7217683724758
1731304525.5262673,777.9997795022764,925.6997083759009,771.1166691721091,806.3169276168624
1731304525.5300033,777.0547270334594,917.9430144335753,776.6284437606157,806.9328435043433
1731304525.5301683,776.1174398302092,906.7484208520218,782.1035460432058,807.5699601722972
1731304525.5340695,775.1881452657525,897.1322526355787,787.5422869197554,808.2286294942762
1731304525.5379708,774.2670843349197,892.3377248612422,792.9449823818486,808.9091681733672
1731304525.5382657,773.3545622474104,891.8061570743397,798.3119526309598,809.6119077374373
1731304525.5407057,772.450913104255,892.5669261007957,803.6435179815696,810.3372096293541
1731304525.541872,771.556379529139,892.0642120708942,808.9399964178364,811.0854461683864
1731304525.5455613,770.6709972700369,889.6553893891364,814.201704405064,811.8569617654679
1731304525.545773,769.7946540449896,886.1236170784855,819.4289589171444,812.6520404108306
1731304525.5496745,768.9274519570353,882.4709205765723,824.6220764989259,813.4709176653752
1731304525.5535753,768.0702381833285,879.1983574097779,829.7813662813134,814.3138663290172
1731304525.557124,767.2247534733119,876.2887250660333,834.9071194637804,815.1813261799853
1731304525.5574763,766.3926783341237,873.5161528022355,839.9996059844716,816.0739504699072
1731304525.5611193,765.5735040871439,870.7073396553096,845.0590922908547,816.9923943753233
1731304525.5613778,764.7627656325162,867.8202698450248,850.0858815741808,817.9368117384483
1731304525.5652788,763.9536838997202,864.8957763082044,855.0803469870845,818.9064039605429
1731304525.56918,763.1443520527542,861.9848735057785,860.0428996247267,819.8997446446216
1731304525.5730813,762.3473718254988,859.1111312842776,864.9738508108937,820.9164360768299
1731304525.575646,761.5911813086799,856.2716368784004,869.8732282885023,821.9594557355871
1731304525.5759826,760.9001221496796,853.4539473211576,874.7407520059548,823.0356968223947
1731304525.5766768,760.2540194373177,850.6493242416459,879.5762160551861,824.1515211195182
1731304525.5769825,759.5588563590119,847.8561018052436,884.3802599896347,825.3031723134313
1731304525.5808835,758.6858947297262,845.0767095313724,889.1549245099367,826.4691677853388
1731304525.5847845,757.6131799628276,842.3138283096882,893.9028974549635,827.618353344243
1731304525.5886858,756.5995806934941,839.5685758650603,898.624808674091,828.742690173349
1731304525.5922348,756.181641387354,836.84069823412,903.3159178619584,829.8999239047154
1731304525.592587,756.7631500540712,834.1295033854086,907.9662048869332,831.2172301602851
1731304525.5948412,757.8549304781081,831.4345298946479,912.5682447376764,832.7988122184609
1731304525.596488,757.6094999264499,828.755683972269,917.1317456780635,834.5444923233947
1731304525.6003892,753.7290403999607,826.0930638771423,921.6924548503428,836.0253328598594
1731304525.6042902,746.281849717839,823.4467625229449,926.2950111582195,836.6739599005019
1731304525.6077929,740.9672176426899,820.8167859546566,930.9401046230728,836.4341092928615
1731304525.6081915,748.9928887513498,818.2030696184235,935.5253837007343,836.5458007457188
1731304525.6105862,780.2201137522297,815.6055166607762,939.8576455033874,839.5399446653965
1731304525.6120927,832.3661879336964,813.0240103229954,943.8129184968572,847.5100767623884
1731304525.6136997,886.6104448673007,810.4584090424675,947.607206283064,859.2221333956232
1731304525.6159935,918.0249405867457,807.9085669053416,951.928940994447,869.1108697655245
1731304525.619895,915.2009805992665,805.3744043277637,957.5504797991908,871.1552726565566
1731304525.6233509,891.5684302369802,802.8559847430603,964.2718128396132,865.4175289997094
1731304525.6237962,876.1302858537027,800.3534783797838,969.7830063439453,859.9728639988846
1731304525.6276972,889.9798558678846,797.8669072326031,969.7969483447728,864.2573124066461
1731304525.6315985,928.7261678833929,795.3957514017326,960.3468249387057,879.3771168448304
1731304525.6325583,966.3284711257453,792.9388088325226,940.7960110107314,895.4799444858255
1731304525.6354997,977.1383192526,790.4948517206079,914.4221742588419,900.112810023508
1731304525.6389086,957.4092555752379,788.0641833377903,885.8153949425948,890.6089222387246
1731304525.6394007,928.5481315662702,785.6500262688294,858.1808099010528,878.7686838913166
1731304525.643302,919.9019503251159,783.2574997764839,833.1809523779392,882.3519199152756
1731304525.6455264,945.165585823619,780.8884746925556,812.1870560593568,909.7297209340579
1731304525.647203,990.9235151919459,778.5343172558054,796.4515931308193,950.8313881588424
1731304525.6511042,1026.1108143533695,776.1742713739396,785.8549774235549,983.0414764284665
1731304525.6514168,1025.2962896871961,773.7893147073441,778.0050592246163,988.3998617556565
1731304525.6544666,988.2887598589385,771.3918845272099,769.2056501534662,968.4720709155933
1731304525.6550057,941.0522517280527,769.049348903891,756.8422825205367,944.1580946773893
1731304525.6589065,916.6954251580042,766.8589168220379,741.1728022738205,939.4552051580239
1731304525.6628077,930.5619666742684,764.8463820916929,724.8571318268744,961.6385492243467
1731304525.6667087,968.5737166649567,762.8359043105053,710.5647545263671,994.147308037177
1731304525.6700246,998.2636438264533,760.4449196030772,698.8440446300115,1008.7483508290217
1731304525.6702754,994.2296510155364,757.3874568735587,688.2509023426954,987.8844611805293
1731304525.67061,957.9970710128448,754.0844613409582,677.4846981012834,939.5256919598745
1731304525.6745112,916.4030576735328,752.1947392862371,667.1626682790346,892.5007992305492
1731304525.6784122,899.8218456691545,754.3973904662557,659.2153179438313,875.5522351206462
1731304525.680467,917.98059850965,762.9958728270603,654.5049580666405,896.0799320276582
1731304525.6823134,953.0192206109479,777.8190336374794,651.3482983114044,934.8747547917792
1731304525.6855826,975.017505598327,794.9718554553529,646.7776919777128,960.9005414402976
1731304525.6862144,966.6163762285255,808.0745477650216,639.409875555014,954.7784794205031
1731304525.689134,936.3060814627014,811.9489438539832,630.9025824775401,922.9337443815508
1731304525.6901157,910.0300081731895,806.3607320746435,624.2780797953616,891.6499688792293
1731304525.6940167,908.99269711793,796.7485270289228,620.6299574163261,886.0060172219465
1731304525.697918,932.553343795706,790.8927037368514,617.5769688100947,910.4726235862171
1731304525.7011406,959.9895756166744,793.665292659994,611.2809977647095,946.2382283761232
1731304525.7018192,968.6283908472541,803.6777071742255,600.323675693747,966.5014936450214
1731304525.7057204,952.5049830493174,814.3299717868844,587.7428016778453,956.7190897594614
1731304525.7079926,926.2646760761812,818.4365120233671,579.1238129330791,923.9510440324618
1731304525.7096214,912.0014323332489,812.933361483489,578.2985423822847,889.3773691260469
1731304525.713523,920.5936221520064,800.3272921114777,584.368795654129,871.3701413068734
1731304525.715407,942.8327177188512,786.3028539470436,592.472877134363,872.5397515300233
1731304525.7166984,957.1860866864647,775.8313390975517,597.392266902099,879.7710534173455
1731304525.7174237,947.5844058613263,770.8108387499992,596.908693842845,876.1432315346004
1731304525.7213247,916.6389866023801,770.44679459249,592.4847409423566,855.1401232670345
1731304525.7252262,883.4379068908461,773.1737147784501,587.320594399024,826.0902470128499
1731304525.7268512,867.8045958355242,778.0525611369634,583.7831190065249,806.4391075795576
1731304525.7291272,874.3011827430618,784.6835475781405,582.2012537396075,806.9882530461483
1731304525.7322564,889.5130460979796,792.3541718947772,581.5197528259554,822.5346727029781
1731304525.7330284,894.75873863263,799.7272446508954,580.7907928553304,836.3666962442994
1731304525.7369297,883.0853198729162,805.5168611402497,580.1047959719032,835.1919676582415
1731304525.740831,865.7421707541824,809.4132053133366,580.3498740706353,821.4699383114272
1731304525.744732,862.3728914467122,812.2589620955703,582.2788947088033,811.8156809325241
1731304525.7457097,883.0719528138694,815.274628802119,585.8270833564594,822.0982956287711
1731304525.7478144,917.4807167498213,819.032869926172,590.2202468649759,851.6573155656948
1731304525.748633,940.5965711654061,823.02184319424,594.6581845801895,880.5253587271483
1731304525.7503471,931.5384158156758,826.0395706052152,598.9309533881865,883.4090188935725
1731304525.7525342,890.7338989566875,826.9983960295701,603.4819782377202,850.3814685585054
1731304525.7564354,841.365543074353,825.5368463851926,608.9247057471508,797.5432893647294
1731304525.7603364,812.7847305503483,822.1384349187213,615.421335964711,757.37739554941
1731304525.7633724,818.305119786773,817.867407278353,622.3700045781409,754.555014159917
1731304525.7642376,845.2559051672882,814.0079675252742,628.5678157798748,786.1620587057703
1731304525.7645683,865.8376136945751,811.7924531776194,632.7108942181771,823.4791706417486
1731304525.7681386,860.1948680252663,812.2183660665058,633.98252963277,835.1365266296667
1731304525.77204,832.7228405601774,815.856305000212,632.5056133062151,812.7521858137582
1731304525.7759411,808.0960696300475,822.5640254322019,629.437801859536,777.1209740411498
1731304525.7789302,810.2603116042985,831.1317725585285,626.5296556406029,759.5048706584773
1731304525.779842,841.5696676824616,839.1043691039135,625.2376930231022,774.3823202499591
1731304525.7834268,879.1215084600697,843.2218243414086,625.9000041788479,807.4457178428981
1731304525.7837434,891.67519798503,840.7343990794606,627.6224367069692,828.9758410101706
1731304525.7852874,864.2914945526772,831.1160052942078,629.1034269052071,820.4233827845726
1731304525.7876446,811.4007634447267,816.9579791425838,629.8915539935598,790.8421246923278
1731304525.7915456,767.3705558321117,803.0091592170032,631.1246535957457,769.0319240939019
1731304525.7944882,760.9670682337699,793.6634354433814,635.0638547497217,778.344772738827
1731304525.7954469,793.3444409308651,790.6012986310408,643.5822552478298,815.8792474045687
1731304525.799348,837.2632243515866,792.3272814487369,656.6016075762358,853.8667909194203
1731304525.8022854,858.5191386300808,795.8166320275037,671.6544642734663,862.0521868487155
1731304525.8032491,842.3403442669984,798.7758795589432,685.0592603453625,832.1509991687249
1731304525.8071504,803.4904987198904,800.6874536425141,694.0282271376925,784.0907214251573
1731304525.8100462,772.7521264879233,802.0593504662812,698.2307495017665,749.4889897350023
1731304525.8110514,772.1013946823648,802.9452705024809,699.6466023442877,746.761901563798
1731304525.8149526,799.168328662975,802.392457073357,700.8846719959059,768.299157673119
1731304525.818854,832.2790925651625,799.4821708197551,703.4225156698495,789.0364928923664
1731304525.8202276,849.7918643423054,794.8926790572426,707.2008344840996,787.9198054767389
1731304525.821144,846.7206077507013,791.1039715595649,711.6168352633862,764.2275627984119
1731304525.8227549,835.5230726776392,790.5011074166075,716.5803971070573,736.2853100278228
1731304525.8256042,831.8212580652184,792.8428750342374,722.3879999031957,724.9525328775438
1731304525.826656,838.1662082467326,794.6150948900432,728.649056945742,736.1518833987723
1731304525.830557,840.2822152816755,791.3530168842806,733.7375204668798,756.7562001828045
1731304525.8344584,819.5739541742247,781.2810381971332,735.8014764592438,766.7806283840819
1731304525.8383596,771.4833119554851,767.242992535603,734.6213849506901,757.1870014769631
1731304525.8400023,713.5044044696596,755.2581331516167,732.4338859131328,737.9117294993048
1731304525.841162,674.8569514684764,750.8104020408942,732.6003210933393,729.1898838246398
1731304525.8422606,675.3913503782201,755.6302868587829,737.0441236119412,743.7724149774438
1731304525.8461618,710.7532274769765,767.0627542961735,744.6709538218153,775.490145693359
1731304525.8500628,755.8831271169091,780.0515506267451,752.1950068238683,803.8973582462676
1731304525.853964,783.9220101013743,790.068628184769,756.6526465127588,810.7391883229186
1731304525.855168,785.3810900042346,795.0633348297296,757.4282342906092,794.2424383349908
1731304525.85672,772.8691130125625,795.5773059007845,756.1812916135056,769.8001343498639
1731304525.857865,768.5551202375161,793.5562399910411,755.0263969136879,757.2585344614014
1731304525.858861,784.8483649484851,791.0035925961689,754.7989321963579,765.3671264957349
1731304525.8617663,813.5689678278868,789.1988769312962,754.9440647066656,785.3546481822455
1731304525.8656676,832.212060374505,788.4714953321627,754.898766189089,798.2668733830196
1731304525.8695688,822.694865933871,788.3154553274293,755.3950630042004,790.518022985472
1731304525.872278,787.7310777958866,787.9103723254608,758.2129502070608,765.8967322004407
1731304525.8734698,750.9738831828374,787.114775710387,764.454403174049,744.3400210604549
1731304525.8773713,739.6634025549495,787.3793250006887,772.9650877933755,747.4033114014595
1731304525.8777196,763.0937635747014,791.5248733636112,780.5852239563645,780.9762400827308
1731304525.881272,804.3015002738655,801.9149597692796,784.2954344501793,828.8867384715622
1731304525.885173,831.9723957563369,818.0465902357253,783.4970720777343,863.2250296688973
1731304525.887836,823.355136293226,835.5503101590807,780.4138531998766,864.1859800724594
1731304525.8890746,780.5366714050222,847.8438054183991,778.249310208282,834.4660527325226
