timestamps,eeg_1,eeg_2,eeg_3,eeg_4
1731141877.2109225,811.702366556936,801.2478569965792,807.08290732441,794.8756987072165
1731141877.246039,817.9147782429513,802.1313323729793,807.5670253908978,799.0239502742373
1731141877.2811549,817.454765519318,802.9914581542553,806.8230470769665,799.5833660349872
1731141877.3162713,807.3773248607391,803.4918597581626,804.6138833608103,794.7205414143292
1731141877.3513873,791.2318852577589,802.9759240273869,802.1718284510968,785.855811800531
1731141877.3540344,778.5008724957634,800.8582312258161,801.714614199456,777.7123126073351
1731141877.3564303,778.886071790456,797.1896711467635,805.0245312458732,775.685059997873
1731141877.3579314,794.0391367132838,792.9473763117408,811.9474334651845,781.4876470666667
1731141877.3618283,813.9201494917683,789.686453141376,820.0993785010936,790.6739012772508
1731141877.3657255,823.2474526953242,788.6493822340701,826.3025279270369,795.2538229969193
1731141877.3696225,814.5418131857756,789.9355491712756,828.7164558638225,790.2933386200882
1731141877.3735194,796.3094933921005,792.379279033373,827.8521664705519,778.9372274780759
1731141877.374808,787.430826904549,794.2636647745239,825.6416352626493,770.7402138442183
1731141877.3752851,801.0842010549926,794.3804523020051,823.5592991354065,773.914491076589
1731141877.3774164,832.0074969394987,792.7426162159974,821.5808047907169,787.8898566722702
1731141877.381313,859.0329636456978,790.5148159859993,818.8121845859318,802.8409807355757
1731141877.3852105,861.7924211282761,789.1925360981057,815.0078586595753,807.0868290187265
1731141877.3865037,837.854239843891,789.5287217652508,811.4324383021958,796.480028113709
1731141877.3891077,805.5707146560906,790.9799853545071,810.1374371503506,777.9839918217095
1731141877.3903835,789.691266491029,792.2147214687966,812.118531193416,764.3268035481392
1731141877.3930044,801.412525181631,792.4126888809323,815.9233537489555,764.0223563998965
1731141877.3941395,829.513256817595,792.2555347180893,818.1989027224506,774.9474867346402
1731141877.3969014,850.165573514546,793.5503787776953,816.22222019425,786.7901465599248
1731141877.4007983,847.3587251951428,797.5778130403932,810.5815334311842,790.3564022002901
1731141877.4046955,826.73285116101,803.5634439008991,805.5337822889488,785.9071057850892
1731141877.4059591,810.9193503579869,808.7798396230876,806.137723350734,783.2734011472285
1731141877.4085925,820.0664122202205,810.3925725734279,814.0536167684867,793.2805113817445
1731141877.4124894,853.9146177074472,807.5499452906067,825.453488551709,817.5149765068751
1731141877.412994,890.6078814233033,801.993472285596,833.1388285954843,845.2498101015198
1731141877.4163864,903.4166844854309,796.8277197049313,831.6222720593618,860.6154838179028
1731141877.4202833,881.7932047428742,794.613789798611,821.3882392772854,854.5787452211981
1731141877.4215343,839.8969314839069,796.217349147205,808.9758203570158,832.1454966566636
1731141877.4216194,805.9870890113453,800.8796328012726,802.6241443131377,808.899379902369
1731141877.4241805,801.0887401989743,806.9645510131302,806.5864464641228,799.478638344766
1731141877.4280777,823.442532480997,812.6607541667544,818.3023529385282,807.0256397459971
1731141877.4318483,850.682386462068,816.4044009158105,830.5481947997773,821.8732792822839
1731141877.4319744,858.033273891772,817.1891401738582,836.8974166682563,830.3021621962044
1731141877.4358714,838.2365919852139,814.862519377397,836.2003240943021,825.9986671813824
1731141877.4371102,807.2076335697004,810.238999843322,832.5891432242164,814.6297875668513
1731141877.4397683,790.6302293212229,804.8217680712386,831.2810548519898,807.816090227019
1731141877.4436655,802.3502912423035,800.1864779412238,833.9956749177683,811.9623032714857
1731141877.4475625,832.5169490229455,797.3475864190643,837.9186541283673,821.9430161670565
1731141877.4507031,855.4525608835005,796.4434235847071,838.7659629420209,825.385827537076
1731141877.4514594,850.687778679081,796.8632178483466,834.8618418911799,813.8984955367753
1731141877.4526856,819.6402164021689,797.6916949500013,828.540307172109,791.3875117607934
1731141877.4553564,784.3022866919773,798.2085376959708,823.8610085210202,772.0725873261741
1731141877.4567356,769.3893674278968,798.1835741341933,822.9111792317049,769.6462289466012
1731141877.4592533,782.8321108173742,797.8346178236678,824.0046483733415,786.5132887765582
1731141877.4631505,810.3959372443181,797.5152698551606,823.2683552729853,811.8672443806804
1731141877.4670477,828.3107276910832,797.3737446725374,818.1657805223044,829.9316212878119
1731141877.4682612,823.0734068087672,797.2426195418939,809.9069277494848,831.4702119101407
1731141877.4695575,801.9958937204411,796.8341170695891,802.6973514013544,819.4567287714283
1731141877.4709444,786.0162682149916,796.0507466771214,800.4987650576609,805.0600460423096
1731141877.4748414,791.1453861335328,795.1160876980645,804.0651222469539,798.0540369606416
1731141877.4787383,814.3565172569495,794.4051474227306,810.6502165226292,799.7475873206076
1731141877.4826355,835.8538725146811,794.1401791646823,816.3492892723849,803.6850253671449
1731141877.483837,835.777046180334,794.2277915618466,818.8523982423415,802.6414684917183
1731141877.4865324,811.3085352975327,794.3732962227009,818.40973961321,795.5900102308425
1731141877.488412,779.9208729697541,794.3925665676118,816.7123964865425,788.9101842128794
1731141877.4904294,765.9277352220411,794.4952035713151,815.1269379820615,791.027256387622
1731141877.4918518,780.963836978192,795.2637489677678,813.8117349928594,804.826258744365
1731141877.4943264,813.946453081179,797.1856659674378,812.084133658833,823.9414250274021
1731141877.4982233,838.8972069720376,799.9829204811118,809.3671631695604,836.3135768994154
1731141877.499412,835.0904238571724,802.368904874571,805.8614585907624,832.9639313845098
1731141877.5021205,803.8004319980195,802.7241901907469,802.4966052300356,815.4690181131647
1731141877.5060174,767.8485022761209,800.39412909942,800.2366196540227,795.8520487628472
1731141877.5072663,753.6917296737054,796.542879024852,799.2735677190749,788.177401306898
1731141877.5099144,770.4154458581489,793.6447596205933,798.853925942096,798.0286881204916
1731141877.513811,802.9903234791392,793.8252122726863,798.065815292175,818.2850859171787
1731141877.5149877,825.258418776031,797.3580760541048,796.952614723508,834.7537227885722
1731141877.5177083,821.4527034959455,802.5608996005269,796.7686554713763,837.1763221250712
1731141877.5216055,798.2819632249799,807.1104316229033,798.908694654808,826.8201720919511
1731141877.5255024,778.2642992955457,809.6042175155618,803.4404611818084,814.8492272098936
1731141877.5261211,780.7753711468698,810.1371799532351,808.6667847593305,813.1211461515622
1731141877.526968,806.5572555817531,809.6746591712622,812.1333022672854,824.7307126299552
1731141877.5293994,837.5580001937229,809.0265610006371,812.1612917542799,841.4147894244089
1731141877.530563,851.4815476851403,808.3623589078902,808.7465710065302,849.6207279220505
1731141877.5332963,839.3797569579391,807.5084402559629,803.4648115156548,840.7035560430629
1731141877.5371933,812.6339380944473,806.5134143571709,798.7180703428758,817.6394661875427
1731141877.5410905,793.8156764530262,805.8399563661912,796.681637284514,793.0381203363428
1731141877.5449755,798.4875366397888,806.045698821461,798.1808405889125,779.8277474456414
1731141877.5449874,822.562576071953,807.3462170115449,801.9665722074901,781.9640614369972
1731141877.5461388,845.7556125425323,809.4640913577695,805.1019517978314,792.6561550419137
1731141877.5488844,848.4843111957598,811.7640937381861,804.6909179627759,801.2647153516987
1731141877.552781,828.2113900302611,813.425383680481,800.0255773902776,802.624730400548
1731141877.5566783,801.6252397773751,813.5758580370576,793.4670788163635,800.7550163494536
1731141877.5605755,790.9761395811547,811.5558579979879,789.0116987599315,804.1855495254841
1731141877.5617142,805.9660308919299,807.3630903583452,789.2894551740503,817.4435466503875
1731141877.5620842,835.8997285397099,801.9779216199049,793.2410402070518,836.2065799819542
1731141877.56383,858.2217725585964,797.1677818654186,796.5159602720872,850.2161911637191
1731141877.5644724,856.5091034906621,794.7267818240737,794.6515185018457,851.5112909128844
1731141877.5683694,833.5782153896826,795.5898539008289,786.7621347585061,841.1172958436276
1731141877.5722663,809.06849553913,799.382547699612,776.7334362767654,828.3950890023132
1731141877.5761633,803.1408497043408,804.6128120620322,770.6742167595219,823.2050277597459
1731141877.5772898,819.5218968939315,809.2637637650733,772.4592068752104,827.3220509475748
1731141877.5800605,842.253727379915,811.4619769580734,780.9764511188257,832.6520775331985
1731141877.5826845,849.3215276084959,810.1356526532111,791.3680579529782,828.2050434058611
1731141877.5839574,831.8678319693772,805.6431302970387,799.0866627445674,810.0844816568377
1731141877.5878544,802.6076702416407,800.0257134494027,803.1291430938549,785.8977725869695
1731141877.591751,786.0254238025597,796.3337884520603,805.7219813719173,769.6547462638054
1731141877.5928652,798.2621794848965,796.9914651380145,809.1612575127716,771.2402068690761
1731141877.5956483,833.202370734774,802.1196121122883,813.1149016800101,788.9316962299202
1731141877.5972004,866.1934185112665,809.1167080417013,814.9981569963999,810.7696006071227
1731141877.5995452,872.6743786161662,814.0442592305562,812.8764325536531,823.5478361322581
1731141877.6015391,847.1860588631222,814.0451064421874,807.8934835256927,822.4892242883634
1731141877.6034424,807.7510405200226,809.2153427445207,803.7365289625532,814.2751606715425
1731141877.6073394,781.7944926695681,802.6494451245189,803.491310585061,811.0222875165545
1731141877.6084406,784.4370786389825,798.556613056096,806.7272459353524,819.6978695918344
1731141877.6112363,806.74362890102,799.6372683195651,809.5725115811098,835.4751209632609
1731141877.6151333,824.032031255604,805.455535880176,807.9693077050407,845.0410004297786
1731141877.6190302,817.6328727596333,812.8907695553401,801.4419566160002,837.855514296414
1731141877.6203935,791.4895841871539,818.2734657704971,794.0457634677274,816.0795089633793
1731141877.6229274,768.9084763453197,819.6182543165893,791.3877620156629,794.1963914348872
1731141877.6240163,771.9746647209732,817.4373935872495,795.9607330845599,787.8773367888482
1731141877.6268244,801.5392937905143,813.8514372242373,804.664236514201,801.1857626662879
1731141877.630721,835.4091217671383,810.9783618827811,810.784861224196,823.1178927237968
1731141877.6323166,846.6412879402114,809.8277005429717,809.0890767877008,836.7487693316831
1731141877.6346183,826.4898496401152,810.1707277596489,800.0484620921092,833.4660128311268
1731141877.6385152,792.4484556906419,811.016899542007,789.7990787723503,820.1916247705833
1731141877.639248,774.240062688983,811.1619624288422,785.7822817415439,813.1484127319175
1731141877.6395917,789.0096836465509,809.6538841471862,791.4038180407739,823.0880218053362
1731141877.6424124,826.2062893970101,806.2594114668275,803.7806377888795,844.5138506550696
1731141877.6463094,855.0712025775067,801.7903475595242,816.1779977144381,858.6145557274845
1731141877.6502063,849.1823475310106,797.8981017521094,823.0473867747877,848.2308464937939
1731141877.6541033,808.1682359616229,796.2107067784343,823.6203587886964,812.6832920320251
1731141877.655167,758.721689878417,797.3186596632733,821.4152507769076,769.9834870802588
1731141877.6580002,734.0732452819077,800.3973913898718,820.574345850098,744.3639246652297
1731141877.6581025,748.6543456555507,803.795183368213,822.4979158554072,749.0467898939527
1731141877.6618974,787.9656676649015,806.1307465646946,825.525516124727,777.4674646308005
1731141877.6657944,820.7358945421453,807.0554716627764,827.3314494274199,808.8257028148289
1731141877.6674328,822.9349169380969,807.1334180558729,827.3551993444554,822.903215103437
1731141877.669691,795.0239402809406,806.9990574254886,827.065613550802,813.1808567891277
1731141877.6707428,760.0753714424799,806.5518331160171,828.2539818501637,789.6663755497419
1731141877.6735885,745.1758902470037,804.9849389725589,831.2693731819433,770.5460977644625
1731141877.6769571,760.7327800111769,801.7712132883589,834.7131260217557,769.1869977091495
1731141877.6774852,793.4139084372355,797.7582924426241,836.4999376411328,785.617508137825
1731141877.6813824,817.7860907480415,795.1613796821397,835.1643627867081,808.0357133788838
1731141877.6852794,817.0741732783938,796.0851192020754,830.5259762520096,822.5234203151114
1731141877.6863184,796.2029015836438,800.6795516792038,823.5907950327095,823.1395300686906
1731141877.6891763,776.6443446919766,806.6576858847232,815.9717975219672,814.6133104338553
1731141877.6930733,777.7039991758224,810.8232867450696,809.1009015509613,806.1766180965637
1731141877.6958115,800.0825848790784,811.3954846343287,803.5331558895027,802.5195453925511
1731141877.6969702,825.3839397252236,809.1419826864968,798.7997049080329,800.0521307122813
1731141877.7008674,831.796099182722,806.4463912996606,794.1120380671226,791.7087615026018
1731141877.7018938,812.8608403778434,805.2929573464461,789.5242318630562,775.7505124248686
1731141877.702549,783.7783628783375,805.941032770457,786.4804463601108,760.1432928406284
1731141877.7047644,769.7391256852809,807.1931497399919,786.906999028068,757.6146120836651
1731141877.7086613,785.3532153350824,807.6842226120182,791.2920910580078,774.7400887544577
1731141877.7125585,821.9335759019417,806.9463874431041,797.4544293704186,804.4202748646123
1731141877.714666,853.6780515758597,805.521451004819,801.5175992112175,829.1860198254143
1731141877.7164552,858.4544191570435,804.3458521714815,800.7466337966055,833.7630689162127
1731141877.7174692,836.1423911529711,804.0995034706251,795.9206919417383,816.8059735012027
1731141877.7203524,808.7029229595806,804.9722829400444,790.8966982214058,791.6932497622133
1731141877.7242494,801.4391211800961,806.8111083150852,789.3861657964567,775.4692809367201
1731141877.7281463,821.4212068116577,809.3477941283905,791.6594757824997,775.3733837306665
1731141877.7320433,851.706879052956,812.2696419318112,794.2072596441304,784.3437448608308
1731141877.7330449,865.9796399173473,815.1110378058257,792.822198649973,788.6382621228832
1731141877.7335205,850.3549289577854,817.1450516910958,786.4709275273125,780.097006836005
1731141877.7359402,813.6056023220793,817.5205148592906,778.5689849876833,762.2726660513732
1731141877.7376652,778.2324874442447,815.7262061157923,774.4765951326139,746.0379720140934
1731141877.7398374,761.8551129947613,812.117979481059,777.2195568496973,739.8644028590629
1731141877.7437344,765.7762116123979,808.0171453392948,784.9419784761407,743.9148402516672
1731141877.7476313,778.8084560643034,805.1053089961804,792.2191735071626,752.1643715119868
1731141877.7486205,789.229680089107,804.4297548305498,794.2129918972537,758.6249342413428
1731141877.7515285,792.5517135763087,805.7610650234312,790.3047848455287,761.2138598856218
1731141877.7523751,790.8167035390596,807.8362380640231,784.2807622481836,761.1926897680263
1731141877.7554252,787.9117058077533,809.3093276410397,781.0452590687325,760.6522363240972
1731141877.7593224,786.1901306955232,809.6621251523896,782.7242384250453,760.7920074351108
1731141877.7632194,785.9089521801271,809.4031483258356,787.3885237701038,761.6981026741715
1731141877.764196,786.2743392278339,809.4935510875587,791.1929383991124,762.9306100025932
1731141877.7671163,786.5403936263587,810.528466877635,791.7436096246009,764.1005817485793
1731141877.7710133,786.4491000418968,812.3150499829259,789.6871401165014,765.0848337283921
1731141877.7712295,786.1138152688013,814.1120195401705,787.4628008622345,765.9517738278957
1731141877.7727811,785.7368960432482,815.2719021202539,786.8332241949673,766.8096662465666
1731141877.7749102,785.4326395734312,815.7388480853484,787.6352943075701,767.7164627406063
1731141877.7788074,785.2061772699375,815.9887179774214,788.5919254409251,768.6724685297556
1731141877.779771,785.012606577916,816.4635191569524,788.8703113417029,769.653205239169
1731141877.7827044,784.8136693684389,817.0089188322343,788.6747106110746,770.6390209018612
1731141877.7866013,784.5979631543609,816.8684173242195,788.6518951335655,771.6248014745524
1731141877.790084,784.3728497981843,815.3063105715223,789.1499633251917,772.6150616903715
1731141877.7904985,784.1492549863254,812.3143605366861,790.0652886355496,773.6158190035654
1731141877.7943952,783.9329098026863,808.717008455733,791.1149164983951,774.6301621862007
1731141877.7953467,783.7238338278797,805.5318791331808,792.0993975465836,775.6581767716389
1731141877.7982924,783.519683604618,803.1689252242996,792.9745382715328,776.698789657912
1731141877.8021894,783.3186702225555,801.2263129325411,793.7887940380069,777.7512859095818
1731141877.8060863,783.1204685309442,799.0600398511357,794.599627385637,778.8157367363679
1731141877.807897,782.9256947966776,796.5328322429546,795.4323058380471,779.8926918550804
1731141877.8089385,782.7350953560322,794.1795164961108,796.282431695756,780.9827477475726
1731141877.8099833,782.5491182646995,792.6725132995805,797.135605611097,782.0863323518275
1731141877.8109224,782.3679177725579,792.2191063907786,797.9821413810421,783.2037174602525
1731141877.8138802,782.1915423719803,792.4856383026705,798.8204506057378,784.3351212944926
1731141877.8177774,782.020083475335,792.9685202674616,799.6534396623368,785.4807852892214
1731141877.8216743,781.8537119383343,793.3453600018698,800.4841535205003,786.6409906244943
1731141877.8255713,781.6926408782463,793.5534458861061,801.3138173821112,787.8160371527078
1731141877.8264978,781.5370803372136,793.6744801238528,802.142132516238,789.0062192902561
1731141877.8277931,781.3872234201361,793.7991088169496,802.9683561637388,790.2118185731331
1731141877.8294685,781.2432662666224,793.9645059966657,803.7920437043289,791.4331133246179
1731141877.8333652,781.1054362797194,794.1614121486825,804.6131818142018,792.6703925650332
1731141877.8372624,780.973990629605,794.3663207635452,805.4319763540983,793.9239559704874
1731141877.841159,780.8491590732457,794.5642630501724,806.24862402459,795.1940875410837
1731141877.8420734,780.7310526785757,794.7532824455834,807.0632196904622,796.4810125988002
1731141877.8430135,780.6196308207469,794.9382326099442,807.8757806566359,797.7848806440641
1731141877.8450563,780.5148502100132,795.1238582010848,808.6863074313922,799.105832086467
1731141877.8466475,780.4170172748954,795.3118896282124,809.4948230494059,800.444160963541
1731141877.8489532,780.3270990497479,795.5016780559905,810.3013769080177,801.8004629756485
1731141877.8528502,780.2464850133248,795.6919552202645,811.1060257519879,803.175533649489
1731141877.8567474,780.1758181159902,795.8819771018633,811.9088108803634,804.5698331642758
1731141877.8576488,780.1133599039074,796.0716881647771,812.7097490883415,805.9827209096701
1731141877.8606443,780.0546482219154,796.2613619963217,813.5088507929597,807.4122667351506
1731141877.8645413,779.995659313742,796.4512414415178,814.3061651226715,808.8566778085966
1731141877.865502,779.9395257814022,796.6414033849288,815.1018218594548,810.3174095250592
1731141877.8684382,779.9017610796361,796.831804588352,815.8960090391139,811.801671653357
1731141877.8723352,779.9044142900574,797.0223767170639,816.6888366981494,813.3198839339418
1731141877.8732245,779.9529678409438,797.2130831392022,817.4801347017567,814.8750798987733
1731141877.8762324,780.0066700018721,797.4039238093177,818.2693903735227,816.448981486451
1731141877.8781295,779.9767221552629,797.5949147898513,819.0561010308579,818.0005719950233
1731141877.880129,779.791911847706,797.7860696699643,819.8405787929611,819.4958240345755
1731141877.8840263,779.5257683247376,797.9773934119285,820.6246376363615,820.9667044877211
1731141877.8843565,779.4820630311268,798.1688853850837,821.4110078977895,822.5525473471797
1731141877.8879232,780.0592797611016,798.360544453088,822.2006413962929,824.4403515413902
1731141877.8888,781.298402094311,798.5523717640855,822.9890265382976,826.6569910403786
1731141877.8918202,782.3529469522787,798.7443708082886,823.7655567637051,828.8198128970804
1731141877.8957174,781.5535586537723,798.9365462623217,824.5209207658854,830.15561239398
1731141877.8996143,777.7775013925328,799.1289030306074,825.2624126963492,830.1245196898877
1731141877.903211,772.9110061221738,799.3214459660446,826.0254127967025,829.5692345256165
1731141877.9035113,773.4216880412805,799.514180052033,826.859271149347,831.492592221691
1731141877.9043753,788.0269327497708,799.7071106631577,827.7741664764803,840.0761204132941
1731141877.9074082,820.6870623610788,799.9002436901758,828.674442658468,857.5493505359976
1731141877.9113052,863.7080340041961,800.0935855212707,829.3574537510899,880.9731264098979
1731141877.913246,898.8987388569224,800.2871429652715,829.6666812471061,902.3420661654296
1731141877.9152024,909.1530946587138,800.4809231893096,829.7817560987182,913.0904938975008
1731141877.919099,892.0597435795041,800.6749336924468,830.4071467538566,909.867061309053
1731141877.919951,863.1051398531293,800.8691823014883,832.4561959931367,896.9219135649431
1731141877.9220655,844.2783941694266,801.0636771686566,836.0369959272108,883.1205002540054
1731141877.9229963,846.7833671734867,801.2584267607152,839.3392985636024,875.6885174522986
1731141877.9268932,862.2504854399377,801.4534398399375,838.8881499683254,875.1932088401807
1731141877.9307902,870.3164111275081,801.6487254417475,832.0767136064753,875.6692534049096
1731141877.9346874,856.8627188922745,801.8442928527988,820.3517232286217,870.2881963213396
1731141877.9355264,827.6892212658554,802.040151590475,809.5958550449825,858.3603099097847
1731141877.9385843,805.40825765207,802.236311382986,806.2895633372461,847.4493731514392
1731141877.94092,811.1642662911986,802.4327821489497,812.343388379831,847.7564259131485
1731141877.9424813,845.9916788634322,802.6295739759137,823.1977328033239,862.7500737979556
1731141877.9463782,887.6820924857991,802.8266970979503,830.9959873242409,884.2084797794199
1731141877.948362,906.6245268597378,803.0241618729071,830.2491031588361,896.8917138121896
1731141877.9502752,888.4464551980908,803.221978759979,821.4828087506194,889.9592881195192
1731141877.951102,845.4099729488521,803.4201582978819,810.2744125393216,866.020548835207
1731141877.9541724,807.3016599874202,803.6187110829777,802.8471136628991,840.0584929800052
1731141877.958069,798.9237924116399,803.8176477456851,801.8129417752098,828.5846175605524
1731141877.9597745,822.0150462760934,804.016978923606,805.085709251371,837.5215260505297
1731141877.9619665,855.7584532124381,804.2167152322895,808.282381102048,858.5068531122746
1731141877.9658632,874.8787290251944,804.4168672390454,808.3718314313533,876.3775624051824
1731141877.9666774,870.1032724996875,804.6174454478531,805.7300738305365,881.3334833176788
1731141877.9697602,854.2584121988601,804.8184602979449,803.2997057230899,875.634239021701
1731141877.9736574,849.6609249156577,805.0199221622553,803.8696402068218,869.7478012748943
1731141877.9775543,868.1064710087205,805.2218413139669,807.783015969717,872.053178571731
1731141877.978629,900.4149699466925,805.4242278338335,812.7597370679573,881.39095078697
1731141877.9814513,923.8746766310304,805.6270914811155,815.6916339242958,888.6823908656689
1731141877.9822533,920.9352688337063,805.8304416345168,814.8378147301029,885.6579398647076
1731141877.9834783,893.6493374764793,806.0342874493155,810.8330549986908,872.7263544915693
1731141877.9853482,862.2196732256268,806.2386382570547,806.0045885469104,859.0500419536155
1731141877.9892452,848.900258015092,806.4435039171148,802.658280663486,854.7299443549019
1731141877.9931424,860.258081753182,806.6488945145088,801.5478156787334,861.8364693102026
1731141877.9970393,882.3136226752681,806.8548189459542,801.5547076188935,872.2140383312495
1731141877.9974835,892.8237469860137,807.0612829457081,800.8210033963034,874.4097977344842
1731141877.9978285,880.7658739716189,807.2682886495276,798.525455095443,864.1628259276629
1731141878.0009365,856.6385093483507,807.4758383436675,795.8536096253836,849.3400978744056
1731141878.0048332,844.4314907206217,807.6839424743318,795.1746006275454,844.4342594672214
1731141878.0087302,861.4397564344872,807.892625900762,797.9008904713041,858.5584695659767
1731141878.0126274,902.5873190136864,808.1019209480443,802.794663238049,886.7697736779922
1731141878.013404,942.5105751269523,808.3118398253939,806.318084515862,912.2041805332709
1731141878.016338,954.1714555090318,808.5223391115215,804.9973685560625,917.777632500839
1731141878.0165243,929.3995953048214,808.7333173912433,798.0694547700106,898.5140711328906
1731141878.0185945,885.2476750913754,808.9446934368151,788.3423194523956,865.120222686955
1731141878.0204213,851.1582238974712,809.1565581108159,780.4691320671797,836.2120490681444
1731141878.0243182,846.8403823111772,809.3692769494327,777.7717631116826,825.1621684995899
1731141878.0282152,868.0636894498157,809.5833288642148,779.9903360888799,831.5073042237182
1731141878.0289795,891.4772136793657,809.7987653818127,783.85199485604,843.2455633663369
1731141878.0321124,894.3773075824082,810.0145731447818,786.1718930231015,847.7219732542317
1731141878.0351925,873.1078588154817,810.2287380745082,786.8641463213268,841.9061108640344
1731141878.0360093,844.9048664931095,810.4398487210173,788.9764942866394,833.585544115655
1731141878.0399065,832.0022005985802,810.6499498781584,795.4183456496723,832.9670359821752
1731141878.0438032,841.9109085985915,810.8661569381937,805.3349533385376,842.5029555275439
1731141878.0445547,860.866965673832,811.0970410173148,813.7764852896763,854.0334649268817
1731141878.0477002,865.851715146297,811.3421052636664,815.3860496927304,855.562675207163
1731141878.0515974,844.6214103692291,811.5804926835511,808.9825854711253,841.5175658021769
1731141878.0537107,806.6685406858508,811.7743426366515,798.9259922100832,817.6860516573455
1731141878.054047,776.0144862256109,811.9014138857457,791.9634080839716,796.9389967011139
1731141878.0554943,771.8585971300955,812.0085740603344,792.151564204858,789.4670094988087
1731141878.0593913,792.9255356868464,812.2366956111232,797.966402485435,795.3153554932852
1731141878.0601306,818.3880063020238,812.7447359982895,803.7953114053076,804.8757818909613
1731141878.0632882,824.9410120361516,813.5154728179622,804.4791535697677,806.7826052470575
1731141878.0671852,806.2400151799457,814.1862788281304,799.260869853641,796.9773461897992
1731141878.071082,778.3822932038648,814.1851283976871,792.0985013734402,781.7331523001494
1731141878.0729015,766.3105882911399,813.2439321979772,788.2741895383492,772.1709494420197
1731141878.0749793,782.2275045533545,811.808901517519,790.1996236019202,774.7769990919516
1731141878.075706,814.3536936982802,810.7204755599502,795.8431058369882,785.831780108568
1731141878.0788765,835.846615953989,810.2942399312417,800.8442078672548,794.3432764700116
1731141878.0827732,826.5691206956385,809.7590008956004,802.2205775293603,790.8560731069061
1731141878.0866702,789.5759846568677,807.7772760477222,800.4139925613853,774.7677024529504
1731141878.088827,748.8624274571188,803.6932310129706,798.19278408133,754.4700222772923
1731141878.090567,730.5890130407575,798.414193328846,797.818602735472,740.7729482173714
1731141878.0912817,743.1577455429973,794.1469875504015,799.2002589021611,739.175558118082
1731141878.091756,771.7841167485798,793.172142094724,800.5240700588986,746.8384045121966
1731141878.0944643,791.313604139944,796.5252718821075,800.494297875793,756.0904752853113
1731141878.0983613,786.7492094795819,803.3892672847747,799.984004681703,761.2990575672854
1731141878.1022582,765.0501293149097,811.4356292536542,801.5188446226465,763.3783740993267
1731141878.1061552,748.6548775211193,817.8116077382695,806.8963298803443,767.9664133878582
1731141878.1068573,755.9009306420868,820.2540940307393,814.8900209474297,778.520128765441
1731141878.110052,784.5264448476348,817.8957174714141,821.1505325024644,790.4254715595515
1731141878.1106105,812.2855400307326,811.5230815116508,820.8420949487355,792.1839435418331
1731141878.1139493,814.5926640636598,803.2184093164095,812.2967200635329,773.9896107208183
1731141878.1178465,784.8015793610963,795.4920994708215,798.8350172235237,737.1604128828948
1731141878.1217432,740.4432629639412,790.2500839464938,787.0527490884084,696.2148445049336
1731141878.1224325,710.2994734418153,788.1111200251585,782.5949578950143,670.822772743802
1731141878.123943,712.6442039490868,788.4559266159323,786.5026447363823,672.980603779609
1731141878.1256402,741.737118232642,790.1297963636362,794.8224899376181,698.8275919642549
1731141878.129465,772.9067895806032,792.2690873699587,801.6522918105009,731.3188924096149
1731141878.129537,782.1346306413839,794.6760363869963,803.2583919459487,752.013198017854
1731141878.1334343,764.8918307990439,797.5726213814374,800.2821814120636,753.4044030679146
1731141878.1373312,739.3425851355858,801.0649344543937,796.6344622891937,742.6633928659546
1731141878.138008,731.0709844694679,804.8223411890082,796.1489516783441,734.1925602262321
1731141878.1412282,751.4680956327918,808.213071702215,799.6194926877463,737.2807812798501
1731141878.1451252,787.6546761654815,810.713507249984,804.409238450844,749.0439056280791
1731141878.1483195,812.6832716642762,812.2006409912765,806.7865634284092,758.159132878377
1731141878.149022,807.7809747883052,812.8959922517806,805.0741522766876,755.6233159983774
1731141878.1529193,778.0535312695762,813.078090916895,801.1311020574174,743.0197521510376
1731141878.1535835,748.4715660230349,812.8869187149603,798.9854790582749,731.3358334922752
1731141878.1568162,743.4831772421646,812.4032437109736,801.6026979682694,731.597861597004
1731141878.159059,767.1230599195046,811.8318982804445,808.2469111878598,745.3416575969619
1731141878.1607132,799.8524764817239,811.4518116433321,814.5907480557084,762.8880005811108
1731141878.16461,814.5294478214438,811.2764045809411,815.7624176762446,770.9658537716549
1731141878.167174,798.4335378178731,810.8259106028036,810.2016057447204,763.6646595482251
1731141878.168507,763.5306732811418,809.4459279907583,801.2913957639286,747.8487082932121
1731141878.1691592,736.7386331807836,807.0229020073006,795.1901927883557,738.2921526626719
1731141878.1724043,738.1472396257521,804.36448485359,796.2638470312701,745.9320633103948
1731141878.1763012,764.9807845494677,802.7118079379785,803.6933021683267,768.513796263714
1731141878.1801982,794.4284018902413,802.7441799422141,812.1649677925415,791.5064081105612
1731141878.1840951,802.8682275253605,804.0316167437577,816.2428991251048,799.0747706056413
1731141878.1847346,785.3750537700269,805.4572167542601,814.7800759159163,786.5216350943795
1731141878.1860285,759.2914884812317,806.1319564945112,811.5543277735995,764.1150146533311
1731141878.187992,749.1240628870983,805.8797728510868,811.5943859287272,749.0936519425841
1731141878.1918893,765.5733944431056,804.9346421588085,816.5110178944215,752.2161261492466
1731141878.1941752,796.1718079040328,803.3717606715344,823.0223500162261,769.5940021414472
1731141878.1957862,815.2666397094201,801.0089774008198,825.9337187161601,786.2673165623338
1731141878.1996832,805.1824153518023,797.8827979200136,822.7917331943053,788.5717105274733
1731141878.2003102,771.2084209617927,794.6783075910164,815.9685495385723,775.3058830883248
1731141878.20358,737.95758180784,792.4904200269056,810.3429556641538,758.6576792211572
1731141878.204883,729.7951093403035,792.0167190739921,808.7980019444191,754.1443332056826
1731141878.207477,751.263338774637,792.9447235377324,809.7463754426786,767.8531030884225
1731141878.2113743,783.7154097744799,794.1836721426442,808.9973404030006,791.5455330131899
1731141878.2152712,801.034531129083,794.8033340697147,804.2154326080175,809.5956887885635
1731141878.2158856,791.2777261075717,794.8624299238747,797.7477193108297,811.7261702170471
1731141878.2191682,766.1080430680336,795.3910867912217,795.0550871694591,800.7560422526548
1731141878.2230651,750.4156516069975,797.5356519673905,800.0419427918741,789.2210240983596
1731141878.2237377,761.3166329749226,801.5740002136345,811.4334549812123,788.4073845496692
1731141878.226962,794.1566964483526,806.5599205068528,823.3760244090724,799.3295250035726
1731141878.2292914,826.5853751889775,810.79712383315,829.6753353066454,812.6746382014384
1731141878.2308593,836.6827460052008,812.7387022572512,828.0668725842806,816.8258111903908
1731141878.231461,820.213632180708,811.7345597705621,821.1952317428552,806.9182645434444
1731141878.2347562,793.4159446856754,808.2879331778576,813.967634480503,787.9905401016637
1731141878.2386532,779.4633780910448,803.7933777546932,809.8286965760299,770.538473357683
1731141878.24255,789.6162714690344,799.9052728283416,808.9352153738877,762.5486911632813
1731141878.242592,814.2550616889772,797.7879837747839,809.1985818299728,764.2376875454357
1731141878.246447,831.1060976824925,797.592035111986,808.727392237862,769.16698887405
1731141878.2470367,824.0430519893239,798.4690320080671,807.405917515102,770.3617664216208
1731141878.2503445,797.1026739931959,799.1620658174187,806.5387285389215,766.3336575703546
1731141878.2542412,772.1280809480431,798.8212110536521,807.3007048356735,762.2194593073011
1731141878.2581382,771.7598465772052,797.515605999007,809.5430597488028,765.2520139176393
1731141878.2614465,801.341360797556,796.1196938995078,811.8855054224209,778.3069523087609
1731141878.2620351,844.0616369193659,795.6808217196289,812.8086067190804,796.789310354361
1731141878.262612,873.1032547086106,796.6990278215549,811.7528435109077,811.5128191490052
1731141878.2644076,871.4405278919144,798.7729139262697,809.4310373674406,815.5218000235803
1731141878.265932,844.2520231488509,800.8275754879089,807.2523226273463,809.5626330548372
1731141878.2698293,814.5330164226846,801.7910086533236,806.3251306103971,801.6821911248002
1731141878.2737262,805.1986129560502,801.2875356043965,806.6911327322705,800.9482896421788
1731141878.2776232,821.5092049072323,799.8559401964637,807.2981521713099,810.217562533868
1731141878.2781878,847.7389926932174,798.499337490457,806.8163216368395,823.9508012059886
1731141878.280301,860.8203740792153,797.8880765384087,804.8056082666926,832.9060505107188
1731141878.28152,849.8026964318782,797.847567717664,802.2901192213737,831.5713300051647
1731141878.2854173,824.9970452491822,797.5516869371338,801.0585787212784,821.9293935677878
1731141878.2893145,809.1779834628888,796.2639187720691,802.1346087128068,810.8012594457367
1731141878.2932112,818.1968527261085,794.0285795934334,804.8687341336879,804.0126903938097
1731141878.2937632,847.1660877595656,791.768004304129,807.5942868769397,802.87959659422
1731141878.2971082,873.6601572790737,790.6980021999192,809.071091085096,805.1227398590213
1731141878.2991557,875.3666767333062,791.4722824368921,809.2104726323712,807.8639773001948
1731141878.2995238,848.0055003114478,793.6862855297804,808.6752209131016,809.6095711397408
1731141878.3010051,809.1998809334402,796.1600336225562,808.1283609199295,810.3516541324635
1731141878.304902,785.0542630442129,797.8466019588822,807.8484406743808,810.7122166356111
1731141878.3087993,789.8768496774621,798.6496488604181,807.7843593588834,811.1909782497729
1731141878.3093388,815.2525759689504,799.4115174383107,807.7783923144624,811.9215485314054
1731141878.3126962,837.5187370210593,801.0265667103331,807.7265560728868,812.7963676640429
1731141878.3165932,837.652694746386,803.4861413889968,807.6132691106485,813.6714230809071
1731141878.31801,816.9598280391734,805.8010556303491,807.4707894838688,814.4771250729619
1731141878.32049,795.2866394138637,806.9273235752263,807.3318154981724,815.2194978562144
1731141878.3243873,793.4024788423976,806.8036232781975,807.2088134202513,815.9334581112565
1731141878.3249142,814.7806337184645,806.4433911533898,807.0977658158906,816.6446849693289
1731141878.3282845,842.3619973360323,806.9363119552488,806.9900796305433,817.3590054601145
1731141878.3321812,852.8796620215081,808.3170238698347,806.8805627185392,818.0702390337374
1731141878.33464,836.4364891111824,809.433653379537,806.7687270253352,818.7710751857979
1731141878.3360782,804.8770523713815,808.9958174488767,806.6564091311562,819.4584574493672
1731141878.3368645,782.1036703335772,806.8370095130604,806.5452944647798,820.1332390892223
1731141878.339975,784.4548840316829,804.2052930276051,806.4359470280301,820.7975874973804
1731141878.3404896,807.326154627776,802.7851870306858,806.3280930123778,821.453041303161
1731141878.343872,829.0590649581039,803.2892438861971,806.2212672742338,822.100069080638
1731141878.3477693,828.9835134028576,804.8195583394855,806.1152127275375,822.7385656308832
1731141878.3516662,804.7613801143845,805.5313857308984,806.0099230634127,823.3684553170864
1731141878.3555632,774.5890865662888,804.0626008947341,805.9055016955111,823.9899525855194
1731141878.355719,762.3138011682419,800.6113903907523,805.8020249291415,824.6034570905296
1731141878.3560653,777.7330916296495,796.8636465198039,805.6994920230416,825.2092812008672
1731141878.35946,808.2935862664774,794.8686273288063,805.5978544810923,825.8074616435852
1731141878.3633573,828.9412347297812,795.7128417204653,805.4970820850758,826.3978755250712
1731141878.3672545,822.1218023250611,798.9153227159331,805.3972179391993,826.9807292069272
1731141878.3697562,791.9162948272271,802.8829402216035,805.298372698832,827.5571406955022
1731141878.3711512,761.1108573079631,805.9978885531469,805.2006219548028,828.1291135370379
1731141878.3716407,753.4891527795687,807.5142396980153,805.1038374360584,828.6981765957518
1731141878.3745737,775.1859948347407,807.6930745618973,805.00760206535,829.2629234594639
1731141878.3750482,809.751292658254,807.278896127694,804.9114332388905,829.8175709213449
1731141878.378945,831.0128679892714,806.8871183437359,804.8153935512998,830.3549742903413
1731141878.382842,823.7678299983127,806.7437900849623,804.7207154983644,830.8756195045363
1731141878.3867393,795.7138178581476,806.782829665684,804.6295530669745,831.3974455052573
1731141878.3872163,770.7490422410274,806.8592402715532,804.54306495319,831.9533202578177
1731141878.3906362,769.0668100330195,806.886452013974,804.4584030479558,832.5634623514036
1731141878.393428,790.6348209036265,806.8576737454828,804.3675311910938,833.1896597160612
1731141878.3945332,815.8257072297722,806.8048405816105,804.2620181867727,833.7136763872037
1731141878.39843,822.4411226120861,806.7566470283515,804.1447606069397,834.003279299974
1731141878.4023273,804.6783579321702,806.7224930418442,804.0407813331474,834.085998775335
1731141878.4027915,778.2090165474157,806.6976263221011,803.9901637046746,834.3205281111365
1731141878.4048724,767.2180398248594,806.6741910562502,804.0096446114266,835.3121995830022
1731141878.4062245,784.1073573901482,806.647914681907,804.0369677010245,837.3520153103749
1731141878.4101212,818.629111956974,806.6187425585553,803.9155416319117,839.550684954492
1731141878.4122825,845.7059865555569,806.588474903857,803.4936976273764,839.4850008461128
1731141878.4140182,845.9345213950138,806.5585916528632,802.841741874758,834.4366405552103
1731141878.417915,821.9009662408376,806.5295171644636,802.4135851270232,824.1854829620293
1731141878.4183674,796.2986065346327,806.5009635840012,802.8449678948421,812.8775157001063
1731141878.421812,792.8748884245584,806.472524027601,804.3082281942776,806.710123975378
1731141878.4257092,816.085467862034,806.4440030876212,805.9433209319437,808.1046646373424
1731141878.4296062,846.8504353254323,806.415427294598,806.1299722624673,812.1408008356129
1731141878.431137,858.205058109967,806.3869089346206,803.6646906102039,809.981064899398
1731141878.4335032,837.7084767545854,806.358528603474,798.909558444783,796.9138963860347
1731141878.4339428,797.9304159002854,806.3302988802195,793.8404455633456,777.5917177856757
1731141878.4374,766.5433735086876,806.3021926861737,790.8111964307736,763.3535829848819
1731141878.4399886,764.3622132254977,806.2741957879639,790.9121522106802,763.5113939349677
1731141878.4412973,789.1752824705284,806.2463466252192,793.1527138256146,777.726377559583
1731141878.4451942,818.2135088354049,806.2187313437203,795.1121653818082,795.8790867121695
1731141878.4490912,827.0340640245495,806.1914128926818,794.6402730228235,805.8442255783098
1731141878.4495182,809.4327630876339,806.1643164738184,791.4117688005457,803.0509391162454
1731141878.4499917,782.1300609690664,806.1371719805952,787.209627018839,793.9426634082453
1731141878.452988,770.294186497965,806.1096633926784,784.7126751718794,790.240459863479
1731141878.456885,785.8043992394013,806.081838410734,785.6567139787758,798.6345464576742
1731141878.460782,816.4859937198241,806.0545287779933,789.7024783440919,814.6301727946397
1731141878.4646792,835.6578667564669,806.0291867628639,794.8148789041056,825.9176262399126
1731141878.465094,824.3159100697063,806.0066025802864,798.8246358785311,822.5285512069736
1731141878.4685762,787.5580198598232,805.9848830230629,800.9391138899009,805.2832729107859
1731141878.468846,751.5975948661951,805.9586493249191,801.9851772136018,785.5823064654375
1731141878.4724731,743.6657995133766,805.9222374200231,803.1835675220632,776.8115279451945
1731141878.4751048,770.8055271771614,805.8775582820418,804.5719367535221,784.2556806502841
1731141878.47637,814.2178161341633,805.8413759746577,804.6720797232578,801.3363957624568
1731141878.480267,843.546188933539,805.8406582957921,801.9790377797085,814.971238021174
1731141878.4806693,840.0553530975026,805.8869589958176,797.0178018700489,815.8743329712058
1731141878.4841642,810.7360990257198,805.93932519159,792.7979911731013,805.7728248972998
1731141878.4877005,782.2370227243647,805.8946403719629,792.6900044509557,795.7400327539896
1731141878.4880612,779.2651884946391,805.6564843420247,797.252658155776,796.8259287351816
1731141878.491958,804.6631263456842,805.2885602448154,802.989658419547,810.6317836930504
1731141878.495855,837.3920577633021,805.147974240724,804.6871155367706,827.8486648326741
1731141878.496245,850.1890923127105,805.7967833774677,799.7708581607417,836.1642144163259
1731141878.499752,832.3130386843247,807.5843688482983,790.9716771975832,830.791150809078
1731141878.5036492,798.4973644425143,810.1571608340039,784.737954832005,818.5207051268225
1731141878.5065553,776.8543066629022,812.4264350121452,786.4757245472795,811.8748349063103
1731141878.5075462,785.9890550626827,813.1977127458039,796.5363391140439,818.4540135488649
1731141878.510221,820.1249213938104,811.9851300739535,810.2269658660713,834.44572371813
1731141878.5114431,854.0049351896909,809.3387305774028,821.5402052525825,847.5510404156
1731141878.5118203,863.1827549193946,806.4841486311838,827.1764071902921,846.8721208972372
1731141878.51534,843.1880569031808,804.6130233762764,827.7151150020071,831.8413109690396
1731141878.519237,812.2549875633471,804.3169489311082,825.8481756643663,813.060104655132
1731141878.5231342,795.7150276278129,805.4485162544083,823.9645127279366,804.2477808065165
1731141878.5254097,805.1449738058382,807.3618142105588,823.0135613395544,811.6102336911383
1731141878.5270312,829.6501738210432,809.2881551122713,822.792401943344,829.1890687348977
1731141878.5273955,846.3569231963179,810.6392426617386,822.7489683244742,843.9948433002137
1731141878.530928,840.7951432478915,811.1678729390592,822.5323640705153,846.6343814838867
1731141878.534825,819.5087652890879,810.9779903086273,822.0994527070951,838.5752914999634
1731141878.538722,804.2119874491983,810.3722413155025,821.5669923264527,830.1846650232151
1731141878.542619,812.8199278941381,809.5950919399921,821.0477229734613,831.5655244114583
1731141878.5429714,843.6190982616341,808.6643815906818,820.5822776033825,844.0242846517854
1731141878.544264,875.7017232522117,807.4767017549569,820.1549230630407,858.9920674202259
1731141878.545337,885.1442937645267,806.1170868728213,819.7355297667316,864.8957683273162
1731141878.5465162,863.9271314608762,805.0328170922847,819.3066014840258,856.359757828627
1731141878.5504131,826.6619697281916,804.801440205516,818.8669978918916,838.6204499596479
1731141878.55431,799.6685440969726,805.6507171665572,818.4233142310916,823.7225682638066
1731141878.558207,800.6978290942981,807.2178415031188,817.9813422992526,821.2557699871912
1731141878.5585468,825.3315589750156,808.8319268253838,817.5429019517676,830.8254760034874
1731141878.562104,851.2393673523698,810.044518556291,817.106960780657,842.5312995934202
1731141878.5631185,857.0774701875489,810.8664078046678,816.6718973453103,845.4370658902878
1731141878.5660012,840.4276380670598,811.510993619538,816.2368417852484,837.099265238437
1731141878.569898,819.6139970284253,811.977295422141,815.8017822061136,825.857225579253
1731141878.5737953,817.6804483949569,811.9301600468383,815.3670740873446,823.5840986052841
1731141878.5741224,841.971377450007,810.9827725225066,814.9329996287717,834.9667006234447
1731141878.577692,876.5774616328495,809.0910827622464,814.4996238947034,852.5960489075294
1731141878.5804532,894.1807592830194,806.7048668461023,814.0668684141225,862.266704810982
1731141878.581589,877.8384624008147,804.5651189935604,813.634632262036,854.2720700229745
1731141878.5819733,835.2076258763084,803.3144988643387,813.2028578962995,831.5208213923145
1731141878.5854862,793.6995310499143,803.1706202784214,812.771532115839,807.8382366629143
1731141878.5893831,779.9771220471509,803.8054715750278,812.3406585388695,797.5675646215534
1731141878.5896978,799.5586324903157,804.4493148376985,811.9102350426148,804.5191271426224
1731141878.59328,832.6190784206613,804.199542689428,811.4802474395552,819.1118117753249
1731141878.597177,849.7357172233505,802.4781852661238,811.0506740922791,826.2976260525195
1731141878.6008277,835.4411896158241,799.4453705784663,810.6214923555467,818.101769714867
1731141878.601074,800.7134624195252,796.0614493696329,810.1926817880727,800.4710485589093
1731141878.6049712,774.072809957694,793.6339496268502,809.7642239795963,788.5339064448375
1731141878.6052735,778.3787607111911,793.0758218833104,809.336101043804,794.0558417517314
1731141878.608868,812.2839531065104,794.3891237274948,808.9082944948256,815.5554638975196
1731141878.6127653,851.4081613529976,796.7535824266553,808.4807850073688,839.2840664999161
1731141878.6155694,867.9089016168483,799.1292011406092,808.0535527206508,850.033369341581
1731141878.616662,852.1797215639302,800.8934442986356,807.6265775929326,842.6296618118947
1731141878.619682,819.2069294565257,802.054972868461,807.1998395563094,824.8264245254079
1731141878.620559,795.0818046710044,802.9636308909116,806.7733184941361,809.8249163791767
1731141878.620849,795.3081477842869,803.8261940431124,806.3469941875463,805.2135782419211
1731141878.6244562,812.8857298119012,804.4345356853619,805.9208463505358,807.6762827803286
1731141878.628353,825.7814096159345,804.2939865420921,805.4948547592134,807.5066985343207
1731141878.63225,817.1266299575567,803.0244050921689,805.0689993505217,798.3693237093916
1731141878.636147,790.7198515002179,800.7300999638379,804.6432601059723,783.2756396410331
1731141878.6364243,768.4003524407381,798.0778821189022,804.2176166536117,771.4970300581217
1731141878.6385365,771.3908826588477,796.0174247612478,803.7920478562621,769.8814705766056
1731141878.640044,801.4492370850692,795.2990574166803,803.366532019248,777.2961018860684
1731141878.6439412,837.8731406562708,796.0712345716414,802.9410482758195,786.998315211168
1731141878.647838,853.1331105221993,797.8015591998495,802.5155787295438,793.1081839186472
1731141878.6506855,834.5092401362593,799.580770983868,802.0901092742992,794.2926807475817
1731141878.6517353,794.249476707044,800.6448788137175,801.6646261791577,792.629465785268
1731141878.652,760.1182295977876,800.8101069243519,801.2391078198128,790.6533981085296
1731141878.655632,753.9335304581653,800.5377152946654,800.8135171729101,789.6060160904899
1731141878.6573913,775.1800674498069,800.5514937557689,800.3878070290906,789.4277233560148
1731141878.659529,802.6506421091497,801.2459869868485,799.9619472491169,789.5467769159967
1731141878.6634262,812.6023835323655,802.3339087380081,799.5359637108226,789.5317082016088
1731141878.667323,798.4837075688877,803.0469861025454,799.109947865496,789.2819199684496
1731141878.6675754,775.8551381347631,802.7503009207098,798.6839840496535,788.9021613386714
1731141878.67122,768.4001416771374,801.4489984695549,798.2579911420096,788.5200366173576
1731141878.675117,786.9795639249943,799.7578327221163,797.8315951453022,788.1932105709791
1731141878.6762457,819.6924905687629,798.3999888748533,797.4042589616844,787.913199395845
1731141878.679014,841.4649342122768,797.7040136768486,796.9758218997382,787.6483249678172
1731141878.6829112,835.0295754888615,797.5027076234662,796.5472081690355,787.3766692793113
1731141878.683151,805.6532295980347,797.4364211734959,796.1204985968282,787.0941412363995
1731141878.6858015,777.333742757911,797.3394919077145,795.6974165804493,786.8068043078268
1731141878.686808,773.4916464267105,797.3826485712865,795.2763255687497,786.5212300695789
1731141878.6907053,797.8102361032429,797.878297147887,794.8501279931846,786.2400295685018
1731141878.694602,830.8500872221749,798.9189014613644,794.4093147921042,785.9624076951577
1731141878.6951,845.4644390139181,800.1453384072744,793.9525619091913,785.6865428166371
1731141878.698499,828.8115462597785,800.8580082989089,793.4994718542716,785.4112755010739
1731141878.6987264,793.1464037290452,800.4329614404535,793.0897553007273,785.1364371651242
1731141878.7023962,766.4085890112154,798.7633849234103,792.7519679293806,784.8623474007243
1731141878.706293,769.9955550796114,796.4092616104471,792.4465967343843,784.5892091007393
1731141878.71019,801.6218054856688,794.3429291627235,792.0313837501927,784.3168234856369
1731141878.7139544,837.0456006275192,793.462222464179,791.326269641152,784.0447314891371
1731141878.714087,849.1410089745061,794.1883828491133,790.3079308731208,783.7726904486768
1731141878.714302,829.0176317138356,796.3759169396443,789.2991286368416,783.501189537643
1731141878.717984,792.6554801677546,799.5142461799763,788.8612226297388,783.231461020613
1731141878.720918,768.2153675056633,802.9882872828483,789.2956829233652,782.9644477389288
1731141878.7218812,774.1760172192486,806.1655194901584,790.2348237186536,782.6988937900243
1731141878.725778,805.2994014122899,808.3079851413414,790.9667463244674,782.43014902997
1731141878.7296753,837.2411466179175,808.5663248397735,791.3640129502121,782.1523328895747
1731141878.7298777,846.1153408446421,806.316807623107,792.4511221520157,781.8651459643295
1731141878.7328093,827.4526708699038,801.7633433433421,795.868554248188,781.5815918142514
1731141878.733572,799.1878617184044,796.312236536171,802.5146336929971,781.3265999717912
1731141878.737469,786.0423417456968,792.1905740794939,811.3894362212574,781.116489370888
1731141878.741366,798.143951008441,791.3088316274175,819.573950366967,780.9237121135641
1731141878.745263,822.0178080622553,794.076999647526,823.5741883792582,780.6586006568784
1731141878.745453,832.0129565092845,799.0807158444724,821.4116129685343,780.2172025077991
1731141878.74916,812.7915094662569,803.9302071486801,814.2341633396086,779.6133212537654
1731141878.7516634,773.6989374689134,806.6974090535269,806.2065835442272,779.1144873493791
1731141878.753057,742.3984372576983,806.9326951378722,802.2822080544046,779.18931387538
1731141878.756034,742.616240840004,805.6177252253947,804.9486289976838,780.092259328277
1731141878.756954,774.4070888252427,804.2160110300443,812.1964109959191,781.207502267589
1731141878.7608511,813.6027038649958,803.6055028121026,818.5636588998324,780.7833229841717
1731141878.7610283,831.3350330753763,803.6867247766887,818.950303111241,776.9523321021849
1731141878.764748,817.6204210359847,803.8622676853226,812.488071591381,770.2330693333906
1731141878.768645,789.1954302034853,803.8387155833984,803.318751795229,765.7581443575102
1731141878.770518,774.8389870599669,803.9440628039063,797.4447259572086,771.7804987055259
1731141878.772542,790.595386500977,804.6569877898962,798.0905733206627,793.0746158108603
1731141878.776439,826.0387941977637,805.8744376532012,803.3531841121561,824.129885523284
1731141878.776604,853.1710577392806,806.770234837744,808.0370298583175,850.197774908683
1731141878.780336,850.0662520210568,806.5168082013777,808.0686885230293,857.713062035905
1731141878.784233,819.0800716073657,805.1917477787115,803.7787104260665,845.4306285386721
1731141878.78813,784.6940778823638,803.8901511724976,799.3820168186047,825.8367278531283
1731141878.7893724,773.5326380971358,803.8254700337073,799.2297755180683,815.1804671550034
1731141878.7911503,793.4173862183545,805.2729222097342,804.0970676160035,820.6401035955539
1731141878.792027,828.1249730709619,807.398302853809,810.6770513506941,835.301054204439
1731141878.7921796,851.2292000552972,809.0629437802418,814.6570322961375,844.7013822716237
1731141878.795924,847.3509040358127,809.7076583444782,814.5969087567773,839.2211289294112
1731141878.7998211,823.7729558599231,809.529947943391,813.0705517857833,822.1799425033851
1731141878.803718,803.3761312004145,809.0517678574095,813.9900454099078,807.1728286120523
1731141878.807615,804.9691788901898,808.6602386411487,818.6094936242554,806.8269475693753
1731141878.807755,827.3637734524949,808.4594996029616,824.0203969924213,822.0711785282156
1731141878.8082273,850.3587718137329,808.3724761773494,825.630106003216,840.6714499332162
1731141878.811512,851.6074729825808,808.2941537984212,821.3622728124416,846.3510195865487
1731141878.8154087,825.2138290135437,808.1737149413842,813.7454528124424,831.2950235511504
1731141878.819306,786.8980877634715,808.015588978218,808.0351705125848,802.2161332270016
1731141878.823203,761.976681638955,807.8452564507808,808.0240782204485,775.4637072275003
1731141878.8233306,766.1093121382504,807.6813562192142,813.0562973690996,765.3072225202152
1731141878.8262663,793.7557769803873,807.5279579292528,818.5922264852725,774.4285367624376
1731141878.8270817,822.688165693276,807.3803394687202,819.7453221334729,793.3272904137867
1731141878.8271,830.7952965507803,807.2329621819785,814.9761274873086,808.3225931964863
1731141878.830997,812.6474086229181,807.0834085076616,807.1564565213585,811.7361545092047
1731141878.834894,783.4529615667905,806.9321241060692,801.2977216147008,806.7343387758134
1731141878.8387911,767.0777802498137,806.7805178736733,800.766655983474,803.512188340399
1731141878.838906,776.9498832676967,806.6295433347525,804.910245733054,810.0388968543026
1731141878.842688,804.9335599222882,806.479373336099,809.841837745725,824.8564132314169
1731141878.845936,827.678712732269,806.3297479252502,811.6265815193685,837.9668836159792
1731141878.846585,825.8837654670567,806.1803942001393,809.267988479114,839.2958537393968
1731141878.850482,800.7633079483961,806.0312147384799,805.1860706530043,827.6810193051671
1731141878.8543787,773.7314899889532,805.8822588038872,802.9782614660678,812.5452984120881
1731141878.8544817,769.0762377165241,805.7336181788291,804.4108737439334,806.4692805277748
1731141878.858276,793.7298754795925,805.5853557203305,808.0749705694137,814.7421601939873
1731141878.8613827,830.9180085332756,805.4374926644858,810.6601693625514,830.7641357437119
1731141878.8621733,853.1893029256192,805.2900291082693,809.6653792850055,841.3934545939748
1731141878.864791,844.4411321595027,805.1429658305523,805.3187851436112,837.9811396176308
1731141878.86607,812.9806769937818,804.996312829133,800.2543536453002,823.8432775279163
1731141878.869967,784.6215760198896,804.8500866699469,797.3492672826728,811.5285724036296
1731141878.870057,781.1236680217713,804.7043049290718,797.5524337454085,811.7183614142697
1731141878.873864,801.8936638943843,804.5589836431702,799.4240234625012,823.180712379488
1731141878.8777611,824.7524048883145,804.4141385374754,800.6167051942837,833.0351553567643
1731141878.881658,825.5290553748599,804.2697869445623,799.9571890899599,827.9010736258317
1731141878.8836453,799.6967876371731,804.1259464290824,798.4280665514453,806.4979603188682
1731141878.885555,767.0973694215116,803.9826287535328,798.3509852673384,782.278560863188
1731141878.8856325,755.3834633820588,803.8398334862106,801.4635193285019,773.1298435644511
1731141878.889452,776.3008299677376,803.6975510052314,807.3282768605545,786.6452670443118
1731141878.8933487,815.0721357427273,803.5557830075553,813.2704745870593,813.5281985320894
1731141878.896499,841.8963553637587,803.4145735297839,816.0439691627121,834.7349667272741
1731141878.897246,835.9790749178117,803.2740189957917,814.1853075009009,836.3245291940561
1731141878.9011433,802.2887851059531,803.1342147595496,809.2912600149268,819.7747214991165
1731141878.9012082,767.474856009094,802.9951316667339,804.9930685010336,799.6931460669964
1731141878.9024997,758.460255812523,802.8565093306718,804.1424557663977,791.3810580084972
1731141878.90504,781.1180234129965,802.7179434937352,806.3919958160666,798.7002758598226
1731141878.908937,816.1735014778342,802.5792979879608,808.3338150591511,811.9300212417334
1731141878.912834,835.4368061330885,802.4412731847556,806.3334590421935,816.8479039798914
1731141878.916731,824.9293644911463,802.3055127448775,799.7777087003126,807.1273783609082
1731141878.9167836,795.8874126852401,802.1734828665575,791.9074079987872,789.6594094721053
1731141878.920628,774.7715137724933,802.0441306411489,787.4242748262893,778.5145298048012
1731141878.921354,780.8772078453771,801.9121235579147,788.898964417178,782.8089078560649
1731141878.924525,810.208131079902,801.770054341966,795.0347439967932,798.7028554814744
1731141878.928422,838.7228837585807,801.6168324137985,802.0740276803491,812.1510392625503
1731141878.9316149,842.0184021160567,801.4687817378551,806.7783208213139,810.1568315153079
1731141878.9323187,815.3392254014515,801.3624762177442,808.2906028197596,791.524472165524
1731141878.9323592,777.7961500993417,801.3390722793296,807.751797494808,768.5839113351591
1731141878.936216,757.394058380442,801.4169912981854,806.7509050964971,758.3505356664461
1731141878.9401133,768.7733605667843,801.5778220637602,806.2001461458975,769.6821050420162
1731141878.940209,801.5037519214717,801.7804183052094,806.1910028053422,796.2444690426582
1731141878.94401,828.5104303327709,801.9882162539066,806.4180740809063,820.9575578098264
1731141878.947907,828.0219803641032,802.1849020504276,806.6004377499405,828.8252610715863
1731141878.9479346,801.2605414255243,802.371576339798,806.644603994187,818.248226369524
1731141878.951804,771.3485391537863,802.5556564139438,806.5965124294744,801.7921062774144
1731141878.955701,764.2612826078885,802.7424847433094,806.5334767982828,795.7601667276924
1731141878.9590633,787.4628726224264,802.9331241291171,806.4980383165481,807.0836007544291
1731141878.959598,823.7337412044451,803.1261181867543,806.4912292852351,828.1736556718125
1731141878.963495,845.1711356730793,803.3198329768567,806.4956033442106,843.6237653874314
1731141878.96351,835.9575485203171,803.5135777460919,806.4966771013114,842.8954570480424
1731141878.9667313,805.5437681724454,803.7074981736753,806.4902937557739,828.5747739853417
1731141878.967392,781.5878830137884,803.9020079275075,806.4793353156261,813.8019564619682
1731141878.9712887,787.9975086451828,804.0973767094603,806.4679111163061,811.3096092557914
1731141878.975186,825.3261246933404,804.2936428784783,806.4580929495523,823.0417822740433
1731141878.9779177,869.334667617575,804.4907201191409,806.4497849989208,838.6902678033446
1731141878.9790833,889.4531360646629,804.6885207997525,806.4420226354017,844.3037666750282
1731141878.9790857,872.8181029404675,804.8870093960854,806.4340737087473,833.9595654656279
1731141878.98298,834.5345702839293,805.0861925561148,806.4257661713513,814.8767022160841
1731141878.986877,805.600076755857,805.2860883559548,806.417277536069,801.6735819789781
1731141878.990774,808.1625843196875,805.4867060365374,806.4088243708558,804.5099614128934
1731141878.994661,838.2269646152819,805.6880428051629,806.4005045891923,820.9408898680894
1731141878.994671,869.6405450435219,805.8900892814007,806.3923076915999,838.0751401438378
1731141878.996772,875.6200698579166,806.0928342017402,806.3841937153642,843.0048622693025
1731141878.998568,850.1062900679186,806.2962654964934,806.3761491582,832.8884097276982
1731141879.0018473,812.013336395262,806.5003708965103,806.3681852208261,816.7364836223736
1731141879.002465,789.5728096736367,806.7051421206094,806.360295810038,807.813492805571
1731141879.006362,797.7596282179142,806.9105816836703,806.352423370099,812.9083721799462
1731141879.0102367,826.927008399452,807.1167038235017,806.3444858233711,826.973187166767
1731141879.010259,851.481788791731,807.3235185636598,806.3364836980497,837.2763648922304
1731141879.014156,851.1357584267772,807.5309991321753,806.3286226175634,833.693598075625
1731141879.015627,827.1158817125277,807.7390583492192,806.321290821919,816.881577358033
1731141879.0180533,800.1302425638991,807.9475807249931,806.3147366055814,797.7370340142061
1731141879.02195,792.2705244624448,808.1565377916263,806.3085212719334,788.5677201700084
1731141879.025812,808.3908449307069,808.366129436777,806.3012469469438,793.2031691976224
1731141879.025847,832.5132788609101,808.576780171945,806.2913190080903,804.1799060704033
1731141879.029744,841.745531286041,808.7888032469431,806.2790060024472,809.2368481596314
1731141879.0336409,825.559500283952,809.0017802627206,806.2685229623667,801.584517150829
1731141879.034481,794.4080219093464,809.2141807728318,806.2671405960324,785.3929178124156
1731141879.0369637,771.0703716605622,809.4240932591957,806.2786704064954,772.1300726568095
1731141879.037538,772.2656306431605,809.6314791879896,806.2933364506829,771.0256439622877
1731141879.0413878,795.4898110502578,809.8406939104932,806.2839650223261,781.6294680088718
1731141879.041435,821.4698407626136,810.0599638842721,806.2224155538017,794.5346171484471
1731141879.045332,830.068005878646,810.2945429420645,806.1192281899941,799.541265793636
1731141879.049229,816.6413756908228,810.5351122547555,806.0596821262776,794.3470403405881
1731141879.053126,795.3663239893267,810.7519802570214,806.1791836402804,786.3632444873019
1731141879.0533357,786.7133199138601,810.9112163866823,806.5335821450445,786.0498631833434
1731141879.0569632,799.5730331188078,811.0183870815371,806.9144802615872,797.4344434434378
1731141879.057023,823.1410488390713,811.1630105568121,806.8079044668641,813.9557116829378
1731141879.06092,835.4643210798185,811.50030598902,805.7289106313093,823.2879259364588
1731141879.064817,821.5859157903028,812.1143429942547,803.8532025214527,817.2373336390663
1731141879.068714,786.3634224074417,812.8065288397116,802.350066771733,798.5768247732622
1731141879.0720797,751.5623745707273,813.0059481578539,802.7893559865835,779.2257620131697
1731141879.07219,739.507339105556,812.0101797978865,805.8038414537197,771.210221310946
1731141879.0725386,756.0142282490219,809.4884526266819,810.1092772300882,777.5507569630983
1731141879.0726109,785.7707589388391,805.8432406799435,812.9999300905479,790.1991197411394
1731141879.076508,803.9355760518945,802.066203583865,812.3447556391534,796.6228892130221
1731141879.080405,795.388320717687,799.180372253633,808.6601729888074,789.8937079913098
1731141879.084302,766.7034067031001,797.7621340680925,805.298628515473,774.2652749299433
1731141879.0881145,740.9430219445917,797.9323892338986,806.041012966802,761.6337910254362
1731141879.088199,738.9472210291387,799.6762446154304,811.7301481238882,761.6091420384772
1731141879.091045,762.2731604799023,802.979390375989,818.8873759623478,773.318914337759
1731141879.092096,792.0513904778418,807.5239769745854,821.9199331867321,785.8091434884834
1731141879.095993,804.8273578563917,812.3068479411548,817.4439341759495,786.8448035172855
1731141879.09989,792.1478218928926,815.7721874670628,807.219408464709,772.9833167336224
1731141879.1036897,767.6037187102252,816.56428926455,797.1960008143129,752.7800315212393
1731141879.1037867,755.6451518645679,814.3500633261975,793.3517790214881,740.5393256643488
1731141879.107196,771.4737868298913,810.0660175480015,797.5596858903455,745.4664191129829
1731141879.107684,808.3471244063026,805.4337947103224,806.5571058649915,764.5962870957252
1731141879.109899,842.501542923303,802.0800865333479,814.5843075465688,785.0008912033117
1731141879.1115808,851.8482425897628,800.7276734873027,817.5203240468649,793.7145823361236
1731141879.115478,833.5439791900621,800.8429264407857,815.3891654614732,787.7233074021717
1731141879.1192653,806.1169066756703,800.9902184049073,811.514494244145,776.014439072305
1731141879.119375,794.0995097738208,799.8207322649884,809.2844459781551,771.9132986798854
1731141879.123272,807.6862565603602,797.1062945046849,809.3734195731523,782.0545281245086
1731141879.127169,834.488520881431,793.9972691830721,809.7451182907632,801.2676711565972
1731141879.1287537,850.4281615751389,792.1989498298025,808.1943697146178,817.4403863143598
1731141879.1310658,840.4872481270608,792.6986834615176,804.8760527484573,821.6960463823409
1731141879.1348407,811.691853009352,795.0982429836907,802.3831864650989,815.0125465556592
1731141879.134963,787.5162546644367,798.0383313044431,803.323594183663,806.2404898062288
1731141879.13886,788.5943193643756,800.2305536982934,807.6819929983013,804.2428109820604
1731141879.142312,815.755862597727,801.2031251228256,812.3972848299373,811.3571604709421
1731141879.1427567,849.1444262612249,801.2975564450513,813.5766122569529,823.122535614548
1731141879.146654,863.9890021639548,801.1472020339637,809.5324660954262,833.1220144066083
1731141879.147608,850.3020968241678,801.1627595525953,802.2142757422109,837.8524712148214
1731141879.150416,820.7110118339517,801.3553527521325,795.910125735316,837.9043025095497
1731141879.1505508,800.0717481921686,801.4939970580672,794.1789487627057,835.9177356744162
1731141879.154448,805.1560343028292,801.3916419127994,797.3062087342166,834.1111465986585
1731141879.158345,830.9639177591353,801.0778851269138,802.2056391554173,833.2643373956208
1731141879.162242,855.0706688220183,800.740522261989,804.8320265679797,833.0934359707476
1731141879.1659918,856.568199746781,800.5406902149053,803.2112744247459,833.0483883004462
1731141879.166139,833.8499821710445,800.5039672190019,798.7459322809499,832.8128702621012
1731141879.166463,806.3355912380704,800.5563938115921,794.9123973343502,832.3701327813845
1731141879.1700358,798.6533698474085,800.6158049771312,794.542069881054,831.8431483828236
1731141879.173933,820.3422080040596,800.6440615761126,797.8214669861285,831.338283879516
1731141879.1774282,857.6395277765237,800.6445431095822,802.3659577252952,830.888380016701
1731141879.17783,883.890115584005,800.6359574398829,805.0920943264906,830.4741935792362
1731141879.1815672,880.1420867786223,800.6317758565555,804.424656620664,830.0661463911068
1731141879.1817267,849.6023616722407,800.6347537707632,801.3019428591145,829.6487237335507
1731141879.185317,814.6813669557204,800.6413000979982,798.3618866015366,829.2221720400091
1731141879.185624,799.1433586201955,800.647330498716,797.9791641118196,828.7933786774687
1731141879.1895208,809.6613395348887,800.6510948698055,800.6446729252847,828.3678007395132
1731141879.193418,831.575469238701,800.6529355350959,804.8761247558219,827.9468892005602
1731141879.1971428,842.1643087883127,800.653876586068,808.5574075229522,827.5294869774527
1731141879.197315,830.3099708910431,800.6545920565081,810.4410642863646,827.1140630295866
1731141879.201212,806.0783106923783,800.655181676466,810.6328675889406,826.6999071213253
1731141879.2041717,792.1712435585566,800.6554339768595,810.0064229052183,826.2871226308932
1731141879.205109,804.3873956300337,800.6551345030205,809.365080664772,825.876097301883
1731141879.2090058,837.3500962650699,800.6542005826476,809.0362144915141,825.467081907977
1731141879.2125444,867.4077335401366,800.6526567832325,808.9563164412093,825.060104644099
1731141879.2127182,870.6678875260332,800.6505567828501,808.9394815209479,824.6551283724419
1731141879.212903,841.9085610463252,800.6479314767067,808.8652794686074,824.2522376979327
1731141879.2168,799.1664207868598,800.6447826698048,808.7172934311083,823.8516615040822
1731141879.2206967,769.9628842906753,800.6411027868965,808.5342706346763,823.4535422898053
1731141879.223026,769.9413931024311,800.636893715038,808.354520007502,823.0575661027607
1731141879.224594,791.2905904808501,800.632168221712,808.1922422388898,822.6628283741575
1731141879.228294,810.6330319008661,800.6269324948651,808.0424051109561,822.2684123908804
1731141879.2284908,809.7283722385916,800.6211640872127,807.8948518128117,821.874750115996
1731141879.232388,791.1933096908101,800.6148122566177,807.743565623338,821.4848104486625
1731141879.236285,775.6224265582505,800.6078447468141,807.5880647760666,821.1031619047462
1731141879.240182,782.720284301991,800.6003300019172,807.4305434438471,820.7314615134982
1731141879.241881,812.9736973101006,800.5924808138667,807.2729709432839,820.3621927198593
1731141879.2438693,845.7407435884597,800.5845455673676,807.1159858166321,819.9774336004524
1731141879.2440789,855.4471608627875,800.5765042700968,806.9592526690844,819.5611172820053
1731141879.2476606,832.4854840628153,800.5677529605399,806.8022245646848,819.1248582060014
1731141879.2479758,791.7684412268053,800.5572198413417,806.6446023995908,818.7277970057252
1731141879.251873,761.9168368938474,800.5443167043782,806.4863756605121,818.4536853947275
1731141879.25577,763.4073030184686,800.5304503378999,806.3276575435058,818.3218128253015
1731141879.2594447,792.7680702670275,800.5196394790316,806.16853736542,818.1735371420712
1731141879.2596667,825.3473049664378,800.5161537474404,806.0090381673023,817.6671228182563
1731141879.260735,834.6782509684041,800.5186557804386,805.8491502150732,816.5324209467104
1731141879.263564,813.2640829244941,800.5147214955572,805.6888711505302,815.0609512202843
1731141879.2674608,778.2642430737519,800.4841997506883,805.5282047203724,814.4346032725418
1731141879.271358,757.4843706718713,800.4182342524922,805.367118275482,816.211439553834
1731141879.2750204,766.9068393410791,800.3470138442024,805.205508397574,820.6299136735149
1731141879.275255,797.8432889489195,800.3473098204546,805.043246520888,824.7275649499887
1731141879.279152,823.9308296963089,800.4914781733588,804.880335127872,822.7556020501847
1731141879.2795897,822.1751305022577,800.7327151545414,804.7170819396906,810.4788470634812
1731141879.2827766,791.2147383914121,800.8035838701057,804.5540568944818,790.6573407400133
1731141879.2830489,752.4929606543321,800.2768590180925,804.3916068414444,773.7509964467483
1731141879.2869458,733.5782033049419,798.8661289072787,804.2290496735292,771.0925739525261
1731141879.2905958,746.7936465598547,796.7714157793309,804.0642962880507,785.2585897399266
1731141879.290843,780.0330846779177,794.6833751958901,803.8950179156802,806.180079389478
1731141879.29474,807.1366963363358,793.3295549726857,803.7217113136844,817.4544029195333
1731141879.298444,809.4770462206388,792.9530116683227,803.5507229207506,808.7576483376413
1731141879.298637,790.9820699891691,793.2124526755554,803.3927810890445,784.551385686545
1731141879.302534,773.9996796596974,793.5885031736653,803.253211528774,761.5495903240947
1731141879.3061714,779.4896579100878,793.9404938898653,803.1170276464871,756.2627492990983
1731141879.3064308,808.4388344498293,794.7169850504758,802.9437722033736,772.2301267753583
1731141879.310328,840.3563951063817,796.5547533851296,802.6925471125336,797.1990282780616
1731141879.314225,850.0561905089025,799.517520697021,802.3808996020468,812.6296610023102
1731141879.317299,828.4995033692919,802.6597122722504,802.1368994966173,807.8978987604519
1731141879.3178928,790.4024852238657,804.4709136888973,802.1597497001271,787.8175614997821
1731141879.318122,762.6248181462348,804.0156992987345,802.5250984452773,767.7455196160147
1731141879.3217468,763.0782305955372,801.8487038297108,802.9128060168573,760.7616856033926
1731141879.3220189,787.2372613738132,799.8179611205227,802.5523342143978,767.6823239730417
1731141879.3259158,812.8673166030572,799.7760877303979,800.7241044710349,777.8976144750607
1731141879.329813,818.7490723401244,802.2237220101011,797.6847128618264,779.7181434678125
1731141879.33371,801.8504938662928,806.0292203032474,795.1186111937432,770.9673495649656
1731141879.336153,778.8272451938728,809.4094357096614,795.2190762954499,760.6641885698313
1731141879.3373225,770.9210727196173,811.2289101883878,798.792413491855,760.5643069545658
1731141879.337607,785.2920899059351,811.522524860503,804.0897429766144,774.0936767556249
1731141879.341504,808.6930481486154,811.047941622618,807.7322333801444,792.3080264920086
1731141879.3454008,818.7670348026138,810.5378684731633,807.2368183660666,800.4221402311541
1731141879.349298,803.3072406411031,810.3067013598459,803.0690498860566,789.5972397916028
1731141879.352898,771.2507816402785,810.3080370545837,798.3947419149565,764.4448336460238
1731141879.353009,746.237461539783,810.3744145319513,796.616971893874,740.279976129344
1731141879.353195,747.962249428503,810.3926157818464,798.7024014080148,732.2852276180206
1731141879.3550076,776.4028339079163,810.3440205831321,802.5427290840829,744.8983240041047
1731141879.357092,811.6949803025617,810.2624862451389,804.9188153851778,769.3784288297655
1731141879.3609889,829.9652623805762,810.18333719413,804.4145311614734,791.1404952177768
1731141879.3648858,822.4570493253394,810.1204847944754,802.7452461556588,800.8990199294993
1731141879.3684733,802.1785949067876,810.0699599920555,803.2564334591772,800.741121395587
1731141879.368783,792.2689825062582,810.0225997827688,807.798907021144,800.518814429808
1731141879.37268,805.7022835545885,809.9727439577583,814.6863673338081,808.1483721086089
1731141879.373862,833.6582979648451,809.9197837922087,819.621377357507,822.4924492663322
1731141879.376577,852.7072643471146,809.8656709154978,818.9919225194699,834.8674250830493
1731141879.380474,844.86401241218,809.8122464355961,812.9061965142971,837.3166068063643
1731141879.3840487,813.5805841832937,809.7601617851703,805.4633856145421,829.9406219045661
1731141879.3843708,782.2033007906247,809.7091581129653,801.933631418341,820.8897440541837
1731141879.3881252,775.9927777391024,809.6587549402692,804.9552797931378,819.3810107615435
1731141879.388268,802.1318550126463,809.6086840260186,812.6156757173925,827.9852483682746
1731141879.3921647,843.6328238176744,809.5589420698868,819.8290576238618,840.6239965649235
1731141879.3927166,872.0241334155254,809.5096465480314,821.9585581154406,847.7118053802783
1731141879.396062,869.0367580763888,809.4608980844256,818.0174877505655,844.139764818635
1731141879.3996243,840.4643433005195,809.4127338658841,811.1362792990531,833.6991927288818
1731141879.3999588,811.3091427891256,809.3651509746676,805.9776049293621,826.3729726197494
1731141879.4038558,805.8675885502872,809.3181431100235,805.0297199446253,830.4465171662782
1731141879.407753,828.3821427848026,809.2717123014052,806.6333385882964,845.5159806778812
1731141879.411571,859.6542426268766,809.2258527486229,806.4152554062244,862.0107580207904
1731141879.41165,872.4178957432197,809.180532594565,801.1799679097371,867.9754545836647
1731141879.4152,853.2927345386372,809.1357086561284,792.1776742674122,858.2171902855937
1731141879.415547,813.8582875456697,809.0913885973465,784.8866755101755,838.8598823543555
1731141879.4194438,782.0322805196672,809.0477019497416,785.1414967589573,823.5236093819755
1731141879.4232414,780.5400746046814,809.0048828567171,794.533987707552,823.5492022588791
1731141879.4233408,809.4658980073891,808.9630727905436,808.828901906849,839.4033764248921
1731141879.427238,846.6433146371958,808.9219938431937,820.7968039706358,859.9370754725438
1731141879.4304256,865.4807062634032,808.8807978339908,825.2706905169214,870.4694766212609
1731141879.4307754,855.8887107704719,808.8385442880214,822.4376912689995,863.7992174026695
1731141879.4311347,831.4370497270305,808.795446188033,816.8998458944733,845.6299160074918
1731141879.435032,817.0065753209074,808.7540904233848,813.5545115809614,830.0067413055076
1731141879.4389288,827.2662896288059,808.7188248599253,813.8695065086937,828.3032755373691
1731141879.4428258,854.0545163034026,808.691770774634,815.5439320462506,840.6566890326842
1731141879.4463513,873.3153807956677,808.6667801021838,815.4213604654252,856.7719841812215
1731141879.446723,865.6392784173606,808.6273930723473,812.6871743777149,865.0940175313555
1731141879.44928,832.9542946510905,808.5570640029692,809.399155301702,862.2852470022366
1731141879.45062,797.3945660800593,808.4630399237291,808.1206119683445,854.9434945190606
1731141879.454517,783.489570237553,808.3972161014075,809.1499422652666,852.4441068607368
1731141879.4583576,798.5141517604163,808.4394109942018,810.0439576616909,857.5279477725182
1731141879.4584138,827.0174105121197,808.6168152075603,807.8583426739456,863.1539005316649
1731141879.4619265,843.8198721724679,808.7898698187478,802.0577476612215,858.6616351151936
1731141879.4623108,834.8056172273947,808.6192521200443,795.5339341878008,840.0654550015372
1731141879.466208,808.4686566741047,807.7489809745282,792.8160631920414,815.2992103862385
1731141879.4681346,788.5557735452473,806.1798999773296,796.8109533462067,799.139466481104
1731141879.4701047,793.7204243775274,804.5139863871588,806.5006226555192,801.4190003418892
1731141879.474002,821.2696791677836,803.6802980214883,817.281696101815,818.4285632770951
1731141879.477502,849.0552584304786,804.2074874433006,823.7420881367389,835.244258761844
1731141879.4778988,854.2155024381726,805.6999567313229,822.9993863217076,837.5415357879651
1731141879.4817958,832.8246842338743,807.1097192209373,816.3678357015291,823.1798899591943
1731141879.485693,803.5530010793447,807.5964211301842,808.26630914986,803.8312628893282
1731141879.486989,792.1506889494266,807.1293328571219,803.1497946991495,795.242507281829
1731141879.48959,809.8338907878666,806.2590934225234,802.587725760786,804.1650667208584
1731141879.4930775,843.5381235917243,805.3640688615254,804.5007439607839,822.6352032459616
1731141879.4934738,866.0199243689096,804.199485867696,805.0506466703274,834.1602754652671
1731141879.493487,857.711315440022,802.2290743751321,801.7746497336118,826.5951983068398
1731141879.4973838,822.83689750096,799.4067526939522,795.6002264510961,801.0721681270048
1731141879.5012808,786.6620398976859,796.6234892802461,790.1452675384886,769.987831734796
1731141879.5051775,775.6524430465561,795.3410524476172,788.7912414835902,746.8241704686588
1731141879.5058436,796.3668290750388,796.6554992994869,791.8892231223855,737.2808944366016
1731141879.5086527,830.4511260794302,800.4989819103682,796.4982203228133,738.3135581882832
1731141879.5090747,850.0588820363374,805.5510871917676,798.9927968338582,743.3318896786
1731141879.512972,840.8498082113965,809.8946286574064,798.3312744644526,747.479359229607
1731141879.5168688,813.2011776835587,811.9703463234194,797.0346785837547,749.3634691257258
1731141879.5207658,792.3735668150537,811.2607101405222,798.8430308141682,749.848099721267
1731141879.5242286,796.410024738394,808.3667108331332,805.0141907240968,750.193833530264
1731141879.5246627,820.7161317173391,804.5308177073355,812.5985225668126,751.0332641659677
1731141879.524698,842.0251618718333,800.9573949089674,816.4293596805585,752.3302663391206
1731141879.52856,837.9207288614452,798.332404767638,813.3524417908953,753.7827059307756
1731141879.52859,805.6089539374262,796.7535234055521,805.1661119706631,755.1625195025858
1731141879.5324569,764.8443405569928,795.9970480613229,797.6425182764287,756.4158591842197
1731141879.5363538,742.8243708941725,795.8557933505695,796.173350241802,757.5973644331913
1731141879.539804,753.0170588937297,796.2928108561639,801.4656571460143,758.774151437481
1731141879.5402508,784.6478219765823,797.3411590031582,808.8654355806938,759.9767591738191
1731141879.5435526,811.3773137525214,798.8980166477553,812.0165654922862,761.2009238139649
1731141879.5441475,812.5318707489253,800.6486741154417,807.9542051806535,762.4300906260137
1731141879.5480447,789.8334380831259,802.2351256117759,799.4650901476977,763.6527728579935
1731141879.551942,765.7396713206524,803.5328845011098,792.8033504640475,764.8668477650988
1731141879.5553796,764.4309298219742,804.7315767500328,792.7332336201589,766.075550370528
1731141879.5558388,791.054575020553,806.0338076658026,799.0165536665875,767.2823992316073
1731141879.5597358,826.5275333296752,807.1718561719042,807.0713150766861,768.4888360989081
1731141879.562407,842.3581872227292,807.262863033039,811.9431292218469,769.6945176803239
1731141879.5636327,823.4880469303183,805.3764305403122,812.1026649668028,770.8985796857753
1731141879.5637062,780.7360280042832,801.538983704137,810.0148882995076,772.1005313005725
1731141879.56753,742.880392159529,797.2842710810783,809.3189911343134,773.3004022178407
1731141879.570955,734.5985214044061,794.9902214909,811.2783402869784,774.4984154857796
1731141879.5714269,757.6772463799973,796.2367892139821,813.6248025435575,775.6946157001078
1731141879.5753238,790.4217148633836,800.458518623783,812.7439747681598,776.888767575609
1731141879.5792208,805.7111429701017,805.1509908712682,807.188047334424,778.0806465992663
1731141879.5812616,792.9361317495991,807.6275297775769,799.3062927314658,779.2705813206305
1731141879.5831175,765.7133126846021,806.9240445480701,793.4638955683101,780.4597663340356
1731141879.5865304,749.1580202927257,804.2893319793742,792.4376794825507,781.6496677784478
1731141879.587015,757.8386501020983,801.9524775886991,795.2562312915906,782.840258270363
1731141879.590912,783.3344830579056,801.3148423980392,798.3777822944028,784.0281210472124
1731141879.5948088,801.7659378006284,802.0548812142235,799.0057035620857,785.2069943661844
1731141879.5987058,794.4624380229901,802.7090897146348,797.5155249127183,786.3731810713716
1731141879.5988224,764.1321471222415,802.0677342981832,796.9942157201806,787.5344013819969
1731141879.600116,733.2320576874979,800.218373469097,800.5048185689661,788.713786404937
1731141879.602106,726.1368878010406,798.5093301394246,808.4104869598237,789.9367651969095
1731141879.6026027,749.6179487759598,798.5730580701974,817.7666305474129,791.1972182184531
1731141879.6065,787.2902884682181,801.1765941656842,824.1455468641196,792.4245942866568
1731141879.6103969,812.6143375398613,805.692096478532,824.5920094242941,793.5010621469647
1731141879.6142938,810.1553674919833,810.473578609584,819.5905159214681,794.3701104046444
1731141879.6176815,787.7446358230555,813.7923618680642,812.5121222155482,795.1999581157181
1731141879.6181908,769.2864862469564,814.6899553892432,807.0118155535938,796.4367034677066
1731141879.6189706,774.0672538910825,813.299958921751,804.686271355242,798.5229696525543
1731141879.6220877,800.0115013136881,810.5934333544812,804.8242889768729,801.2451280178147
1731141879.625985,825.1606094337708,807.7739515377583,805.809930898038,803.1585839845368
1731141879.629882,826.2663220461461,805.6407257519247,806.4936384323255,802.0093813555468
1731141879.6332572,798.9745055841028,804.2602656893581,806.5943985022802,796.7970429710938
1731141879.6337788,762.7565983003461,803.1806393935823,806.3637930649325,790.460647422958
1731141879.6339386,746.3182377702881,802.0599220595801,806.119831398072,790.0066074408534
1731141879.6376758,765.0435490689723,801.1587714222454,806.0086544762042,801.6527945015876
1731141879.637825,808.4120499353138,801.1553990567666,806.0106624374118,823.9823821944652
1731141879.6415727,847.5343776975303,802.3573780406282,806.0470867702253,846.4611711434837
1731141879.64547,857.198070328017,804.0738263654611,806.06289096963,856.7328033331587
1731141879.6488326,835.1936224319893,804.890266141395,806.0476146044728,850.945324967804
1731141879.6493669,803.4477593701397,803.7456735506247,806.0164929516659,837.4281549083798
1731141879.6532638,789.8690922049888,800.8731086255412,805.9862904039412,829.7879970863028
1731141879.6566796,805.6186531483288,797.7412792248011,805.9639589400595,835.1726889327181
1731141879.6571608,836.4750468457713,796.0629508452511,805.947894736362,847.9652675595664
1731141879.6610577,855.2701782319889,796.7348036456057,805.9338242860103,854.5083072845421
1731141879.6644082,844.7865264799242,799.4763711657974,805.9190024549104,844.9007594332544
1731141879.664955,812.0524216784847,803.2081925090629,805.9030618534651,821.9022123949953
1731141879.668852,782.5884608315192,806.6863124915483,805.8868921364771,799.5513971786291
1731141879.6690545,779.869765003991,808.9832790331853,805.8713727629134,792.7297970902787
1731141879.6727488,806.9117058075175,809.7410780481695,805.856834578379,806.1528416500876
1731141879.675534,844.462888905455,809.2559834207457,805.843171081141,831.3696478543847
1731141879.6766458,866.6674032339636,808.3535515150866,805.8301594129381,853.6820537468843
1731141879.6799836,861.397196611685,807.972308871164,805.8176709271014,863.0992287772045
1731141879.6805427,839.0944509326496,808.5750743461182,805.8057027226375,860.6249334608765
1731141879.68444,823.2286022897779,809.7674934210216,805.7943125197254,855.3147522896624
1731141879.6883368,830.2800875507979,810.4810910608561,805.7835526789956,855.2127893216332
1731141879.6922338,855.8265616842776,809.6742535006628,805.773445077775,860.2244755159785
1731141879.6943886,878.3987145727336,807.0523853468064,805.7639892439112,863.0292367144424
1731141879.695559,877.9236572949366,803.2683543482522,805.7551797003749,856.9038971974561
1731141879.6961308,853.2267003264936,799.5032265966291,805.74701642952,843.1525395074681
1731141879.7000277,823.7962328429835,796.8123683541637,805.7395058396663,831.213654853719
1731141879.703925,814.185457297147,795.7010064459882,805.7326570435154,831.0658543628639
1731141879.7041707,833.8625951779411,796.0802152168962,805.7264784451701,844.4029987481932
1731141879.7078218,869.0502944807832,797.4426149384575,805.7209765909889,862.2041151626465
1731141879.711135,893.2615683480916,799.0715628286567,805.7161567102917,870.969996207588
1731141879.7117188,888.0751463836209,800.2593299562911,805.7120236428516,862.7953597422783
1731141879.713243,857.4454372494017,800.5751165227182,805.708582350228,841.4286503002544
1731141879.7156155,824.0202256659156,800.0901883449415,805.7058379247737,819.6337053959819
1731141879.7195127,810.4851092544964,799.3301362356573,805.7037953739145,809.7861763222368
1731141879.72341,821.3075908397956,798.847383777789,805.7024594433769,814.7465027435613
1731141879.72671,840.088893137314,798.684609137034,805.701834573983,825.9606982241476
1731141879.7273068,844.6233791241845,798.2586659010842,805.7019249506084,830.3897130845438
1731141879.7312038,826.5776385931734,796.9329204267319,805.70273455744,821.0237157352892
1731141879.7320976,798.7502903747162,794.8587070971892,805.7042671758819,802.6522171779595
1731141879.7351007,783.7679826676728,793.2322061678923,805.7065263152483,788.0462808125122
1731141879.7389977,794.1272269401866,793.5271615366431,805.7095151327633,787.417247962289
1731141879.739287,820.6990109285741,796.2582098726457,805.7132364516433,799.7466855392477
1731141879.7422855,839.4355549753519,800.398074533831,805.717692964826,813.30947597725
1731141879.742895,830.8353708589991,804.0424266943131,805.7228875561922,815.1775460832988
1731141879.7467918,796.3343623054518,805.761347627962,805.7288234181899,801.9305111857274
1731141879.7506888,758.2513755127732,805.4588982029138,805.7355035223418,782.6780411219779
1731141879.750952,743.0108974934573,804.0930907547536,805.7429293540113,771.8500278059967
1731141879.7545855,760.723859724324,802.704523107631,805.7510997736098,777.663513504083
1731141879.7578611,797.2737016210983,801.7374439718297,805.7600118243225,795.6301666107951
1731141879.7584827,825.3042605701307,801.1485285544412,805.7696648900959,812.2126065495596
1731141879.76238,825.5716780352516,800.9201786234127,805.7800665995074,815.5141403739952
1731141879.7662768,801.843519896505,801.2838758451908,805.7912342054091,804.424704855591
1731141879.7698066,777.5590799323273,802.4381085573083,805.8031834299929,789.1268379242774
1731141879.7701738,776.8934990906015,804.1645704466747,805.8159043605173,782.8486792311112
1731141879.7734368,805.227494925721,805.819813709561,805.8293422550862,791.5757320278578
1731141879.7740707,844.4975563741632,806.7291082031658,805.8434176712069,809.7792202540006
1731141879.774403,867.1707659988306,806.6005679122577,805.8581088162565,825.2389547016929
1731141879.7779677,857.8755128679908,805.6106689018304,805.8735589439782,828.8208444085255
1731141879.781865,825.4980936483798,804.1605676771039,805.8900858969034,821.2885275897429
1731141879.7857618,795.8916442862601,802.5819196926352,805.9079501133132,811.7946104440476
1731141879.788661,790.8583895534427,801.0612467904929,805.9268979375931,809.5537163323187
1731141879.7890122,810.4850954038651,799.8144367911842,805.9458460500454,815.8203526614811
1731141879.7896588,833.5465000606614,799.2840980640835,805.9633529550314,823.0150169745132
1731141879.7935555,835.8851716043542,800.0650053163671,805.9792361839328,821.7946381584526
1731141879.7974527,811.4957482362058,802.4874956328649,805.9965041183954,810.049954261992
1731141879.80135,778.4542929643534,806.1556179217597,806.0212114925054,795.97802998544
1731141879.8045876,764.3994062693241,809.8863525651778,806.0576942693743,792.1601228637655
1731141879.8052468,783.4770883177498,812.2151931312876,806.0999813548955,805.0998223532631
1731141879.8075156,823.8921986248232,812.1604882994482,806.1267958770948,828.7758803688218
1731141879.8091438,856.5033742636938,809.7432388345469,806.1121729413886,847.9949702904821
1731141879.8095193,857.7155192865692,805.9941714582807,806.056970459089,849.6401250561814
1731141879.8130407,828.2766237235332,802.5285631196232,806.0231683318624,833.1829114322738
1731141879.8169377,792.6819536662393,800.893295929442,806.1247543172126,811.6510658310962
1731141879.8201632,779.3948383399262,801.855097605782,806.4307333293282,801.5300635835923
1731141879.8208349,797.8599843582841,804.8758273600445,806.8043047777007,809.4425204207935
1731141879.8247318,831.3018624897628,808.1769429404977,806.8261539943088,826.7642251562644
1731141879.82637,851.3862903856218,809.651604563687,806.0213633030046,836.9632418713035
1731141879.8286288,842.3804253293141,808.2723361782975,804.4518157219466,829.5216502243032
1731141879.8325255,814.3199782678497,805.0180074595261,803.2638256181849,808.5953334689682
1731141879.835739,794.1468487683446,802.420784854786,804.346420457844,789.2620979858272
1731141879.8364227,802.623278222113,802.7962332647871,808.7407918907542,784.9305028128065
1731141879.84032,836.6508398691498,806.36992594012,815.0034510704203,796.6558372667814
1731141879.8442168,871.5348864726684,810.8049862296634,819.5319795846891,812.8812937039395
1731141879.8446355,880.7942266216128,812.6622121194517,819.2072030751515,819.1262487184438
1731141879.8452246,857.0090643537008,809.8122712680886,814.1071923569381,809.3224957357633
1731141879.8481138,817.080460300446,803.029886665945,807.613720636986,789.8943055809862
1731141879.8513143,788.2119766794428,795.5916698786338,803.5909447700111,773.9639461531453
1731141879.8520107,786.188274730152,791.1785449444192,803.1045388065459,770.8324328868182
1731141879.8559077,803.4575915698991,791.5956537812302,803.7081520470036,779.2554670436635
1731141879.8598049,816.6327561510651,795.8816461293555,802.076212093025,789.6761863513261
1731141879.8637018,807.1875083407914,801.2822831730047,797.6434359467362,793.1579727574405
1731141879.864079,778.0069697045701,805.1793072367545,793.7826922150815,789.2310973478678
1731141879.8668897,751.7208806733499,806.4921031841905,795.1452208362352,785.9324568040851
1731141879.8675988,752.0863248394193,805.7107977557533,803.3487334421451,792.1592762808884
1731141879.8714955,783.989591479635,803.9105429125618,814.9170336214459,809.095062860364
1731141879.875393,828.6225542882386,801.7702753035294,823.5150208370095,828.1446455793443
1731141879.87929,857.572110455706,799.3354666223494,824.7166853953978,837.2108991821891
1731141879.8797517,854.1902369338056,796.4823701101913,819.2951982088987,830.27512828058
1731141879.8824651,825.318334782858,793.4916448355541,812.3391737896789,812.6689335669289
1731141879.8829336,794.6927985261865,791.1622323641706,809.0585702452643,797.7800454882996
1731141879.8831868,783.7936585877902,790.3460318531913,810.7728943916718,797.4007085985013
1731141879.8870838,795.3151221975963,791.2830598711255,814.2146660437311,812.8372898800866
1731141879.8909807,812.1604001226865,793.2993244575606,814.4921758836566,833.7111978764837
1731141879.8948777,812.6970467975789,795.1481040480976,809.1787563217323,845.801778134011
1731141879.8980408,789.9188763215996,795.7506825845892,800.2334131643915,842.0743847830464
1731141879.8987749,758.5035008024804,794.7780401067408,792.3165475958648,828.0372891934214
1731141879.901788,743.2853110564092,792.6798757006225,789.0231206409917,816.8890194719025
1731141879.9026718,758.250707515521,790.236291294652,790.2155057331958,818.3941326933576
1731141879.9065688,793.685846017373,788.0576137733428,792.6344141554015,830.7969723472444
1731141879.9104657,822.7725158923598,786.4225959995438,793.1334211800278,842.5325309504684
1731141879.9136162,822.7277122411627,785.5005887658265,791.6320053746994,842.1861347447874
1731141879.914363,793.3138270642606,785.6501653437685,791.1763997339579,828.2750426357222
1731141879.914868,757.6183761918918,787.4147044378785,795.0818453408305,810.7276299852174
1731141879.91826,744.4094447215598,791.1193328579342,803.693430062317,802.9010479973875
1731141879.9206426,766.0304982525291,796.3901911875992,813.589625083343,810.7026904286536
1731141879.9221568,809.134653944664,802.0808984719444,819.9176466000256,827.7121366161598
1731141879.9260538,845.3782930402849,806.7917041489482,819.9483368103042,840.3983630003465
1731141879.9291918,853.5273734200204,809.6319819621693,815.0368742835001,839.2954079509288
1731141879.9299507,835.3626222256469,810.6270689198916,809.5445209033552,826.8347826286706
1731141879.9338477,812.6752858048796,810.4886903492296,807.6546675070092,814.978897575755
1731141879.9377449,808.0950944450997,810.0309014442751,810.5084419893461,814.3946724267516
1731141879.939497,825.9617588625017,809.7324358600997,815.6565944635013,824.5077798644007
1731141879.9416418,849.3361780907233,809.6772278556584,818.9913509609041,833.4078754726544
1731141879.9447672,855.3868517294139,809.7428400360579,817.5967761327462,828.1167564794667
1731141879.9455388,835.738604278738,809.7997750608074,811.5576377272026,806.5553441178492
1731141879.9494357,804.3966538610175,809.7981013615921,803.7266369084457,780.8406145260166
1731141879.949984,786.6251118074268,809.7538485925605,797.8442831327403,768.8011987456298
1731141879.953333,798.1397636769348,809.7015801054805,796.2947231444817,780.4398002278332
1731141879.95723,831.7925730849995,809.6623080665521,798.8357849225653,810.1328088500737
1731141879.9583516,862.5928591624123,809.638130927606,803.0256208177038,840.5528832184505
1731141879.960343,867.0652008583256,809.6217334881313,806.0728093126493,855.0092189919454
1731141879.9611268,841.5409931661466,809.6063477343648,806.8651963953273,848.709113536251
1731141879.9650238,804.8131392157263,809.5896905780309,806.6350666762462,830.8053388567013
1731141879.9689207,782.9651423524194,809.5728531382704,807.6109165357553,816.374462332599
1731141879.9728177,788.5130717183858,809.5577143582202,810.6813884346521,814.906860865732
1731141879.9759183,810.7325847140334,809.5453365374076,814.1443329160269,824.033767487007
1731141879.9767146,824.9723521616463,809.5357855558705,814.8576629777184,832.7402038426958
1731141879.977206,813.1990325095963,809.528675830937,810.9964324180305,830.8806328721164
1731141879.9806118,779.0050451120795,809.5236860871385,804.0417551027355,817.2736785100924
1731141879.9845088,745.1857004283871,809.5207398572055,798.1280651704785,800.3684826063092
1731141879.9851005,736.2206509916116,809.5199286514022,797.1066692670396,791.6469000138327
1731141879.9884057,759.6791737500321,809.5213727227217,801.6828346432344,797.311209485567
1731141879.9914937,800.7488503855278,809.5251433740892,808.9778222991039,814.3346606804575
1731141879.992303,833.477880254613,809.5312623334642,814.8506220522044,832.9723685230214
1731141879.9960606,839.652929731303,809.5397353151051,817.0080978392331,843.1213201889348
1731141879.9961996,820.9338329790369,809.5505757143872,816.2928436904418,839.9138858760051
1731141880.0000968,795.426359258242,809.5638009471386,815.1417552502055,825.238314751395
1731141880.0039935,781.9777378991904,809.5794120842233,814.7439485467686,804.926149112951
1731141880.007069,785.0562525891727,809.5973847913344,813.6626671720153,784.1578281981788
1731141880.0078907,792.5231258655284,809.6176983854215,809.3557177682267,764.6564275350353
1731141880.0117877,787.8753552876308,809.6404013802472,801.2009255757121,745.6642187930019
1731141880.014915,766.1829907810979,809.6656591947794,792.0067826539796,727.3624450634863
1731141880.0156846,739.5991417350186,809.6936892738598,786.2949397102201,712.994478649326
1731141880.0195818,727.2634456805195,809.7245303715018,786.7127135274966,707.001919371164
1731141880.0202162,738.1142583407095,809.7577635680618,791.773609861731,710.4681749483083
1731141880.0226448,761.6585283248962,809.7925275119987,796.9695543889288,718.3737890771145
1731141880.0234787,775.3335880335824,809.8281958514862,798.3160661475711,722.1412390490336
1731141880.0273757,763.026595312577,809.8656099082123,795.3392105762017,716.1691111950191
1731141880.0312726,729.4093257585731,809.9078107414928,791.0941853395417,702.8914738732949
1731141880.0337696,697.5463152975908,809.9585419997452,789.354413933898,691.5318786417532
1731141880.0351696,690.8876413103019,810.0177421517193,791.4189019122457,690.9824577715217
1731141880.0382204,714.1230500128597,810.0765830511232,795.189120360104,702.5125546787621
1731141880.0390668,748.9735472608043,810.1186581679352,797.1748490936922,718.4837114898678
1731141880.0429635,768.8980128444823,810.1337284073326,795.60673498475,728.3668779372465
1731141880.0468607,760.7755070638294,810.1406321864441,791.9630239757848,727.2694791208062
1731141880.0507576,735.532668884808,810.1979994588794,789.6718400105481,720.0017675051516
1731141880.052624,718.8744467462689,810.3703617549584,791.2023147073068,717.2257631256324
1731141880.0537958,729.9056493396862,810.6377415467074,796.0411215214746,726.5847356724107
1731141880.0546546,765.3159386514934,810.7989792091151,801.1564257530472,745.8694680588374
1731141880.0553324,801.9610999194338,810.4819671391024,803.4398077320906,763.9538237474687
1731141880.0585518,815.5950232010748,809.3453351343232,802.1231403197107,769.2663448525745
1731141880.0624487,800.4970332690499,807.3924502710641,799.3375205269816,759.3507613577058
1731141880.0663457,773.9992169155681,805.1449437953349,798.4644280254541,743.6018018699668
1731141880.0693717,762.1021371007732,803.4554589545933,801.5526919124923,736.3303954223861
1731141880.0702426,777.9318193272993,803.0250207505416,807.7252643738657,745.3456576743279
1731141880.0714786,810.955443734594,803.9871805398316,813.7554738163527,765.4857024248904
1731141880.0741396,836.1022476553109,805.9069492901443,816.3819045276966,782.8400503838126
1731141880.0780368,835.25410086714,808.1748602536481,814.6396148322341,786.485854283808
1731141880.0819335,813.0467395277435,810.4083339314232,810.5017680905349,778.0118280050348
1731141880.0849469,793.5903463614632,812.5037875413942,807.420819880505,770.7084792430303
1731141880.0858307,800.641361956047,814.3811753545796,807.8874657851956,778.7963542122944
1731141880.0897276,837.4543991282366,815.7711412320288,811.7377405450109,805.2863443795704
1731141880.090333,882.749067996099,816.2822218478191,816.320763962408,838.2844645994451
1731141880.0904486,906.2460821964178,815.6431021964554,818.3798690954454,858.9894071575897
1731141880.0936246,891.79331209026,813.8744624036233,816.4108113872524,855.5529864762563
1731141880.0975218,850.1126168138559,811.3081155648337,811.8795097044969,832.2483451564804
1731141880.1005225,811.0050109795749,808.5339696598652,808.2730023485569,806.6288399190908
1731141880.1014187,800.7103420107804,806.2938214951049,808.4282700144213,796.4934700084519
1731141880.1053157,822.0816448978205,805.2312845682641,812.1049809688409,806.7318339652571
1731141880.1091876,853.4798442583032,805.5218581489886,815.9591157187419,826.5988397912274
1731141880.1092126,867.3370196285716,806.6551189288566,816.2834967629948,839.5697556841853
1731141880.1131096,853.0462050416049,807.6526438720236,812.3559687535459,837.3635131227013
1731141880.116098,825.1703456836066,807.6606763368696,807.3805143229373,826.2504962893038
1731141880.1170068,810.4435842189996,806.4951641968353,805.9575115825423,820.6263728692101
1731141880.1209035,824.9543176844891,804.7282156370168,810.1511843007036,829.9004324682688
1731141880.1248007,860.7271654890326,803.2717112405247,817.572073598702,850.1422375906061
1731141880.1255648,892.3625086727732,802.7792766164398,823.1581173566844,867.2757044668089
1731141880.128042,897.5577575732303,803.2704624532345,823.1546822317489,868.6403026618715
1731141880.1286976,874.569815086851,804.1924366955272,817.9996087658683,853.1878011953526
1731141880.131673,842.9513479053634,804.8523679535579,811.8078987208482,832.273673552999
1731141880.1325946,827.5168618459762,804.9320451557008,808.9449517527878,820.7541122814333
1731141880.1364918,838.5897201750677,804.7298664619248,810.520231902939,825.625302682703
1731141880.1403887,864.3473937528317,804.923069237696,813.703104916488,841.1883689452285
1731141880.1442857,881.3424436437127,805.9668478977547,814.4329584205,854.4227350250509
1731141880.1468966,874.4196537664741,807.551010612637,811.1781991873711,855.9472783766183
1731141880.147249,849.3753590452409,808.5714530580698,806.4031585677853,847.3941101728068
1731141880.1481826,827.7544907934964,807.7568741566439,804.357080731333,839.1769631052541
1731141880.1520796,828.2916473701359,804.599316704904,807.0903556449317,840.8631647253321
1731141880.1559768,850.7771391559218,799.920310798426,812.2691685266088,852.5276877661652
1731141880.1598735,875.9565934486645,795.5608433379501,814.8289943784553,864.3846875590684
1731141880.160681,881.5015981750522,793.2996390950757,811.1250835633908,864.894605451745
1731141880.1628244,860.7353296220418,793.7471090092166,802.04177456312,850.5909522423043
1731141880.163771,828.6242504151792,796.0548307599284,792.4296325888081,829.5811163346294
1731141880.165751,809.9402336056564,798.6496194670033,787.3724897733134,815.7105687094419
1731141880.1676676,818.9235943384515,800.349896087987,788.413221916288,817.7191286597077
1731141880.1715646,846.9304078563209,800.9322595654688,792.8227320832987,831.8963589109798
1731141880.1754618,868.6530540445738,800.7866372823719,796.3835263974179,844.4417621040927
1731141880.1784,862.6203252824959,800.1832242428644,797.1746361219174,842.2092439190611
1731141880.1793587,829.4605556579612,798.9856376885342,797.024770399361,823.4412754206273
1731141880.1832557,792.4473850572936,797.0812076424477,799.4011688658621,799.6113710129265
1731141880.1846056,779.2051608285387,794.9819500318923,805.71074154975,786.6017268774347
1731141880.1871526,799.3556945914246,793.840707791487,813.4292265176126,792.3358205256352
1731141880.1910496,836.5660663945864,794.7164123171325,817.8290907011891,810.9284672179169
1731141880.1939754,861.5714788031422,797.6953293646308,815.8474357991952,827.8736545294479
1731141880.1949468,855.4565624877855,801.6798791456896,808.7405596439587,831.6886598287215
1731141880.1957972,824.3124440885185,805.0994301533956,801.2582014037888,822.4870189942877
1731141880.1988437,793.7619399423479,806.9770242632939,798.0737003873517,810.9100571257794
1731141880.202741,788.2394670191508,807.4516176822916,800.4392182707927,808.812999085265
1731141880.20346,811.8928700681068,807.3437647000743,805.6633849412804,819.5259513514998
1731141880.2066376,846.192444669906,807.2356152515636,809.5667178559086,835.5195176941324
1731141880.2095509,865.6146696736479,806.9699109091172,809.7485432464684,845.1535883575406
1731141880.2105346,858.28100406519,806.0185505117894,807.1160803706799,842.7990302178547
1731141880.2144318,834.7601118852425,804.2776595340059,804.7332271399902,833.8672307459909
1731141880.2183287,818.2351524750006,802.423225154304,805.1715756197536,830.467810539982
1731141880.2222257,824.6226638754657,801.4377330135044,808.5253939281212,841.2110879692268
1731141880.2223146,849.2504214842584,801.7835582343967,812.4896548662524,863.58766980068
1731141880.2251265,870.8560267407129,803.0474395417594,814.2031790174211,885.2455693257451
1731141880.2261226,869.221725058532,804.3738290428737,812.3445645873854,893.1987153551063
1731141880.2300196,841.8632179070671,805.2087828658507,808.024885347986,883.6428009521078
1731141880.2309134,806.3747385133046,805.6234840232555,804.0077915976223,864.6633566619894
1731141880.2339168,786.7352925247937,805.9884273150972,802.8503785824993,849.783609805463
1731141880.2378137,794.5828718057536,806.4370675849441,805.1421871261027,847.4947030827631
1731141880.240702,820.3792278005933,806.6914467679503,808.9854945645671,855.0804998409105
1731141880.241169,841.582199847392,806.3637419581826,811.1903891282544,861.6692908595141
1731141880.241711,841.3358825324156,805.362458297513,809.5222054489403,857.9834695057953
1731141880.2456076,822.3839188702715,804.0131372449896,804.4102110743212,844.5893768329821
1731141880.2495046,804.3763540471322,802.861540848714,798.7107292700686,831.4506202775601
1731141880.2534018,806.4299772075933,802.4087087491333,795.5735502712821,828.9073997019276
1731141880.2562776,829.6313989534526,802.9757659877348,796.0761717275952,837.8562387154388
1731141880.2572987,854.7770018112217,804.668840912545,798.5716208331919,848.005072715742
1731141880.2600236,857.87524525715,807.3127745869566,800.2707194816999,846.2139830056816
1731141880.2611957,830.667787933266,810.3437431431249,799.655506749491,827.965921233907
1731141880.2650926,788.9167316246512,812.8220964461625,797.6104796530565,801.9685509557582
1731141880.2660296,761.2383799627581,813.721259520537,796.3503927930416,783.6127847805193
1731141880.2689896,767.2295273903442,812.431144408242,797.287142168225,782.5885991306918
1731141880.271853,802.3424953185641,809.1733337112655,799.9194812476236,795.0921349313282
1731141880.2728868,841.5468881763109,804.9923726318951,802.6155549899994,807.2933449582896
1731141880.2767837,858.7964849550822,801.2419318897657,804.1549005555964,807.2150610671238
1731141880.2788782,846.7065076755331,798.8725681343994,804.443177190113,794.9604980874902
1731141880.280681,820.761029769799,798.0212457035493,804.1054901340945,782.5264720211101
1731141880.2845776,805.0837470367551,798.1647702896591,803.7637871758302,783.3056091365605
1731141880.2874286,812.047746087191,798.6216310228347,803.6754670013069,800.2700886019293
1731141880.2884746,832.8800497605193,798.9614833490456,803.7886721029224,822.9505118296379
1731141880.2923715,846.5141781149363,799.0905646470212,803.9537120436433,835.6163284767016
1731141880.2962687,837.9194667219679,799.1052632332674,804.0732548863181,829.3996152785594
1731141880.2977326,809.4933290231958,799.1191963312006,804.1335787154925,808.1369430896972
1731141880.3001657,776.7357865440008,799.1809895264066,804.1655706778384,783.8852611533242
1731141880.3011458,754.4865895220844,799.2804787911003,804.2000281493175,767.2934346451558
1731141880.303004,747.2011967365092,799.3884137383966,804.2484821047162,761.4295046296292
1731141880.3040626,749.866518864493,799.485547963478,804.306986370454,762.7509961602834
1731141880.3079596,755.0228754004407,799.5689246005489,804.3674149524506,765.9984354813892
1731141880.3118567,758.2049669652124,799.6444108074002,804.424929019721,767.9671740846657
1731141880.3157537,758.8246873797458,799.717979388589,804.4791323674137,768.1666555628987
1731141880.3165872,758.2629299245572,799.7918971599854,804.5317922141004,767.52372770717
1731141880.3185794,757.8629733790706,799.8654032515985,804.5845078605776,766.977296281474
1731141880.319651,758.1057547457849,799.9368932398762,804.6378136454447,766.8789751004987
1731141880.3235476,758.7988371839238,800.0053857397943,804.6914588971412,767.106407393186
1731141880.3274446,759.5798868010635,800.0707641936766,804.7450188597147,767.4094190813544
1731141880.3313415,760.2397275615324,800.1333411358573,804.7982661471634,767.6390885366102
1731141880.334155,760.765660994732,800.1934035105755,804.8512071642621,767.783077299907
1731141880.3352387,761.2373741064814,800.2510339550934,804.9039517584041,767.8955192075755
1731141880.3354416,761.7244914013183,800.3061623762437,804.9565926289962,768.0253657994987
1731141880.336262,762.248835088369,800.3586842943632,805.0091642727375,768.1888305915679
1731141880.3391356,762.7980758257924,800.4085339481942,805.061661760459,768.3780026705193
1731141880.3430326,763.3529417852957,800.4556922838773,805.1140734913187,768.5796236811694
1731141880.3469296,763.9032539653566,800.5001619703415,805.1663994814926,768.7865005078881
1731141880.3497305,764.4491392814656,800.54194385895,805.218652000333,768.9986214995193
1731141880.3508267,764.995114710824,800.5810287779653,805.2708482138961,769.219149556703
1731141880.3542962,765.5448036824413,800.617401050009,805.3230039818459,769.4507168266708
1731141880.3547237,766.0992256562548,800.6510448545249,805.3751320181524,769.6941642497724
1731141880.3586206,766.6576903630781,800.6819478409967,805.4272430687752,769.9491195482555
1731141880.3625176,767.2192528847586,800.7101013055797,805.4793476422601,770.2150042559682
1731141880.365306,767.7835005024539,800.7354987824272,805.5314568885879,770.4915958606472
1731141880.3664143,768.3505603693545,800.7581348354278,805.583582554661,770.7790473730058
1731141880.3703115,768.9207671750193,800.7780046920935,805.635736562546,771.0776614165311
1731141880.3713782,769.4943924499865,800.7951044685504,805.6879306808794,771.3877001031628
1731141880.3731506,770.0715704422554,800.809431507595,805.7401764333887,771.7093294156756
1731141880.3742087,770.6523562281365,800.820984552929,805.7924851582213,772.042656399253
1731141880.3781056,771.2368048077562,800.8297637424536,805.844868086743,772.3877826469657
1731141880.3808815,771.8250072865372,800.8357705263883,805.8973363731802,772.7448300740981
1731141880.3820026,772.4170801827263,800.839007602981,805.9499010763313,773.1139370230635
1731141880.3858995,773.0131361490816,800.8394789003382,806.0025731238289,773.4952438941126
1731141880.3897967,773.6132688844862,800.8371895855054,806.0553632829832,773.8888867305923
1731141880.3920052,774.2175726783937,800.8321460713199,806.1082821444484,774.2950050211151
1731141880.3936937,774.8261912864533,800.8243560061552,806.1613401134239,774.7137552683023
1731141880.3964572,775.439354252315,800.8138282533614,806.2145474014527,775.1453111469024
1731141880.3975906,776.0573330877837,800.8005728820056,806.2679140155191,775.589833270946
1731141880.4014876,776.6802802794853,800.7846011873723,806.3214497447784,776.047415979734
1731141880.4053843,777.3080332909075,800.7659257316446,806.3751641466135,776.5180604857933
1731141880.406494,777.9401223935038,800.7445603514492,806.42906653325,777.0017486290426
1731141880.4092815,778.576239940089,800.7205200581599,806.4831659591965,777.4986424753138
1731141880.4108596,779.21709961013,800.6938208157427,806.5374712092133,778.0092854898575
1731141880.4120326,779.8649531715433,800.6644793381938,806.5919907864519,778.5345143688816
1731141880.4131787,780.5225591258298,800.6325132066999,806.6467329006281,779.0748257237417
1731141880.4170756,781.1900489283811,800.5979415378757,806.7017054562675,779.6293950670794
1731141880.4209726,781.8614573115598,800.5607859384675,806.7569160411336,780.1957128287831
1731141880.4248695,782.5255147043234,800.5210707130675,806.8123719149106,780.7711847753483
1731141880.427608,783.1752032516703,800.4788210051423,806.8680799981659,781.3569758368415
1731141880.4287667,783.8238097102876,800.4340588040942,806.9240468615864,781.96148522968
1731141880.4297142,784.512757069386,800.3867997625695,806.9802787154857,782.5979117352562
1731141880.4326637,785.2889235176904,800.3370564945052,807.0367813995892,783.2716086743247
1731141880.4365606,786.1439421198069,800.2848521240102,807.0935603731161,783.9620662966399
1731141880.4404576,786.9532819906038,800.2302379532866,807.1506207051814,784.6185875200714
1731141880.4416103,787.5033637732685,800.1732949944621,807.207967065529,785.1941108933837
1731141880.4431837,787.684028064196,800.1140956965274,807.2656037156013,785.7186261724429
1731141880.4443543,787.785777610714,800.0526286637007,807.3235344999479,786.358011234733
1731141880.4482515,788.6082643640509,799.9887466685615,807.3817628379929,787.3535180358202
1731141880.4485686,790.9706455698661,799.9222443928182,807.4402917162089,788.7718543801135
1731141880.452149,794.5382266063398,799.8531249298757,807.4991236807614,790.178841641534
1731141880.4560456,796.7520240073382,799.7819179915797,807.5582608306601,790.6125228122236
1731141880.4587593,793.5166434785724,799.7096557884605,807.6177048113415,789.3008188219447
1731141880.4599426,782.8644769598853,799.63708750039,807.6774568084979,787.0951427431702
1731141880.4638395,769.8655612826765,799.5632642012962,807.7375175419905,787.5687190526882
1731141880.4674232,767.0816363593277,799.4847162510722,807.7978872599969,795.9936656478958
1731141880.4677365,785.9445670501502,799.3972051362006,807.8585657340815,815.4313560192204
1731141880.4716337,824.0277145544467,799.3009190417622,807.9195522561403,842.214901470726
1731141880.4743347,861.5366417310084,799.2061302715672,807.9808456374241,865.3992081340072
1731141880.4755306,874.1517466410406,799.1317113104917,808.0424442078403,872.6715361841484
1731141880.4767263,852.9310114819613,799.089219085594,808.1043458116945,859.4176521312799
1731141880.4794276,813.5521050154356,799.0566186915078,808.1665477969028,833.6432411737678
1731141880.4833243,785.725055431297,798.9663435896041,808.2290470010663,811.7455340430164
1731141880.4862776,790.6606039227418,798.7448144968686,808.2918397476828,807.3410121013492
1731141880.4872217,824.8600708253011,798.4165302779218,808.3549218694984,821.4980216251932
1731141880.48991,863.5802852070314,798.2141470727242,808.4182887599727,842.3201458349758
1731141880.491119,881.1946112046927,798.5642345250502,808.4819354151522,854.5984641059088
1731141880.4950156,871.6174922167829,799.8542570004786,808.5458563930881,851.899940665693
1731141880.4989126,851.8900706353368,802.08127713556,808.6100456420828,841.2276043624532
1731141880.5028095,846.3121448129712,804.6837286932891,808.6744962760762,836.5445775178378
1731141880.5051322,865.0230425472217,806.7986462658192,808.7392005571875,846.7967447815063
1731141880.5054858,895.3575095664379,807.8295710259205,808.8041503902217,868.4743352676942
1731141880.5067065,913.0040661419307,807.8815391681269,808.8693382950756,888.6290551345966
1731141880.5106037,903.118741699356,807.6825053320307,808.9347580841303,895.4991462193963
1731141880.5118427,873.4852157961438,808.0426386676692,809.0004038763526,887.8782051236263
1731141880.5145006,848.7678132276042,809.2958702240355,809.0662666837809,875.6765326089344
1731141880.5183976,850.5787726072948,811.1565395238001,809.1323303222954,871.4001805678137
1731141880.5210612,879.6181642247235,813.0491437396457,809.1985717059634,879.6645345723666
1731141880.5222943,914.4602072955868,814.5925018337763,809.2649709243609,893.4571982546773
1731141880.5239866,928.1875350642564,815.8431858268395,809.3315294445151,900.2678426164542
1731141880.5261917,909.710923745363,817.1319705712555,809.3982807697571,892.916582544553
1731141880.530089,872.6872568653491,818.6473146422246,809.4652680705933,875.8955706955318
1731141880.5339856,844.7226588653441,820.1028862100376,809.5324775099526,861.8061788973358
1731141880.5366366,845.3985099391505,820.7613182722755,809.5997654330477,860.8873081971976
1731141880.5378826,870.80826295668,819.8292201720881,809.6668771464954,872.4879780697677
1731141880.5417795,897.0942807271508,816.9816685603826,809.7336515050674,885.6631599023534
1731141880.5428412,900.0480785497114,812.7007673763376,809.8003604023888,888.406482346742
1731141880.5456765,874.8519331987926,808.2300306634745,809.8678686288813,877.8743039562241
1731141880.5469587,840.0330724472142,805.1194635406397,809.937143448911,863.1060288648403
1731141880.5495737,822.4719740792223,804.4922656317093,810.0079642286574,857.7728455559861
1731141880.5522122,835.5312324012249,806.3447726167752,810.0776467882405,868.6201129451974
1731141880.5534706,868.0146645568238,809.3416477417085,810.1416564411026,889.0842718480171
1731141880.5573676,893.1411091547662,811.435508593361,810.1977239901772,903.7341032453377
1731141880.5612645,890.4781175580524,811.0941897461589,810.2521281142491,900.3408144940803
1731141880.5616956,862.8428176158139,808.3251711470252,810.32188532147,879.7055873281417
1731141880.5651617,833.9627131475248,804.6783823373454,810.4242352782686,854.904152617821
1731141880.5677876,828.624942170159,802.1538914456033,810.5518536760923,840.5038840032851
1731141880.569059,851.8510976611926,801.8223804167345,810.6508930750944,840.9171029783164
1731141880.5729556,884.5299649891301,803.1797808049174,810.6375263442865,847.6820503659588
1731141880.5768526,899.0511356851802,804.6469316800095,810.4800226460621,847.5926625035293
1731141880.5805502,881.7767292713479,804.7718326825822,810.313986124509,834.3567545028146
1731141880.5807495,843.8558925210147,803.2643443483881,810.467264823035,813.9087604065535
1731141880.582075,811.9553115199194,801.1899070881562,811.2386104672947,799.3714000988905
1731141880.5833633,806.9264331741882,800.228208610741,812.4255490027335,800.360327012196
1731141880.5846465,827.7096803421715,801.4984907562078,812.956210909253,815.5113567547328
1731141880.5885437,853.0629781809329,804.747033821085,811.2508102056528,833.9350851631448
1731141880.5924406,859.3255851375691,808.4748951384095,806.5272200201929,843.9451458951878
1731141880.5963376,839.7152279986688,810.922179561445,800.1263966966899,841.8129510123152
1731141880.5989387,809.4978523862262,811.1781774651482,795.3148424929798,833.633853741418
1731141880.5994046,792.8573458199758,809.6097055200559,795.1279613430215,829.169768466355
1731141880.6002345,802.3627677260378,807.3835657096726,799.8265111697797,833.0655762273522
1731141880.6041317,828.1528576244675,805.5723613436434,806.2988102735713,840.823332628522
1731141880.608029,845.9110886903879,804.5466651085404,810.2550541738888,842.7774355508503
1731141880.6119256,836.9921255377274,803.9707954179949,809.5401038411275,832.5774103010174
1731141880.614514,803.9797527744812,803.1965492078301,805.6902200222823,813.0389420925676
1731141880.6158226,768.9802857296141,801.6740499816162,802.305511928448,794.5947186345692
1731141880.6171913,756.312085015865,799.1993500401265,801.7176725207486,787.6809861151943
1731141880.6182592,773.6612806232229,796.0387151756119,803.0384647979846,795.0603904506884
1731141880.6197195,806.4776985135521,792.9492420786479,803.3749268848551,809.8746291850053
1731141880.6236165,829.6622807181001,790.9871018401701,801.0014223790845,820.801781337991
1731141880.6275136,827.1563418017994,791.0525995523542,797.4219295175163,820.4710750664007
1731141880.6300898,803.9575537382032,793.3843477606881,796.2787790239995,810.8058048140697
1731141880.6314106,781.0243045985803,797.3710364169816,800.0124325971974,801.0494062920503
1731141880.6353076,777.3039815800742,801.8570920200262,807.3142058748426,799.8092216604595
1731141880.6371136,793.8633483462189,805.7312585536062,813.763099974254,807.5027226453828
1731141880.6392045,813.5036362356955,808.3849770169292,815.2156312019507,815.6842863751748
1731141880.6431017,816.1289157236305,809.7899570760151,811.1070961118455,814.1608746142138
1731141880.6456652,796.6314492092775,810.2746562605561,804.9196489167039,800.0413018878686
1731141880.6469986,769.9315393542284,810.2476289697607,801.4552506535567,780.9076958630915
1731141880.6508956,758.8331837877535,810.0284810357291,803.1138171700346,769.1032977655175
