timestamps,eeg_1,eeg_2,eeg_3,eeg_4
1731015493.1896892,808.0246636152125,808.7930159950638,806.0117561115338,805.3428239248744
1731015493.19406,807.2270893789056,807.8795846867554,803.1713270074238,803.183389051706
1731015493.1957414,809.1241772121455,806.6503271557976,800.6215545628738,802.669902920567
1731015493.1979702,814.5750662450414,805.3497728352324,798.8469225435767,804.2673166114713
1731015493.20188,821.9012999475241,804.7725308170055,798.357956217891,806.8295681702756
1731015493.205333,827.814763650756,805.6561723386853,799.2744357018964,808.2778985253427
1731015493.20579,829.4547015180475,808.0237571213722,801.1231553371415,807.0244145673155
1731015493.2097,826.1979592010075,811.0670244167671,803.1041031618356,803.143659670294
1731015493.21361,819.9869793261889,813.6573093993201,804.5685227245157,798.3614952132699
1731015493.2146292,814.0198187830468,815.0383228167569,805.2697813433915,794.8483474464841
1731015493.2175198,810.9060199420223,815.1822469020271,805.2768232980624,793.8222731473917
1731015493.2209773,811.6396837627591,814.645727321961,804.8122548941708,795.0744452403501
1731015493.2214298,815.776740995596,814.1374529564363,804.2282079407908,797.6006460696818
1731015493.2253397,822.1069659948083,814.1172809528209,804.0018434429936,800.5308474076961
1731015493.2292497,829.017234361076,814.6284790948317,804.5200906859869,803.4805700113825
1731015493.2331595,834.549068778617,815.3898281146785,805.7074689583296,806.2287171964311
1731015493.2335172,836.7529904904525,816.0394464104133,806.8708073309641,808.3289499379049
1731015493.236621,834.5954626066995,816.3604040087135,807.0547101360105,809.2024746701748
1731015493.2370696,828.8234824688764,816.3561785457574,805.7338704474636,808.6399228519263
1731015493.2409794,821.8743168165129,816.1633761312353,803.2755869032568,807.1564340098911
1731015493.2448895,816.5888948006123,815.9010094296333,800.7247634504656,805.743704914981
1731015493.248799,814.5423036442417,815.5800818531058,799.0406631497734,805.1209791818519
1731015493.252265,815.2181105394181,815.1369521560862,798.4194815339072,805.103917126688
1731015493.2524047,816.6176272391218,814.5603184107867,798.2760708834676,804.71169020677
1731015493.2527094,816.7864823856356,813.9980768935472,797.8771550467003,803.039213292072
1731015493.2566192,815.0985299198187,813.7073699588727,797.0500350793958,800.1884906444441
1731015493.2605293,812.4120502970319,813.8113600752141,796.3321413355856,797.3723460234006
1731015493.264439,810.1093174581218,814.0269675977528,796.4149570208345,795.9658387281905
1731015493.2679088,808.8530679928687,813.6522067504433,797.3635108627154,796.2680274618164
1731015493.2683492,808.0511090940512,811.9627057573534,798.337037216426,797.1020005264432
1731015493.2712927,806.4114727847914,808.8144559181397,798.1546139101418,796.6905694459715
1731015493.272259,803.0865994100327,804.9938982259763,796.3164097105392,794.1045990601333
1731015493.2761693,798.473753445725,801.9732710166259,793.6365731973941,790.0724179040127
1731015493.280079,794.087568201019,801.1601034515323,791.9034014535091,786.518497929914
1731015493.283553,791.6753545761679,803.1161670191344,792.7545862853962,785.2683236919434
1731015493.283989,792.2330539531675,807.2424185849358,796.5722244893982,786.9347198295139
1731015493.2878988,795.499214921525,812.0888901491103,802.1665406316761,790.6980450802218
1731015493.2901807,800.1118045518864,816.0497103766562,807.4262678641647,794.9418346931272
1731015493.2918088,804.283901299318,818.0386729878757,810.4767758675771,798.1862506205011
1731015493.295719,806.6794851552413,817.8533234921617,810.6318058459135,799.7640610081943
1731015493.2991967,807.0717266642185,816.1425844063074,808.620657735607,800.0039918375547
1731015493.2996287,806.4047494702685,814.0317772588347,806.0237410831817,799.9677534876565
1731015493.3035388,806.1836197602361,812.5516282517802,804.2988518061412,800.8819179586815
1731015493.3074486,807.5542259064256,812.1385795838459,804.0053650137916,803.4394005196139
1731015493.309069,810.6370710879604,812.5229099083309,804.6899303651601,807.2612094893516
1731015493.3113587,814.4714030761927,813.1081325074558,805.4363797091355,810.8972469374916
1731015493.3148408,817.5311877699635,813.535709733591,805.6140523257671,812.5338667552357
1731015493.3152685,818.5073925110534,813.9208497951977,805.2565683005698,811.0544414020025
1731015493.3191786,816.9913965051057,814.5354013327213,804.8570889131598,806.7156899110395
1731015493.3230884,813.7569598950769,815.2747808756783,804.8588001856647,800.937359585875
1731015493.3269985,810.4860226580566,815.4997259470937,805.3130109062819,795.4299711291644
1731015493.3279564,809.0197938887172,814.4888779795613,805.9384898431653,791.3905982257438
1731015493.3304846,810.4675818245332,812.1081320812647,806.4280880376879,789.2803274101989
1731015493.3309083,814.6326614304122,809.0402574660121,806.6898140566109,789.0732342416267
1731015493.3348184,820.1058202779017,806.3106495886783,806.8588930584726,790.5424989577848
1731015493.3387282,825.022223713357,804.5187370217567,807.1404706792669,793.3543999930636
1731015493.3426385,828.0391864256339,803.4735197259,807.6224550612974,797.0693519959254
1731015493.3461285,828.8940990288344,802.5449646451997,808.1585499344443,801.199608581681
1731015493.346548,828.1758908298633,801.3597612627095,808.3893162364606,805.3127632568343
1731015493.3468444,826.5376545649863,800.161151271575,807.9442787614862,809.0875166300299
1731015493.350458,824.0150112422164,799.5106625106919,806.7613394944393,812.2995774072674
1731015493.354368,820.0191202645657,799.6665597997933,805.3048013013299,814.7948787468545
1731015493.358278,814.0163848233937,800.2779203843074,804.4426770478022,816.4990885703343
1731015493.3617723,806.3344399947817,800.694957979083,804.9606652019776,817.4596194878301
1731015493.362188,798.3948687771051,800.5702027788242,806.9998076931408,817.8693520546346
1731015493.3657322,792.0859683652361,800.1506295488579,809.8343098015742,817.990837637335
1731015493.366098,788.6629093159504,800.0055931755004,812.2139172612726,817.9372339057365
1731015493.3700078,787.9901265610126,800.5147395954459,813.1014960600774,817.4253069707021
1731015493.3739178,788.7498509540686,801.6320371074836,812.330108225993,815.7778142495961
1731015493.3774164,789.5072395477702,803.0731481543709,810.7246964708936,812.3521107659687
1731015493.3778276,789.7949475872101,804.6047346059935,809.5856828292694,807.1584626821718
1731015493.3817377,790.2982364556303,806.087881007622,809.8712067597346,801.1098389389588
1731015493.3846202,791.9548148902385,807.3159231469135,811.6270359078218,795.5866951035134
1731015493.3856475,794.772348388596,807.9578451626056,814.0382704561182,791.6656631700617
1731015493.3895576,797.5087993687661,807.7405644723269,816.0247169517929,789.702930432826
1731015493.3930604,798.6330839609359,806.6569365874485,816.9051444340402,789.5292597319407
1731015493.3934677,797.7646447743884,804.9452173998707,816.6481954450354,790.8135194583886
1731015493.3973775,796.2325859865074,802.8796409154232,815.6310055731798,793.0699548268137
1731015493.4012876,796.1043858404171,800.6358614510117,814.2565846942728,795.4197583560234
1731015493.403508,798.4087841349534,798.3793320523923,812.8098802675074,796.7149632724806
1731015493.4051974,802.0647015554702,796.4447275707817,811.5743934153063,796.2816522318205
1731015493.4087043,804.5113165541567,795.36239799441,810.9278950811799,794.7029214342459
1731015493.4091074,803.6400731984743,795.6317622557359,811.2152086713118,793.7512758829788
1731015493.4130173,799.5119832939412,797.3668086053909,812.5012638146773,795.2489703385322
1731015493.416927,794.4470373141486,800.0588821818424,814.4530754468639,799.6567225819255
1731015493.4208372,791.3686173087382,802.6640694538086,816.4604154644737,805.546288379191
1731015493.422396,791.7202718313877,804.0594055551262,817.9006334363962,810.437210860676
1731015493.4243484,794.602999536106,803.682570560195,818.3977979805633,812.3804958603334
1731015493.4247472,797.7160534430694,801.9834488322281,817.9825538411354,811.1013060768289
1731015493.4286573,799.1901953248995,800.3307284546028,817.090335346589,807.9066736184035
1731015493.4325671,798.7885349763508,800.3101151144912,816.3529447845393,804.5535257413349
1731015493.4364767,797.6567870915783,802.7748853429065,816.2437347929058,802.0548182128842
1731015493.4399922,797.0906522698621,807.2425311964114,816.7856359060371,800.3671671322405
1731015493.440387,797.5019317112838,812.0531541995674,817.5374917884399,799.087727866612
1731015493.441077,798.3836583339469,815.2259409271423,817.8760050265591,798.3807334860223
1731015493.4412837,799.0779927805601,815.5158008551462,817.3704963290478,799.1634827005072
1731015493.4442968,799.4855917709277,813.0589709226296,816.0125864967538,802.2986270609675
1731015493.448207,800.0590392239609,809.23928035722,814.2032602563802,807.5056707196919
1731015493.4521167,801.2094127032673,805.8612803474323,812.5486067350145,813.013919524297
1731015493.455636,802.8432086989765,804.1466240317822,811.5766623528559,816.360288650909
1731015493.4560268,804.5744883129081,804.198042205303,811.4983171168578,815.7930529145456
1731015493.4599366,806.3907714936512,805.2443420439818,812.126832911926,811.310937481908
1731015493.4601717,808.9682040378495,806.3836686349673,812.9994558374527,804.7053778658103
1731015493.4638467,813.0955457467268,807.1769782602337,813.6114584579907,798.6605464232686
1731015493.4677565,818.6050432508924,807.6617463944856,813.6015247782381,795.4604681580405
1731015493.47128,823.876459274365,807.952327946382,812.8138524986502,795.9641962395037
1731015493.4716666,826.601662049787,807.9595571449172,811.3064301390498,799.3298048637572
1731015493.4755764,825.3476394944433,807.5310430319877,809.389194257152,803.6047802237576
1731015493.4758458,820.6575115788987,806.7784924714181,807.6453892761044,806.8585545890883
1731015493.4790597,814.7846616878235,806.1399805758169,806.8021087133432,808.2243216140608
1731015493.4794865,810.3092233583459,806.0546626633425,807.4134462778244,808.2661238528331
1731015493.4833963,808.7380653239592,806.5963364027547,809.514495682309,808.4879958360588
1731015493.486924,810.0291503413737,807.4671292129361,812.4886933312367,810.2936061435738
1731015493.4873064,813.1021216832614,808.334092259551,815.2725592289738,814.00753734516
1731015493.4912164,816.673112920057,809.0926475096974,816.8043305889449,818.5510543095343
1731015493.4951262,819.7577445079505,809.7398880976457,816.4782729920395,822.0136671534599
1731015493.4979477,821.7304438181909,810.0414360606377,814.3792997113321,822.7988272766365
1731015493.4990363,822.2576629970725,809.4882810883498,811.205232253132,820.5898577855967
1731015493.502568,821.3395001574817,807.7509897796622,807.9414724596287,816.4735146835574
1731015493.502946,819.3429590352179,805.2245033917256,805.4565467964715,812.1843278457535
1731015493.5068562,816.8184472403074,803.0182402967203,804.2071678919982,809.0811810579822
1731015493.5106144,814.185908111589,802.2214195972175,804.1810051222641,807.5741437706974
1731015493.510766,811.623742547284,803.0212587437655,805.0747318857494,807.2529589894415
1731015493.514676,809.2875442481705,804.494097760779,806.5472019744379,807.4210900970972
1731015493.5168352,807.5338156960656,805.3344153925455,808.320571254824,807.5663554255337
1731015493.5182118,806.7312317841232,804.94101990166,810.0467700934553,807.5157263891764
1731015493.518586,806.7357934486718,803.9400966678302,811.1470764733182,807.3281399368778
1731015493.522496,806.6657183192812,803.7013262522546,810.9621307740726,807.118290384961
1731015493.5264058,805.5004950219911,805.2512797291456,809.2692902525612,806.9508636882582
1731015493.530316,803.1796124280688,808.4571544039627,806.7331166646775,806.8278875368725
1731015493.533856,801.1307736252865,812.0773476122432,804.7169429079966,806.7229531681819
1731015493.5342257,801.4460612483815,814.5593999453976,804.390614701839,806.6138576854948
1731015493.5357232,805.1666249258096,814.947532612836,805.7914787146547,806.4940599455988
1731015493.5381358,811.1425803991416,813.3115069457345,807.6741703848293,806.3678357455591
1731015493.5420456,816.602956997963,810.5611558317694,808.3707014339707,806.2414419935673
1731015493.5453832,819.1025443772667,807.9218382703942,807.0247576073451,806.1180825311399
1731015493.5459557,818.2647171599992,806.4261750173366,804.2426993642196,805.9976522633906
1731015493.5494998,815.8773248449285,806.5899091997915,801.6781545912442,805.8786945707934
1731015493.5498655,814.2963863958441,808.2566945446264,800.8974579756765,805.7600868291013
1731015493.5537755,814.5230261108754,810.5990075890925,802.3754169851285,805.6415558530757
1731015493.554611,815.5245067789963,812.3585432867434,805.2971115217345,805.5233684015019
1731015493.5576854,815.2388696390042,812.3650198667037,808.1986283840645,805.405860615379
1731015493.5615954,812.283356797856,810.1374350515821,809.8976295330949,805.2891923445629
1731015493.5651438,806.9440700519441,806.1964797700508,810.062143985,805.17335151953
1731015493.5655053,800.8487113984685,801.8513072148771,809.1456080602921,805.0582628170017
1731015493.569415,795.8953400469202,798.5800723026293,807.9051831239774,804.9438727024216
1731015493.5733252,793.4036838922449,797.3723257487867,806.9245408752195,804.8301711981418
1731015493.573499,793.8954917526625,798.362578280944,806.4110299520877,804.7171741791475
1731015493.5772352,797.1990152641037,800.872094316654,806.267556630873,804.6049022160211
1731015493.580152,802.4822483673948,803.7804020090015,806.2848921567048,804.4933726672126
1731015493.5807877,808.2719907867775,806.038444078112,806.3009447769681,804.3825995470854
1731015493.5811453,812.8062562537547,807.0988316240235,806.2567601037276,804.2725879481391
1731015493.585055,814.7604783883974,807.0775731425217,806.1676253809937,804.1633196568398
1731015493.5889652,813.8457103502275,806.5854980469084,806.0689340766753,804.0547459813159
1731015493.5923867,810.7286295329786,806.3374419556176,805.9818734193823,803.9468150828386
1731015493.592875,806.3479249231907,806.7694380341209,805.908046597693,803.8395428152654
1731015493.5964315,801.3234724344649,807.8785158035579,805.8395587277397,803.7330810667097
1731015493.5967853,796.01365591597,809.3419978724781,805.7693391544561,803.6276790790139
1731015493.600695,790.9954487834992,810.7842046496885,805.6950804191397,803.5234508333288
1731015493.604605,787.2371772085912,811.9831934429734,805.6179608796213,803.4200292567423
1731015493.6085148,785.6063701537579,812.8977168405785,805.5399196486056,803.3164601941301
1731015493.6112745,786.1576447519124,813.5557642066352,805.4620107866933,803.2118087209174
1731015493.6120756,787.9481411147788,813.9418288355764,805.3842493602693,803.1065414831506
1731015493.6124249,789.6210335062916,813.983338532549,805.306194820595,803.0037049072758
1731015493.6149206,790.266420593005,813.6186010721964,805.2274867577913,802.9079155075378
1731015493.616335,789.8533557631852,812.8481800077345,805.1480253933355,802.8207272625034
1731015493.6202447,788.9690877677547,811.7084023073294,805.0678865288809,802.7343031919773
1731015493.6241546,788.2242242534132,810.2131344344992,804.9871754384573,802.6303370679032
1731015493.6277194,787.900910364045,808.3539400039333,804.9059458443156,802.4927445069584
1731015493.6280646,788.0554923629464,806.1712009889452,804.8241977047217,802.3339007880659
1731015493.6301625,788.7324215597043,803.8172775682483,804.7419105769534,802.2141330410252
1731015493.6319745,789.836701513337,801.555423692879,804.6590715317747,802.2168111721579
1731015493.6358843,790.7378246585597,799.7272703361791,804.5756827467642,802.3552045219084
1731015493.6397943,790.2390184717714,798.7216438281862,804.491754367191,802.4524736466337
1731015493.6433637,787.3487575969606,798.8846006485331,804.4072943986193,802.1227946477126
1731015493.6437044,782.3773562444003,800.3095371237506,804.322304500948,800.9819239188937
1731015493.6476142,777.2604656578142,802.6201353320996,804.2367851114593,799.0267652497615
1731015493.6490502,774.531337817743,805.0019416464218,804.1507471688736,796.8659363997489
1731015493.6496894,775.6253631194727,806.5963493021906,804.0642205055691,795.4954275054345
1731015493.6515243,779.9128513979377,807.0126540655441,803.9772442503768,795.6967976225387
1731015493.655434,785.254707597445,806.5211718331374,803.8898316120702,797.5134150789854
1731015493.6590073,789.5487024766005,805.7327634569945,803.8019272411889,800.2260178947139
1731015493.6593442,791.9723845146849,805.0548318264781,803.7134091163423,802.8345197572108
1731015493.663254,793.0826624629511,804.4420802522542,803.6241906898351,804.6527659416947
1731015493.667164,794.0143097979612,803.6658702928763,803.5344074041758,805.5872562125817
1731015493.6679382,795.6279888567254,802.797775842356,803.4445282867963,805.9797463642226
1731015493.671074,798.1668258426187,802.3849055362994,803.3551311162678,806.223475184233
1731015493.6746514,801.3499049042675,803.0960183223212,803.2662218343985,806.4614851065655
1731015493.674984,804.5820393366754,805.1221355291814,803.1764830782337,806.5558470964348
1731015493.678894,807.1479990798302,807.8540273585555,803.0834503435349,806.3061980221091
1731015493.682804,808.4410730189469,810.1516508998899,802.9855906887684,805.70595484536
1731015493.6844585,808.214257454213,811.058368084327,802.8857875109118,804.9930036710059
1731015493.686714,806.7234467595805,810.4483838257624,802.7930356584437,804.4587298859183
1731015493.686826,804.6621216767126,809.1035964501012,802.7175236702717,804.2305367235213
1731015493.6902952,802.9128910115861,808.1257868212946,802.6575260777339,804.2349319922113
1731015493.6906238,802.2249675383595,808.1267893661189,802.5864383551907,804.3194190038283
1731015493.6945338,802.9531922939043,808.8613407070923,802.4594285985618,804.3765714210778
1731015493.6984437,804.9905114107199,809.6180032289469,802.2574051000803,804.3801708520217
1731015493.7023537,807.9427637431138,810.0015484678102,802.0580273166282,804.3535638282087
1731015493.705714,811.4156327878122,810.3479705435693,802.0791483754921,804.3262501250115
1731015493.7059393,815.1620026848389,811.3428923538761,802.6244375011362,804.3117553734781
1731015493.7062635,818.9637363339789,813.201722733509,803.9163082201578,804.3082237847932
1731015493.7101736,822.4295587470511,815.2374591592064,805.9023181953576,804.3083235100637
1731015493.7140834,825.0263675137554,816.2868953469407,808.1769703613443,804.3069387377526
1731015493.7179935,826.3933666506389,815.6278411484363,810.1032492915841,804.3030954750504
1731015493.7192268,826.6133611138082,813.5486774314226,811.0820299321964,804.2982027003042
1731015493.7215831,826.1411163094214,811.0845824844407,810.8179232457995,804.2938078362189
1731015493.721903,825.47946396436,809.2180554519229,809.4444216383247,804.2905456198728
1731015493.7246015,824.9198054796184,808.2800060286786,807.4614355228214,804.2882566064802
1731015493.7258134,824.5101743351988,808.0206237362166,805.5208299723187,804.28653433412
1731015493.7297232,824.1736120862008,808.162612356149,804.1481605999802,804.2851148419134
1731015493.7336333,823.830659507948,808.8150861573405,803.5336865406267,804.2839550422846
1731015493.737227,823.451459337359,810.2870427138351,803.5329715415967,804.2831283858447
1731015493.737543,823.0464724253845,812.4509964744211,803.9099303393241,804.2827071870016
1731015493.7414532,822.6370720115359,814.3227702224522,804.6489679991171,804.2827127437449
1731015493.7434895,822.2360131557477,814.4357092537073,806.0395076349816,804.2831257648031
1731015493.745363,821.8443989322549,811.9009556515072,808.3802969496738,804.2839162043678
1731015493.7492733,821.4576488037491,807.3378184755106,811.501409321402,804.285062798563
1731015493.752871,821.0716122521229,802.8027807006584,814.5425980418321,804.2865559704039
1731015493.753183,820.6849265083157,800.5828982217004,816.2870832580605,804.2883917727911
1731015493.7539957,820.2982872501707,801.6678183361317,815.902424162552,804.2905657647769
1731015493.757093,819.9128482673705,805.0472648835553,813.5608741146682,804.2930706846566
1731015493.7610028,819.5292466929895,808.3750698491601,810.440840910312,804.2958972077622
1731015493.7623775,819.1475061415955,809.496416322169,808.0516930866565,804.2990355583117
1731015493.7649128,818.7673776673994,807.72464859719,807.3372187884378,804.3024764891898
1731015493.7685149,818.3886558836141,804.036390493312,808.1878582628786,804.3062113910098
1731015493.768823,818.0112870122839,800.2151125135151,809.6764985616022,804.310231967035
1731015493.7727327,817.6353201687372,797.6863603981652,810.7781683303593,804.3145299116516
1731015493.7766428,817.260821725191,796.8556205157793,811.0056495922888,804.3190967500223
1731015493.7805526,816.8878269164178,797.2500443579812,810.5560245427479,804.3239238023843
1731015493.7812655,816.5163368838002,798.1506763450809,810.0200824633863,804.3290022385664
1731015493.7841587,816.1463364966095,799.1413186164906,809.9990763761878,804.3343232707051
1731015493.7844627,815.777810714333,800.2089077268232,810.8726102955862,804.3398785039936
1731015493.7883725,815.4107528854457,801.4569137000216,812.6903333290687,804.3456602383176
1731015493.7887645,815.0451678762892,802.775780934407,815.0822178216725,804.3516612444257
1731015493.7922826,814.681071057051,803.7748443430942,817.2504104769018,804.3578736274467
1731015493.7961924,814.3184781064862,804.018762783228,818.2264152959123,804.3642871975283
1731015493.7998028,813.9573821176962,803.3660539017195,817.4057772860386,804.3708890542298
1731015493.8001025,813.5977299250302,802.1442876794796,815.0373389496106,804.3776666043341
1731015493.8001533,813.2394300524015,801.0189911444571,812.2265239548908,804.3846141912255
1731015493.8040123,812.8824238372066,800.6157092969383,810.3250112131075,804.3917384985567
1731015493.8079224,812.5268015100121,801.1165689763219,810.1003494492479,804.3990532524414
1731015493.8118322,812.1728547363825,802.0883110360036,811.3209818375036,804.4065567311089
1731015493.8154469,811.8209048785394,802.6797007725488,813.0756166372043,804.4142019729101
1731015493.8157425,811.4708588066605,802.1075545594168,814.5239303230767,804.4218933094073
1731015493.8190413,811.1217763623412,800.1636164437399,815.4309253707487,804.4295491895555
1731015493.819652,810.7720937036385,797.4472425636,816.0956321606079,804.4372279109147
1731015493.8235333,810.421048016964,795.1819581013337,816.8647861379286,804.4452169379974
1731015493.823562,810.0708262928551,794.6960825071066,817.739205199651,804.4539076720539
1731015493.827472,809.7272751590847,796.7948124543248,818.3747151449122,804.4633531286356
1731015493.8310907,809.3962314017783,801.2790031250205,818.3514165077797,804.4727309291264
1731015493.831382,809.0749990623347,806.834983605074,817.4052322797671,804.4803667559253
1731015493.835292,808.7449272851545,811.4510580167708,815.4974214687676,804.4850279712261
1731015493.837929,808.3773469484879,813.3159290907315,812.8338195613956,804.4882927705468
1731015493.839202,807.9619824200099,811.7981896969511,809.9254343942598,804.4959805874126
1731015493.8431118,807.5464288242707,807.8610586321228,807.5683835747548,804.51532833057
1731015493.8467343,807.244226667233,803.5096137829046,806.5531712144777,804.546402432588
1731015493.8470218,807.158880096086,800.5733665707348,807.1665209625177,804.5726718948445
1731015493.8509316,807.2250486833022,799.7026018530539,808.8775309949084,804.5636019078742
1731015493.8548417,807.0949110021411,800.3014587834106,810.5855116134784,804.5022698467238
1731015493.856817,806.2854088891995,801.3220552007391,811.3552945963336,804.4335938175597
1731015493.858302,804.6237599446445,802.1505063372283,811.07817537204,804.4982284723121
1731015493.8587515,802.6110175395115,802.8659525477436,810.4844789138831,804.901428369525
1731015493.8623786,801.2105371865476,803.8281540049402,810.4731288806934,805.7969635712847
1731015493.8626616,801.1088219448687,805.14158662623,811.3345508327009,807.1390309575539
1731015493.8665717,802.1080360578878,806.5172053713511,812.5371644609853,808.6094420235218
1731015493.8704815,803.2176691630601,807.5520379987938,813.2155748811224,809.6936016501214
1731015493.8743916,803.3425235930564,808.0592451390864,812.8566771541452,809.8783074248059
1731015493.8757048,801.9824867374992,808.1605721750102,811.569406528809,808.88045794574
1731015493.8780224,799.4775957374104,808.1795301617407,809.8223651742439,806.8163953917112
1731015493.8783014,796.7623127410766,808.5139441090326,808.0586437732527,804.2216867728549
1731015493.8822114,794.8676545013574,809.5323600507721,806.5861249550134,801.8474479674403
1731015493.8861213,794.4295106399684,811.4199052539956,805.7036543511683,800.282651973162
1731015493.890031,795.4074230682879,813.9941944097852,805.7425163010935,799.6236736420285
1731015493.8930705,797.1535202664369,816.6602911295699,806.8806390359998,799.4279221084395
1731015493.8936665,798.8066770366606,818.6297194309645,808.9276803621456,798.9892177106057
1731015493.8939412,799.7606583897501,819.3124196404866,811.3439497721457,797.7501961261387
1731015493.8945928,799.886844968397,818.6303797030495,813.5068503716348,795.6092277964522
1731015493.8978512,799.402344395507,817.039915556737,815.0000379842909,792.9749126319953
1731015493.9017613,798.584111499623,815.2385534880862,815.7160727101963,790.5710588923577
1731015493.9056711,797.6285870283007,813.7421747445619,815.7550742632819,789.13808274833
1731015493.9093103,796.7460339687083,812.6227138337213,815.2488678615327,789.2291832110433
1731015493.9095807,796.2919724395973,811.6027420249213,814.2471162139473,791.1657076595534
1731015493.9134803,796.6850320720458,810.4290576105404,812.729702919602,794.996793308427
1731015493.913491,798.0953266656211,809.1942120572933,810.7292122706573,800.3104340340219
1731015493.9174008,800.1701341423682,808.3012988547065,808.4746255786758,806.0596649769273
1731015493.921311,802.1121015943254,808.1005959942264,806.4261825374821,810.7972522810909
1731015493.9249544,803.165050109899,808.5542209432012,805.116850710526,813.4138667971247
1731015493.9252207,803.1905091850196,809.255692766416,804.8533919580486,813.8609026755277
1731015493.9278393,802.8638864484985,809.7701052478081,805.4662464741724,813.152466558701
1731015493.9291308,803.2645941699244,809.9617472784327,806.314394092452,812.5251079260615
1731015493.9323685,805.1064201435852,810.0402555388499,806.6124432943824,812.42869523308
1731015493.9330406,808.1525942475782,810.3539447813292,805.9247744565951,812.1966206504923
1731015493.9369507,811.239305777943,811.1391763296399,804.5045849324584,810.6472382170804
1731015493.9405982,812.9162987585594,812.3704310374935,803.1856548626611,807.1227049939928
1731015493.9408605,812.3227693167255,813.7321786600723,802.8174393887696,802.2145041724754
1731015493.9447706,809.7693560788421,814.7190288914479,803.6330742511961,797.7149844639157
1731015493.9486804,806.635483219744,814.8803204330028,805.0952493699804,795.810814712939
1731015493.9512565,804.5718689650777,814.1136540275747,806.3743054651068,797.9058068610069
1731015493.9525905,804.4734094463146,812.771722478071,806.9816574858526,803.6578189521393
1731015493.956242,805.9364666192431,811.4214495257281,806.9775407466866,810.8059588937224
1731015493.9565003,807.6315122442942,810.4008231821584,806.7105632057915,816.0653915151963
1731015493.9604104,808.3163417111057,809.5476668726792,806.4754479464899,816.7934869975098
1731015493.962608,807.6748811063095,808.3519771763249,806.3725965756589,812.553566945054
1731015493.9643204,806.3260144532051,806.4164224712359,806.3603694091642,805.5559178779115
1731015493.9682302,805.0929160280677,803.8614045918737,806.3634563018009,799.5094049375648
1731015493.9701445,804.2613692164625,801.384705659411,806.3395682715961,797.4506037573165
1731015493.9718862,803.4948381601789,799.9470165048557,806.2871691795974,799.9289714612063
1731015493.9721403,802.3981668911081,800.2628829849257,806.2232374598543,804.8083382818555
1731015493.97605,801.0888194418869,802.3530526301064,806.162107375051,808.830989322583
1731015493.9799602,800.1523671961081,805.4065385357757,806.1080164514213,809.7784310758509
1731015493.98387,800.013092489015,808.1005738903393,806.0582077603062,807.6453523842816
1731015493.98753,800.3920209619175,809.2858997540611,806.0086327981429,804.117179690104
1731015493.98778,800.4806666363205,808.6562427498073,805.957209557183,801.0438478595136
1731015493.989032,799.735547002338,806.9312170806708,805.9039942415684,799.2758942029585
1731015493.99169,798.5227986087908,805.3533178037666,805.849919183825,798.6417937696572
1731015493.9956,797.917087355881,804.7967058549508,805.7957031412723,798.6858247543655
1731015493.997377,798.730201020544,805.1338835663286,805.7415166611239,799.2170606258912
1731015493.9995098,800.5841529323776,805.380535473693,805.6871811514602,800.2068874671218
1731015494.003174,801.8875406520715,804.5537738219199,805.6324729021858,801.4377840211109
1731015494.00342,800.888598817962,802.559323486449,805.5772819905973,802.4948227918997
1731015494.0073297,797.104178225302,800.3281953566623,805.5216091901254,803.086609082628
1731015494.00792,792.0301838523234,799.0436067474338,805.4654951787481,803.2417026310183
1731015494.0112398,788.4721816963862,799.1459576234597,805.4089656627588,803.1904758830507
1731015494.0151496,788.8505478719802,800.0478124706528,805.3520191063143,803.1429964337642
1731015494.018818,793.6721859137327,800.8100668974834,805.2946413954145,803.1813408916724
1731015494.0190597,801.2804525207376,801.0757470191743,805.2368212759774,803.2851869771381
1731015494.0229695,808.9839988235144,801.3316197775155,805.1785511921188,803.4041644294223
1731015494.0268078,814.5943465902019,802.3006115251064,805.1198152473762,803.5068727599051
1731015494.0268795,817.2510229823159,804.1463933849291,805.0605800743829,803.5898192994686
1731015494.0307894,817.2464723149245,806.2786751695894,805.0008085298423,803.6637329171286
1731015494.0321455,815.4354763741085,807.8643512123259,804.9405022268094,803.7387658873627
1731015494.034462,812.8381678937144,808.4657489864628,804.8797446267016,803.8184840133049
1731015494.0346994,810.4372251771007,808.2138905231276,804.8186808820451,803.9013957279965
1731015494.0386093,808.9049135916866,807.4848405620259,804.7573803183155,803.984768277014
1731015494.042519,808.3575686937498,806.5395536875385,804.6956270010876,804.0670432003109
1731015494.0456955,808.4394468787829,805.5306615461687,804.6328482324527,804.1481408366177
1731015494.0464292,808.685836397568,804.7925758761377,804.5684680533029,804.2286674075132
1731015494.0501058,808.8203399929354,804.9557932881287,804.5027356078913,804.3091457960529
1731015494.0503392,808.8022538279823,806.5721665924459,804.4374544994928,804.3897367371716
1731015494.054249,808.7117769474249,809.4864753857629,804.3754234251633,804.4703443964002
1731015494.058159,808.6290655294013,812.593868075943,804.3176978189795,804.5508210119941
1731015494.0620692,808.5835546297578,814.4096510219194,804.2597815150394,804.6310873251327
1731015494.0645835,808.5642840678537,814.1406148220084,804.1909228646737,804.7111440131171
1731015494.06575,808.549712572514,812.3622306767256,804.1018339413149,804.7910312107477
1731015494.065979,808.5271883125575,810.628267241229,804.0013302312848,804.8707892123872
1731015494.0669143,808.4957779947272,810.2712094252208,803.9312125176976,804.9504360228045
1731015494.0698893,808.4601657189053,811.4176022653928,803.9605856858924,805.0299549777094
1731015494.073799,808.4245224788325,813.0493100561862,804.1564699964861,805.109292559962
1731015494.077709,808.3901925913993,813.9537166556371,804.5677818459778,805.1883845188089
1731015494.0813937,808.3564659971071,813.6194015478675,805.2548485116471,805.267224422036
1731015494.0816188,808.3221941973766,812.3230766048066,806.2984681777441,805.3459423856373
1731015494.0834713,808.286758924044,810.5431363386776,807.6797429354136,805.4247957193325
1731015494.0855289,808.2501572100726,808.4457960561701,809.0961405065013,805.5039656261221
1731015494.089439,808.2126536474443,805.9468790298421,809.9748221843347,805.5831949568619
1731015494.0933487,808.1744644236664,803.1507096694667,809.817895295768,805.661581266018
1731015494.0970376,808.1356531136463,800.6040842809729,808.6357962447705,805.7380322042985
1731015494.0972586,808.0961826170682,799.0729585883162,807.0471029434781,805.8126006513379
1731015494.1011686,808.0560002192806,799.0568325506601,805.8937624382424,805.887926256434
1731015494.101683,808.0150808178828,800.4742434705006,805.6742576006301,805.9688290134073
1731015494.1023593,807.9734232628092,802.7538214395754,806.2669436630098,806.0581939020035
1731015494.1050785,807.9310320769579,805.2120758029392,807.1376465746147,806.1502081232394
1731015494.1089883,807.8879148030928,807.4047975532736,807.7894062745534,806.2272676752052
1731015494.1126816,807.8440998128057,809.2158158854871,808.0524537015884,806.2699106212682
1731015494.1128983,807.7996500177632,810.6882941436211,808.0478925661596,806.2825957992719
1731015494.1168084,807.7546348225025,811.8009713850673,807.9772296398029,806.3188053519912
1731015494.1207182,807.709046895699,812.390511409201,807.9626454771894,806.4678771273657
1731015494.1212473,807.662717797004,812.2500207320306,808.0195939293571,806.7713094450319
1731015494.1246283,807.6153581080948,811.2800539557859,808.1092101391743,807.0947022829728
1731015494.1283257,807.5668298369065,809.5747177269021,808.1939640056356,807.0766573510915
1731015494.128538,807.5175620444899,807.4320655840656,808.2604832851868,806.3125945912705
1731015494.1324482,807.4686941364372,805.325252229646,808.3141831783953,804.761247728936
1731015494.136358,807.4213766728332,803.8216411153504,808.3651912516106,803.010944744976
1731015494.1364515,807.3751286422793,803.4057792548804,808.4193442862127,801.9836984424745
1731015494.140135,807.3263879449183,804.2344281275309,808.4769967404391,802.2473209784308
1731015494.140268,807.2696188095487,805.9651212542077,808.5359333261653,803.6572803493407
1731015494.1439695,807.2027583359754,807.8223972643032,808.5942264047912,805.6696250462184
1731015494.144178,807.134840914325,808.9394462962957,808.651284479413,807.8663892941745
1731015494.148088,807.0876072109631,808.8111201572547,808.7074681053733,810.1166090219955
1731015494.1519978,807.0807830318431,807.5786236964169,808.7633300385722,812.3226237133273
1731015494.155908,807.100777881742,805.9572633203915,808.819168634575,814.0939436373627
1731015494.1590228,807.0763492917573,804.8598045903681,808.8749949291762,814.678844352386
1731015494.1596134,806.9059658284807,804.9516919078513,808.930698119625,813.3031230027387
1731015494.159818,806.5660281859358,806.3601299208973,808.986192987058,809.823095652948
1731015494.1637278,806.250986579871,808.6209309563908,809.0414675003149,805.2735557556098
1731015494.1676378,806.3873544636693,810.8441345994949,809.0965577260697,801.7310207235447
1731015494.1712203,807.3443522927033,812.0467630636571,809.1515069427452,801.2815004159318
1731015494.1715477,808.8913370980051,811.5628422339094,809.2063431805125,804.6420745940615
1731015494.1752574,809.8769440875873,809.3768269054258,809.2610786152571,810.4435385924414
1731015494.1754577,808.7143775786072,806.2113518131005,809.3157193096146,815.8173441956556
1731015494.1779108,804.580036739436,803.286386231227,809.3702746152719,817.9860491171634
1731015494.1793675,798.3390745028487,801.8164830513936,809.4247616439101,815.8046532256836
1731015494.1832776,792.2562334925445,802.4485501559209,809.479203831155,810.2401134797159
1731015494.1871874,788.6101440223035,804.9050664638293,809.5336234559186,803.5630715780457
1731015494.1909013,788.2847512488368,808.04776923058,809.5880302942334,797.9347017452532
1731015494.1910975,790.3900058574438,810.3991506351043,809.6424148097124,794.397816748576
1731015494.195007,793.0986668575755,810.9009263768927,809.6967596956017,792.8175662813277
1731015494.1967986,794.9515931849751,809.4867947929205,809.7510769090039,792.520048637169
1731015494.1989174,795.6163093970866,807.0781567726592,809.8054507321949,792.9346435387789
1731015494.2028272,795.6400731128088,804.9490231774772,809.8600328815929,793.7574024593338
1731015494.2059891,795.5975090982282,803.8705086341428,809.9149334214407,794.7168838391406
1731015494.2065454,795.4539925809876,803.6544304027492,809.9700277753776,795.3742241765967
1731015494.2067373,794.6492323539245,803.4227174202122,810.0248489132739,795.2356216048333
1731015494.210647,792.7283928885339,802.3458477433985,810.0788343139482,794.0456378588889
1731015494.2145572,789.9404578599691,800.2514082828554,810.1320392886784,791.9586660821857
1731015494.2156866,787.3456421320597,797.7039335641499,810.1858983591593,789.505790310573
1731015494.218467,786.3727252006391,795.6393416226528,810.2429915822997,787.5110370238958
1731015494.2221892,788.0828376389626,794.905363203362,810.3048353308204,786.9997668294128
1731015494.2223773,792.5215659311126,795.9519724370017,810.3682877483493,788.8911909602374
1731015494.226287,798.5271863414001,798.6987917538892,810.4239544783795,793.3879990508132
1731015494.230197,804.184142707424,802.5434013303636,810.4615592954555,799.4750354301466
1731015494.2341068,807.7476658997195,806.5208941854602,810.4836919507977,805.1597339414269
1731015494.2345743,808.5199818534414,809.6081888945041,810.5190003995058,808.5557561191307
1731015494.237833,807.1398911308135,811.076066418702,810.6147272734339,809.0676104593507
1731015494.2380168,805.1147786522326,810.7454318952118,810.7914686302624,807.7003084670552
1731015494.240758,803.9027401642129,809.0402775894677,810.9740515973851,806.2171256212308
1731015494.241927,804.11665521213,806.7956478801807,810.9598522645194,805.8439670113474
1731015494.2458367,805.3357662108806,804.8687192634126,810.493275645887,806.5552293963306
1731015494.2497468,806.6260684383149,803.7371955147873,809.4292438453035,807.4127715841084
1731015494.2534623,807.3841844814067,803.3516525690535,807.8538135329912,807.529142741517
1731015494.253477,807.8544027839148,803.3642973530874,806.0485059090988,806.7808878607499
1731015494.2536566,808.8959147461401,803.5248263188638,804.3536116367354,805.7305101476682
1731015494.2575667,811.1959359566189,803.8549739179755,803.0871619551847,804.9681410344599
1731015494.2614765,814.6171223735533,804.4536759908353,802.5613292059102,804.5783286861472
1731015494.2653866,818.2470906340143,805.2219428248499,803.0641700977492,804.2514899815043
1731015494.2691207,821.0598235446582,805.8981147632037,804.6877629554048,803.8752000669757
1731015494.2692964,822.5392945535688,806.3881179115451,807.0872390356532,803.9120024063236
1731015494.27235,822.7203175046386,806.945769771135,809.4203168121829,805.053154394401
1731015494.2732065,821.7505488212488,807.8829201958936,810.6508216655129,807.4078395145101
1731015494.2755268,819.5725617016328,809.0786449089287,810.1244467887032,810.0716261321861
1731015494.2771163,816.14120608142,809.898631567584,808.0489819793328,811.6485640871255
1731015494.2810264,811.9417522278179,809.753195200449,805.48208570691,811.366049759321
1731015494.284765,808.1627175994217,808.7940147512548,803.7438108898025,809.7503378387875
1731015494.2849362,806.1495382719966,808.0042849063403,803.6308195934787,808.1574075352736
1731015494.2888465,806.4741442226689,808.4880856282392,805.0120132206081,807.5270607984097
1731015494.291238,808.4241243062947,810.5475283729224,807.08764881845,807.5168991937488
1731015494.292756,810.460304101156,813.3564400562761,809.0240268420521,806.8742498423435
1731015494.296666,811.3630377613251,815.5185265506725,810.3801463280407,804.7471640629713
1731015494.3004088,811.1087936502274,816.0620460931394,811.0249902297529,801.7032589117315
1731015494.300576,810.693598657328,815.0972292911669,810.8005098385643,799.4417158524398
1731015494.304486,811.0880550054784,813.6483708021542,809.4163266047692,799.3953543227332
1731015494.308396,812.3422387071349,812.8126103614838,806.7471501462962,801.4825824947627
1731015494.3101258,813.6688785485516,812.91925715323,803.2306145254541,804.1461195190118
1731015494.310295,814.3023544756113,813.3633714061293,799.9383180360087,805.6182468760456
1731015494.312306,814.1789937166533,813.2204510341857,798.1806577773095,805.2415344017849
1731015494.316053,813.8079450801515,812.0614654876978,798.8696467204217,803.7156285211287
1731015494.3162158,813.6513898160243,810.2149885621726,802.0164552377074,802.2477977893299
1731015494.3201258,813.7591281372622,808.278169583478,806.6604492659761,801.5698672576476
1731015494.3240356,813.9132426552789,806.445208667295,811.3051597486365,801.6514756714333
1731015494.3279457,813.9343929121803,804.4108573525561,814.6518463955751,802.0632650462345
1731015494.3290138,813.8046320960643,801.9859629572572,816.2055193236077,802.4332956031675
1731015494.3316967,813.6029007995575,799.760670613423,816.3705052992308,802.6339140669025
1731015494.3318555,813.4057551927731,799.0229059258472,815.9969682980641,802.7180719928635
1731015494.3357656,813.2426090663863,800.8517717254558,815.7433624369487,802.7819133183177
1731015494.3396754,813.1047882625934,805.1453210628027,815.7313720967305,802.8796356463752
1731015494.3435855,812.9728424302637,810.4590202025753,815.6820018827833,803.013401526184
1731015494.3450642,812.8348941238226,814.8128870083028,815.3049392338279,803.1616115670274
1731015494.3473406,812.689753381415,816.7933627003915,814.5584905588935,803.3059353628877
1731015494.3474956,812.5415650112004,816.1185347197159,813.6157163665656,803.4408975526999
1731015494.3479016,812.3941697259997,813.4153620252828,812.6920101908255,803.5699690951881
1731015494.3514054,812.2488684514121,809.6317056852722,811.9691084745466,803.6982981955789
1731015494.3553154,812.1050472564382,805.6490563641734,811.6515416286563,803.8285380684995
1731015494.3592253,811.961641731019,802.2567157162194,811.9849384885458,803.9606125154392
1731015494.362985,811.8180474020451,800.1945136445057,813.099089581477,804.0933205507808
1731015494.363135,811.6742233052381,799.9398974001836,814.7648514395853,804.2257289828376
1731015494.3667896,811.5303839508864,801.3091894022148,816.307189175933,804.3576037713716
1731015494.3670452,811.3867064617397,803.3170173456396,816.8199009490348,804.4891584891459
1731015494.3709552,811.2432267497046,804.6422732800471,815.5809628775671,804.6206659008473
1731015494.3748653,811.0998818333089,804.5014460738818,812.4209968627221,804.7522529068664
1731015494.3786285,810.956589669862,803.2494786714065,807.864284266383,804.8839027178298
1731015494.3787751,810.8132973464229,802.1393893784442,803.0127201371746,805.015546442684
1731015494.379833,810.6699868815135,802.3538422292471,799.2082229405535,805.1471383870676
1731015494.3826847,810.5266567512016,804.0761748225272,797.5145719607652,805.2786780376322
1731015494.385677,810.3832969125656,806.3721236204952,798.1594916722007,805.4101909432028
1731015494.386595,810.2398680559361,807.9659157140499,800.260308077668,805.5416938240605
1731015494.3905048,810.0962972923329,808.2273634868228,802.1623832669629,805.673166233606
1731015494.3942726,809.952506683894,807.5471373784529,802.3598348793212,805.804550264049
1731015494.394415,809.8084774705411,806.8811016348262,800.4610266607904,805.9357962790376
1731015494.3983247,809.664309626209,806.9810447773898,797.5014290025811,806.0669456379111
1731015494.4022348,809.5201882141298,807.9829375355085,795.335587256832,806.1981847645186
1731015494.404565,809.3761828266374,809.5321755273037,795.5278227672593,806.3297599587631
1731015494.4061446,809.2319492580426,811.1044656631933,798.505851987352,806.461694517308
1731015494.4099164,809.0866361927558,812.174415721494,803.4706484860134,806.5934565353768
1731015494.4100547,808.939403995587,812.2547402069813,808.9625071026474,806.7239933373492
1731015494.4139645,808.7906135395592,811.0297742161557,813.5855376543493,806.8525678435777
1731015494.4146016,808.6428460501005,808.6083273635188,816.4478892015183,806.9802447019828
1731015494.4178746,808.5000474904641,805.6436159035221,817.2236109726701,807.1107279941732
1731015494.4217844,808.3635534248556,803.1046536553617,816.03126104358,807.2484726912232
1731015494.423453,808.2266345493887,801.8041328188688,813.335704360082,807.393198213806
1731015494.4255605,808.0735287733197,802.0214549327519,809.8873836039269,807.5340048835243
1731015494.4256945,807.8903159070383,803.4589474333355,806.5710975023371,807.6511129894812
1731015494.4296043,807.6875282244689,805.4731592008335,804.1092515967163,807.7327886477972
1731015494.4335144,807.5171717272477,807.3574504746946,802.7652896181344,807.8029376565386
1731015494.4374242,807.451924846373,808.5450921159243,802.2815354223369,807.9332224992263
1731015494.4412043,807.5063489736983,808.7618848124497,802.1315137741798,808.2009935463366
1731015494.4413342,807.5370112956156,808.1467508325144,801.9006491572609,808.580575236264
1731015494.4423409,807.2365468353639,807.2230043004266,801.4974493499348,808.8321993407051
1731015494.4452443,806.3481670968941,806.6109740303959,801.0625379616856,808.5305010862678
1731015494.449154,805.0604867838578,806.6201963037917,800.7267009412604,807.3257754859933
1731015494.4493704,804.2369544759247,807.0731778701169,800.489743234364,805.2931421423889
1731015494.4530642,805.0583935017374,807.5689957754855,800.3354005452012,803.0480567904408
1731015494.4568484,808.1445746552238,807.9652179850793,800.4331049097099,801.5012698439147
1731015494.456974,812.8611339992136,808.5878110877433,801.1768101482642,801.4478648343302
1731015494.460884,817.4906057607478,809.9025189561194,802.968095839168,803.1969726342355
1731015494.4612288,820.1999379242529,811.9219185031956,805.8985767733726,806.3300910996875
1731015494.464794,820.0701020719625,813.9427925350103,809.5858479198928,809.7451036917744
1731015494.468704,817.4731845797608,814.9473575188296,813.294794885596,812.1495700949072
1731015494.4724922,813.6542524206048,814.3686341510489,816.2656532065337,812.8350546160667
1731015494.4726138,809.9415222575974,812.5337123512818,818.0478516581709,812.1968068537376
1731015494.476524,807.1436702530129,810.3749921923718,818.6630593703954,811.5314470135145
1731015494.4801166,805.4066302630342,808.6901842887534,818.5315711871249,812.1579623439411
1731015494.4804337,804.4212831854934,807.6454234674585,818.2154816646911,814.426909061208
1731015494.4841392,803.707752422965,806.9404067680817,818.1209111746231,817.3100214218636
1731015494.4843438,802.8076065290151,806.3891463739538,818.3295203980978,818.9285945025239
1731015494.488136,801.4040814527182,806.2823781365059,818.6561319677845,817.7696138517701
1731015494.4882536,799.4429702809169,807.1322754400079,818.8646954237224,813.7896621349269
1731015494.4921637,797.2211482266079,809.0014400728714,818.8381546356502,808.5525008485338
1731015494.4960735,795.3254686544251,811.0439503231488,818.5398985962005,804.2096698206059
1731015494.4990046,794.3799488118631,811.7748534507273,817.8280261061824,802.0869982730662
1731015494.4999835,794.7134912281609,810.0016163522046,816.3768755796573,801.9892839797322
1731015494.50378,796.1284194198461,805.7497045484745,813.887456491489,802.6711526908181
1731015494.5038934,797.9026297543643,800.4225234453971,810.4531544211225,802.9066866301065
1731015494.5078034,799.0723144341977,795.99793188845,806.7111856797738,802.2459512172024
1731015494.5117133,798.9289654872566,793.8350198572612,803.5533174964447,801.0700333073341
1731015494.515623,797.496731343612,793.9736825136554,801.5991898477422,800.2064364978609
1731015494.5178924,795.6443479884866,795.3906111785278,800.902426087838,800.4821902834661
1731015494.5189078,794.63234906179,796.9121695937664,801.13924889477,802.3211775405347
1731015494.519424,795.3061522668968,798.021905557489,802.0275389455815,805.3889517093423
1731015494.5195332,797.4975338416709,798.9731314778121,803.4880952696509,808.4894588661801
1731015494.5234432,800.1153314983969,800.2303463957716,805.3690694034468,810.0071150339487
1731015494.527353,801.876428904865,801.8084503829745,807.0907390638685,808.829796581562
1731015494.531263,802.097177593639,803.1277737970001,807.7401899610397,805.157342455587
1731015494.535068,800.9456903338101,803.520027614816,806.7209998706614,800.5095095143502
1731015494.5351727,799.0779085347065,802.9102872291714,804.4365187845017,796.8123050317777
1731015494.5367804,797.1194257642643,802.0113470446565,802.3056629665715,795.1911731531642
1731015494.539083,795.482374536534,801.8052965475986,801.925731382088,795.3660022909679
1731015494.5429933,794.5508684143133,802.7674659457857,803.9701465660382,796.0996884062595
1731015494.546903,794.8385625789304,804.5465658379472,807.7054188005193,796.3422219056506
1731015494.550712,796.7516272492599,806.3713150834016,811.5153932723127,796.1394870690384
1731015494.550813,800.044624467833,807.742761416917,813.9750757935768,796.5140276311154
1731015494.5536766,803.5022274171333,808.7209012239213,814.6038280466356,798.3669708122825
1731015494.5547228,805.3534433890416,809.5733777779117,813.7962089344719,801.3621655349344
1731015494.555668,804.337245018676,810.227384159688,812.177263256465,803.8790004650189
1731015494.5586329,800.6526132653504,810.1532445577334,810.0583497258255,804.2115593847307
1731015494.562543,795.9452243876974,808.8381783252175,807.4555067740373,802.0161682865958
1731015494.566356,792.2355833175272,806.3852465496486,804.5422702382698,798.7008198573109
1731015494.5664527,790.6347131538134,803.6322955805607,801.9840358793265,796.356063743118
1731015494.5703626,790.874409470888,801.6551916164811,800.7055405273119,796.1111086563179
1731015494.5742726,791.9027847145242,801.1071645343593,801.2007010978858,797.278007979114
1731015494.574556,792.8752086842462,801.9620121779958,803.0154385233975,797.9446764577282
1731015494.5781825,793.6934667495232,803.7923155522054,804.9798185905255,796.4838158551473
1731015494.5819998,794.8205169425678,806.2080445884487,806.0901955505798,792.7734362883909
1731015494.5820923,796.723832820081,809.0141911178721,806.2719637167554,788.2476188570051
1731015494.5860023,799.4485382738369,812.0245701513952,806.3121375315823,784.8651328579435
1731015494.5884454,802.5613085483271,814.8440078951603,807.0365682034419,783.8816887731688
1731015494.5899124,805.3914480426776,816.9175721242217,808.5241965770973,785.3180606568956
1731015494.593444,807.3513031049239,817.8168624674831,810.0703672504283,788.3184297529398
1731015494.5938222,808.1549564501374,817.4867877150408,810.8612449938361,791.8839474035623
1731015494.5976436,807.8760010159563,816.2585292585792,810.6921868947334,795.3510763630688
1731015494.5977323,806.8800975796681,814.6842871801472,810.1163744356915,798.4075974101457
1731015494.601642,805.6793604207465,813.3461573664089,809.9649651266079,800.8678619533468
1731015494.6055522,804.7351455890914,812.6785001938337,810.6617419942695,802.5061786622664
1731015494.609462,804.2773978453016,812.7661667334504,811.8345708231693,803.0820438504256
1731015494.612332,804.2801354611487,813.1969311817729,812.4895715665492,802.5280739076809
1731015494.6132877,804.6609223998416,813.1702139940894,811.6693268178915,801.1535060911897
1731015494.613372,805.5165863051274,811.9340273260975,809.196711137998,799.6243455957023
1731015494.617282,807.058795334873,809.3065091186401,805.97106569107,798.5733693344229
1731015494.621192,809.1826929780325,805.8877588413411,803.5232123671325,798.0687391701167
1731015494.623214,811.0988638744448,802.7728290282143,803.0807976218207,797.4832824646363
1731015494.6251018,811.5691220126554,800.9441810852372,804.8010507486247,796.043833357025
1731015494.6289315,809.7373515874746,800.7291703912408,807.6958600112606,793.6125217812667
1731015494.629012,805.8719825706302,801.6403003778179,810.2344832612082,790.8990266394972
1731015494.6312196,801.3153378394611,802.6786957544019,811.1772851572201,788.8694793275895
1731015494.632922,797.647375854019,802.9192904511267,810.1739115640149,788.0109763131395
1731015494.6368318,795.773817276717,802.0276361303297,807.8959875693084,788.2422511794568
1731015494.6407418,795.6267155177005,800.3905885451891,805.6939454523998,789.4483204507952
1731015494.6445756,796.5215085560956,798.7911243613872,804.9245272577227,791.8575206428909
1731015494.6446517,797.682763207487,797.8605758564212,806.2588644235224,795.6999104988739
1731015494.6485617,798.5249330318229,797.676833696535,809.3565058462403,800.5055801479891
1731015494.6501076,798.7077266616201,797.7608763688111,813.0975957339001,804.9224899473297
1731015494.6524715,798.1982021252234,797.4568277111259,816.1763453393329,807.4566982100198
1731015494.6563816,797.375665023528,796.4370600218757,817.6336106927686,807.5812467110833
1731015494.6579828,796.9643198108433,794.9954710511776,817.0701286843961,806.2139263772895
1731015494.6602194,797.6572943785886,793.9289263629634,814.6170384791276,805.0659569295503
1731015494.6602914,799.645101153601,794.0809378534171,810.8557237076582,805.3468814285736
1731015494.6642015,802.46500967788,795.8526719271583,806.7119277283634,806.8991132103316
1731015494.668111,805.3553526551918,799.005006558658,803.2132703453617,808.5056235954182
1731015494.6689954,807.815450124885,802.8559221100126,801.1251568962334,809.1161347441662
1731015494.6720214,809.842900537816,806.6822305107247,800.6907808791769,808.9098455307068
1731015494.6758635,811.6334485630514,810.0035643161607,801.668210440451,809.2155232904985
1731015494.6759312,813.0907535177561,812.5713372879866,803.5748698160575,811.3255992220635
1731015494.6798413,813.7016071168207,814.1745153646484,805.8662734832535,815.2768240471961
1731015494.683751,812.9471437367215,814.5431453368194,807.9391294695065,819.7201484962031
1731015494.6876612,810.857437519758,813.5220152549064,809.1600818548355,822.974442284856
1731015494.6878834,808.1748553419332,811.3921915921695,809.1579303047135,824.261812324878
1731015494.691507,805.9780211615456,809.0049451107529,808.2619560490684,824.0481099324888
1731015494.691571,805.0839024728663,807.480964521593,807.6068144777313,823.3625622674892
1731015494.6927514,805.6532680657905,807.5876403461544,808.5457604853945,822.8997159307435
1731015494.6954813,807.1923311746734,809.2420211979396,811.6356585867957,822.714508583854
1731015494.699391,808.8743492673907,811.5635176059204,816.0037793219637,822.5653752886542
1731015494.703301,809.977297457788,813.4759457037942,819.7512204318533,822.3285749193607
1731015494.7067711,810.2159106807741,814.3893898228432,821.20885619649,821.9992189554531
1731015494.7071514,809.8045662884888,814.4290279579652,820.0835060546553,821.3840616619128
1731015494.7072108,809.2467482558824,814.0965223182853,817.5734321696485,819.9914798777917
1731015494.7111208,809.0325086204983,813.7463018991364,815.3877279600558,817.4238111756443
1731015494.715031,809.4534604979659,813.3678459614647,814.5033997072389,813.9993162985013
1731015494.7189407,810.5767637635809,812.8239193086206,814.6524387693238,810.9674951939164
1731015494.7227952,812.270850941833,812.2540335334904,814.8550102138737,809.9224028717904
1731015494.7228506,814.2273011364734,812.1996786780398,814.4279922359898,811.6935010312981
1731015494.7256591,816.0458718294957,813.2528120880298,813.5583045578529,815.5208190961365
1731015494.7267606,817.4010021508686,815.4690259314945,812.9866865942498,819.2200609978435
1731015494.7275202,818.1341153099745,818.0615571077584,813.1668074829922,820.3537907913012
1731015494.7306707,818.1233742210203,819.7316613475658,813.7272396236599,817.6768844506355
1731015494.7345805,817.0696302565815,819.4708182298813,813.7696125344605,811.9001414520383
1731015494.738439,814.5592175473347,817.234073436756,812.7431694524225,805.2814968459373
1731015494.7384906,810.5362487597159,813.9605342705166,811.0645651073727,800.3429842081936
1731015494.7424004,805.7824776663991,810.9585242489252,809.8550773315853,798.5419831565572
1731015494.744547,801.7850128523352,809.1690357164626,809.978823571698,799.6685408137661
1731015494.7463105,799.8573030195026,808.8291257996046,811.2192394717802,802.2246912034102
1731015494.7502203,800.1647361033307,809.6399469455515,812.3210714260134,804.4524658068245
1731015494.7540832,801.5506020300978,811.1418617156161,811.8929726575102,805.3336322560458
1731015494.7541304,802.4077699868474,812.9457591840212,809.4795441572141,804.9439011805416
1731015494.7580402,801.8886903484299,814.7150039878637,805.9919329617954,804.0310668157018
1731015494.7619505,800.4447104196323,816.0496066160944,803.1529700537591,803.2934099382942
1731015494.762289,799.3278675121611,816.4847737113928,802.316062024546,802.9743024697419
1731015494.763435,799.593922034143,815.6855378634216,803.4911401961357,802.9404031786255
1731015494.76586,801.4340733473614,813.725852943932,805.3061589713287,802.9640905621781
1731015494.769727,804.2039012329848,811.2174439071248,805.9677762922329,802.9143487003529
1731015494.76977,806.9328922461092,809.1031284422046,804.528477184241,802.7818913004919
1731015494.77368,808.9160846196593,808.1707207683367,801.5208520577893,802.6150177328328
1731015494.77759,810.1170210992436,808.6150322826237,798.507273722762,802.4564241806893
1731015494.7815,811.2079352149925,809.9923467879645,796.9358803232659,802.3196624620049
1731015494.7823226,813.1298045530799,811.5799610449948,797.2021865850205,802.1972699161738
1731015494.7853713,816.3070230512711,812.7837282086559,798.5785679314498,802.0774065380713
1731015494.78541,820.0470231848706,813.2519306908719,799.9287029052352,801.953744908302
1731015494.7893198,822.7419597880843,812.7464931940849,800.5380912192608,801.8262777825465
1731015494.7932298,822.9440283549561,811.1049842452031,800.4374960930065,801.6977164476419
1731015494.7970576,820.5295606158911,808.4391571426368,800.1342457946396,801.5702440430395
1731015494.7971396,816.8681134086819,805.3110733262046,800.13986706963,801.4444498850632
1731015494.801015,813.7600197978676,802.5570833617488,800.6939127658364,801.3198668336529
1731015494.8010497,812.1655605627465,800.8163383047637,801.7515730982337,801.1958617140796
1731015494.8012106,811.8715532634639,800.1816645146653,803.0542025373533,801.0721213308838
1731015494.8049595,812.1010302494667,800.2704770330395,804.1709617379539,800.9486618401141
1731015494.8088696,812.2352179717572,800.584093349379,804.6015173547994,800.8256285326515
1731015494.8127794,812.0823625127152,800.8094048198205,804.0396739202381,800.703130775948
1731015494.816659,811.7451024733315,800.8805467946565,802.6693496249496,800.5811928286574
1731015494.8166895,811.3855757940186,800.869925662803,801.1876005638497,800.4597804260937
1731015494.8200984,811.0892490690958,800.8611615796686,800.4045375523536,800.3388399243353
1731015494.8205993,810.8549344779916,800.8894777855305,800.6802470461357,800.218323118127
1731015494.8245094,810.644850740375,800.9469713068331,801.6992514289378,800.0982071737482
1731015494.8284194,810.4290722486327,801.0120373298502,802.7983656948983,799.9785204255379
1731015494.8318264,810.1997471885702,801.0706468968201,803.50100269466,799.8593537813618
1731015494.8323028,809.9634228616401,801.1207814355254,803.7552203101427,799.7408098327473
1731015494.8323293,809.7287515165156,801.1668417368566,803.7799013985398,799.6228670977839
1731015494.836239,809.4998908348335,801.2132362539563,803.7994024468867,799.5052382283758
1731015494.8389862,809.2764751915096,801.2616213031346,803.9086457963975,799.3874215009141
1731015494.8401492,809.0564289757272,801.3114348425277,804.0903409592032,799.26913065776
1731015494.8440592,808.8382435795531,801.3615122320704,804.2906591371745,799.150982456722
1731015494.8479466,808.6216010988255,801.411157437413,804.4739917980719,799.0347846562782
1731015494.8479693,808.4068977097196,801.4603108445194,804.6349083268265,798.922475053975
1731015494.8518791,808.1945919440369,801.5092239186025,804.784376667607,798.8134637680095
1731015494.8557887,807.9848849597354,801.5581251633043,804.9335740716829,798.7021239277858
1731015494.8578742,807.777743278426,801.6070910403675,805.0867914573827,798.5792757809191
1731015494.859699,807.5730544064998,801.656085641623,805.2426845127151,798.4408052616732
1731015494.8635907,807.3707421545827,801.7050481643672,805.3983321579939,798.3003552386383
1731015494.8636088,807.1707924975692,801.753946388962,805.5519662888732,798.1930513043152
1731015494.8665953,806.9732250965601,801.8027822124191,805.7034249187848,798.1529790514576
1731015494.867519,806.778059961339,801.8515730177857,805.8533436907954,798.1624147837541
1731015494.8714287,806.5853035412874,801.9003339232457,806.0023102959639,798.1093899641178
1731015494.8753388,806.3949515145259,801.9490710331338,806.1505313011409,797.8270937176766
1731015494.876762,806.20699477523,801.9977836343213,806.2979273917789,797.2687364959321
1731015494.8792346,806.0214196700978,802.046469953642,806.4443532146879,796.7505731846069
1731015494.8792486,805.8382044848926,802.0951328887124,806.5897333588964,797.0223777656648
1731015494.8831587,805.6573222769679,802.143783434483,806.7340772883915,798.902192448582
1731015494.8870685,805.4787580930375,802.192438642135,806.8774329552558,802.5580350439513
1731015494.8909786,805.302533358363,802.241111128486,807.0198431871268,807.0372180940693
1731015494.8948786,805.1287088748848,802.2897931280829,807.161330684138,810.6574736090391
1731015494.8948884,804.9573321342123,802.3384496217099,807.3019046416741,812.109222796694
1731015494.89565,804.7883315447716,802.387041880139,807.4415720415943,811.3437998844588
1731015494.8987985,804.6214414911311,802.4355875878996,807.5803430695638,809.4614732899036
1731015494.9013638,804.4563085893009,802.4842189937668,807.718230197357,807.7524630295798
1731015494.9027083,804.2928652171894,802.5331521707504,807.8552462224784,806.8070734390051
1731015494.9066184,804.1317817976877,802.5824941968127,807.9914061300854,806.4566501422644
1731015494.9105225,803.9744446965284,802.6319534818896,808.1267325459221,806.4334106293352
1731015494.9105282,803.821862530841,802.6807457943652,808.2612580498965,806.9287424711263
1731015494.9144382,803.6726693595807,802.7280922389278,808.3950150490256,808.3865641547463
1731015494.9145377,803.5219297521429,802.7743707981645,808.528011516327,810.7278385030447
1731015494.918348,803.363547246351,802.8221153204233,808.660209929926,812.887390917021
1731015494.922258,803.1975572114013,802.8752101267863,808.7915448745213,813.3272762434342
1731015494.9261663,803.0381884521026,802.9350659736784,808.9220051205232,811.2411469364237
1731015494.9261682,802.9120144939706,802.9953582542846,809.0517462118723,807.4071235088121
1731015494.930078,802.835798026645,803.0411500317339,809.1811101507882,803.8491657182647
1731015494.9334257,802.7794901030854,803.0597399861294,809.310400213743,802.4733908112499
1731015494.933988,802.6490696269655,803.0637840671603,809.4394134072152,803.7403447975025
1731015494.936133,802.3423044461024,803.1117136308048,809.5670887545317,806.4247061789964
1731015494.937898,801.8986952687483,803.2994209169354,809.6919363733583,808.6325708992009
1731015494.941808,801.6677563094644,803.7194528606352,809.8136593772674,809.2539825612396
1731015494.9418104,802.3282091775781,804.4373762786985,809.9351933138773,808.7255949836854
1731015494.9457178,804.636382992973,805.5206738334641,810.0627527971376,808.5686481683379
1731015494.949628,808.9672400072612,807.0278410243823,810.2011756340116,810.1373770425344
1731015494.9523134,814.8680641040717,808.844822397608,810.345099655623,813.5751422767313
1731015494.9535377,820.9031108508166,810.5006886551563,810.4732859082078,817.7187981945453
1731015494.9574478,825.0468765392312,811.2753307034008,810.5585621306457,820.898152761785
1731015494.9574544,825.6412363780732,810.6633750392994,810.5997997959457,821.9321777887155
1731015494.9613576,822.4458951889417,808.8208562617107,810.6591210653232,820.6105709942836
1731015494.9652677,817.0280216363744,806.5461667635893,810.8585790719236,817.4837660924126
1731015494.9691775,812.0854765050802,804.7660294410895,811.2916635058563,813.3514050813144
1731015494.9709015,810.0527102680422,803.9730703936553,811.8784736042728,808.9587693983872
1731015494.9712014,811.833303277824,804.0957000905493,812.312685565688,805.0413967303015
1731015494.9730875,816.3769996306216,804.845278629659,812.2477114254577,802.4136293757665
1731015494.9730985,821.2890015584455,806.1288749453869,811.6351395221703,801.7468966703351
1731015494.9769974,824.118590001491,808.0909917213208,810.9009488594982,803.0842590668339
1731015494.9809074,823.6323778429933,810.7612764212067,810.7565950409742,805.5531972752169
1731015494.9848173,820.3517748867558,813.7058127337018,811.7737052359208,807.6809620745423
1731015494.988727,816.0372468299331,816.0811435192531,814.0120015208865,808.1882680639602
1731015494.988742,812.4931815152497,817.0877211312038,816.8917350284978,806.6715178725614
1731015494.9900892,810.5394952313587,816.438072131425,819.3536767306634,803.6778381277024
1731015494.9926372,809.8143175972068,814.4650385057716,820.2679888164868,800.2270128580099
1731015494.9965472,809.3831364905474,811.8411647552241,818.9636383536312,797.2537521113669
1731015495.000457,808.5481088832073,809.1963539590461,815.6221710728049,795.3438192647698
1731015495.004367,807.2413645753571,806.9358027022987,811.2660337181161,794.7420564789905
1731015495.0043862,805.8551326447806,805.3177557793405,807.29980685349,795.4131242126858
1731015495.00567,804.8271524837338,804.5999792835556,804.8785926053174,797.0766855047164
1731015495.0082767,804.3720040096225,805.0217586693672,804.4740773174746,799.3049694161409
1731015495.0089772,804.4581976670836,806.5817320293914,805.8079826899477,801.6937814794335
1731015495.012187,804.8454866002874,808.8258816237117,808.0666326205935,803.9493388792969
1731015495.0160968,805.0294405967823,810.9266535915519,810.2333044758439,805.7924360497645
1731015495.020007,804.2204789523034,812.1082960201729,811.4380773129983,806.8514187513673
1731015495.02003,801.632891851599,812.1322540695618,811.2511054001437,806.805411639614
1731015495.023917,797.1101607708802,811.4396904659643,809.8033395405167,805.7215788954313
1731015495.0278268,791.6549562234111,810.8174228253897,807.6479883470525,804.1713377099463
1731015495.0278647,787.2731744711622,810.8728586034578,805.4447395807005,802.8809646188364
1731015495.0317369,785.9774493751333,811.7489123024994,803.7019555995045,802.2391203895492
1731015495.035647,788.5288243857102,813.2337401712131,802.7450864036346,802.151773824664
1731015495.035674,793.849823184031,815.0308823961849,802.8286814570782,802.2888867800102
1731015495.0395567,799.6158745675623,816.8695056828363,804.1544012778307,802.3865795149807
1731015495.040439,803.6315746590219,818.4045685215864,806.6909248702046,802.3617312826327
1731015495.0434666,804.9920992763981,819.1398635836523,809.9693961976916,802.2567659018748
1731015495.0467527,804.2413452122374,818.5853726676121,813.1285435679333,802.1402289389264
1731015495.0473766,802.567954517191,816.5885608327045,815.2810658157235,802.0486270536238
1731015495.0512865,800.80807024994,813.5711243920107,815.9730532141856,801.981739298291
1731015495.051318,799.0624656610742,810.4578291004074,815.4091035614206,801.9236452046516
1731015495.0551963,797.1203724463195,808.3119652376797,814.2947815522739,801.8616037057266
1731015495.0591063,795.1829648221064,807.8764842386337,813.4186812520727,801.7921914023309
1731015495.0630164,794.16834822766,809.2514261885661,813.2352040980242,801.7181224801672
1731015495.0656407,795.264727167983,811.8510355358536,813.663615438864,801.6430482143415
1731015495.0669262,799.0207227965271,814.6514617236253,814.1847449732054,801.5687367585124
1731015495.066962,804.6592486341632,816.6149002561257,814.1803806999225,801.4950379118998
1731015495.0708363,810.2225464323844,817.103797692495,813.3381143417986,801.4210668265985
1731015495.074746,813.6337014493937,816.1133679481427,811.8671253308423,801.3461720376062
1731015495.0752077,814.0732002381388,814.2405216541683,810.3459581541654,801.2702061133466
1731015495.0786562,812.6714505495257,812.4148932250191,809.3033988135147,801.1933277164966
1731015495.082566,811.8125161801398,811.4912804791377,808.8904087813899,801.1157260134711
1731015495.0826058,813.3126077833805,811.8418559189215,808.8997247502124,801.0374834242591
1731015495.0845287,816.7526163592872,813.1166306292915,809.0249149686117,800.958582505498
1731015495.086476,819.4042868571235,814.3384410660448,809.0769732912339,800.8789695705384
1731015495.090386,818.0906627854627,814.3816698784874,809.0252504550725,800.7986037637664
1731015495.094296,811.671029257662,812.634460715142,808.922993829635,800.7174728822127
1731015495.0982058,802.1187122095567,809.4301586288703,808.8251618691808,800.6355899729155
1731015495.09825,793.2415758484015,805.9030871612753,808.7527578896021,800.5529845510425
1731015495.102116,788.1173989169604,803.3132844007355,808.6989527730491,800.4696868848466
1731015495.1034164,787.3474137766026,802.2964944074181,808.6491840999591,800.3856984243205
1731015495.1060257,789.3146487021222,802.5602793794602,808.5946521549266,800.3009595065938
1731015495.1099358,791.8213298745634,803.2030139323707,808.5345281103055,800.2153556644136
1731015495.1099763,793.5662826038188,803.3806571721643,808.4719251805872,800.1288087466063
1731015495.1138458,794.505160486966,802.8416611989464,808.4097045350876,800.0414371111189
1731015495.1138935,795.2792095277946,802.0000551234914,808.3488302942184,799.9536452414235
1731015495.1177557,796.4560864991653,801.5607408628616,808.2888479891146,799.8659183552395
1731015495.1216657,798.0974025581288,802.0025511922065,808.2289767961142,799.7782281228164
1731015495.1223044,799.7309573667613,803.2884641073597,808.1687829282191,799.6893968472967
1731015495.1255755,800.6263365829112,804.9766677696387,808.1082517397317,799.5972892436924
1731015495.1294856,800.2689061764198,806.5892211463214,808.0475558219646,799.5006511743248
1731015495.1295376,798.8292862536864,807.907028475613,807.9868375468089,799.4021075933673
1731015495.1333954,797.2732499130383,808.9658291789541,807.9261352926003,799.3095002119326
1731015495.1373055,796.8649039488105,809.8247556957817,807.8654200261386,799.2314203770326
1731015495.1411922,798.2880756083051,810.3756215840809,807.8046574403662,799.1657384171461
1731015495.141215,801.0648586358677,810.3825363505575,807.743838278977,799.0885376527137
1731015495.144745,803.855195941657,809.7018583264198,807.6829663352453,798.9601498319315
1731015495.1451254,805.5114443283112,808.4767312477288,807.6220268373623,798.7624298322614
1731015495.1451817,806.0275103293951,807.139349055893,807.560972042617,798.5552185324498
1731015495.1490352,806.502646344327,806.2066266583419,807.499755017144,798.4975057884624
1731015495.1529453,808.0747329433976,805.9913498357744,807.4384088744484,798.7622793094349
1731015495.156855,810.7614419662912,806.4073461733874,807.3771079784369,799.3480460703769
1731015495.1600802,813.3180869039304,807.011630278883,807.3160988390263,799.9574822652148
1731015495.1607652,814.314934551624,807.297992548769,807.2554325144406,800.1881807370727
1731015495.1608255,813.4611335402358,807.0734748999342,807.1946273545733,800.012560145155
1731015495.164675,811.9153235422094,806.6320757651536,807.1326606737034,800.0799385431475
1731015495.1685853,811.2540946289483,806.5336307149612,807.068737037751,801.3685997088804
1731015495.172495,812.0293678318512,807.1049292253713,807.0037455965172,804.3553312586439
1731015495.176405,813.214939536579,808.0722928884983,806.9412015435972,808.4668966612122
1731015495.1764696,813.0122350845245,808.7002564145108,806.8856187124164,812.3931261756427
1731015495.178968,810.3030011968262,808.3961559852672,806.8372711257908,815.0433061189668
1731015495.179514,805.5631361552114,807.285801497533,806.7861670846793,816.3365368459692
1731015495.1803148,800.5696965782416,806.2201625633535,806.71294641868,817.1579304181952
1731015495.1842248,797.1906143485704,806.1398038886522,806.6045660314002,818.4964870761557
1731015495.188135,796.1933124131536,807.3084377474357,806.4815448563493,820.4369210055812
1731015495.1920447,796.9316803819687,809.0761855695425,806.4123608234584,821.8346318604243
1731015495.1921134,798.0680969183153,810.3739119987829,806.4766108179971,821.0299544736771
1731015495.1959546,798.6931097831665,810.4936899946116,806.6612374041919,817.1443726512273
1731015495.197856,798.944945613602,809.4980857693284,806.7479415291328,810.95861135687
1731015495.1998646,799.6973139899417,808.0000788632401,806.3316171001329,804.6125987335572
1731015495.2037745,801.6505967292836,806.6270638727414,805.0794696189434,800.2885078689152
1731015495.2076845,804.5974860011486,805.6707684086955,803.1109229207842,798.8872525955175
1731015495.2077577,807.4554245756098,805.1305484016087,801.1304675382177,799.7176489149989
1731015495.2115946,809.0586241252781,804.9543043075845,800.0539390249658,801.3489035246182
1731015495.2142825,809.1129095357084,805.1602440973064,800.3473132986059,802.8042937167294
1731015495.2155044,808.5390640451008,805.7255416544667,801.641678927123,804.0657327367059
1731015495.2167437,808.8371150639904,806.3989197486525,803.0006469786267,805.5682157972068
1731015495.2194145,810.8696201193279,806.679250408445,803.654618172693,807.3063949993577
1731015495.2233243,814.004886983397,806.0541555080457,803.5830429241682,808.4885246997568
1731015495.2234013,816.3664757251339,804.3542332179106,803.4268875782176,808.1000345235062
1731015495.2272344,816.0791560555228,801.9459738998623,803.8011956083532,805.8408607895005
1731015495.2311442,812.5890441906357,799.5751247032458,804.6352202495194,802.5255159078191
1731015495.2350545,807.0820165657408,797.9379588356095,805.1644073188799,799.5438624514311
1731015495.2356317,801.7616703203443,797.2962561841546,804.6146639395695,797.8875225290021
1731015495.238964,798.5999443945994,797.4253524372702,802.9846708427302,797.6216371307225
1731015495.2390451,798.4286103124655,797.8830552463085,801.2250186026693,798.1418460794921
1731015495.242874,800.8037939794796,798.3236087806002,800.6246737100787,798.7854972160684
1731015495.246784,804.4587965610083,798.624938008971,801.8846332598494,799.2192733608973
1731015495.249051,807.9017613426079,798.8263965748918,804.6030007938491,799.4402957347129
1731015495.250694,809.8885281231262,799.0085611196821,807.5295076286445,799.5832203248044
1731015495.2545197,809.7647501647431,799.2182179689538,809.3307391191646,799.7556423301656
1731015495.254604,807.7065461105655,799.458017980622,809.2861403419247,799.9856405995765
1731015495.2546892,804.7340476439718,799.7098623224225,807.5182974099954,800.2493648310691
1731015495.258514,802.3262854574267,799.9580024829779,804.7750694570459,800.5154862140605
1731015495.2624238,801.7017118650355,800.1975279401859,802.029464898099,800.7690235368177
1731015495.2663338,803.153014979399,800.4312515640053,800.1313870707241,801.0113849784877
1731015495.2702436,805.8758509972869,800.6635482808665,799.5993118553874,801.2501502879858
1731015495.2703333,808.4045825999984,800.8967320528074,800.5446812099212,801.4908241831436
1731015495.2734072,809.3573028806214,801.1307870452589,802.698530504807,801.7345887107822
1731015495.2741537,808.0566870627611,801.3647083060332,805.5160460294107,801.9800381935011
1731015495.2780635,804.7750472072698,801.5976965360508,808.3418661360098,802.2255418112622
1731015495.2819736,800.6047012380684,801.8295436272714,810.6055772312401,802.4703995639804
1731015495.2838202,797.071858691991,802.0604294217828,811.9807006700373,802.7147570684706
1731015495.2858834,795.6096387950118,802.2905922224852,812.4275180920644,802.9590399771614
1731015495.2859771,797.0084640799594,802.520150715918,812.0978802668785,803.2035356166739
1731015495.2897935,801.02214087468,802.7491022609807,811.1792598078065,803.4483001792755
1731015495.2922952,806.3545171939581,802.9773985460569,809.8042855718928,803.6932647455861
1731015495.2937033,811.1633765328123,803.2050081097702,808.0948246975893,803.9383602029744
1731015495.2976134,813.9465132861975,803.4319346528883,806.2866075399821,804.1835695075589
1731015495.3015232,814.3507456445999,803.6582037923172,804.7960762070962,804.4289116976133
1731015495.301621,813.3539653151314,803.8838412676155,804.1255686393642,804.6744047221619
1731015495.3054333,812.6136212396613,804.1088575725825,804.6342135417831,804.9200490933691
1731015495.309343,813.3783531720077,804.3332459396064,806.3159046461099,805.1658475311887
1731015495.311183,815.7152351932341,804.5569973524325,808.7254760812173,805.4118437162513
1731015495.3132532,818.5509584182345,804.7801299742948,811.0969806506591,805.6581356886676
1731015495.3171632,820.380271902362,805.0027138998036,812.6004055401123,805.904815433267
1731015495.317265,820.0715679761996,805.2248541636451,812.6431201997768,806.1518340903257
1731015495.3185887,817.3317585707896,805.4466034803156,811.1163317353838,806.3988957413054
1731015495.3210733,812.7897550384455,805.6678378692288,808.484289929142,806.6455725390018
1731015495.3249831,807.8264513724578,805.8882254128467,805.6427598670233,806.8917653689134
1731015495.3288927,804.1566329562628,806.1074562392166,803.5723328289815,807.1382968706769
1731015495.330071,803.1324664360844,806.3257457829586,802.9403391608403,807.3869497061074
1731015495.332803,805.0092075291785,806.5442424895319,803.8528360677175,807.6391588340387
1731015495.3329089,808.6862227564309,806.7646207502883,805.8695486817948,807.8934737845267
1731015495.3367128,812.2548567283551,806.9873700045855,808.2395852349738,808.143848524988
1731015495.340623,814.0743515915015,807.2095372727205,810.2138410250029,808.3823423910217
1731015495.3445327,813.626609006679,807.424478961692,811.2943072719817,808.6081559331151
1731015495.3484428,811.5674503620277,807.6266459292756,811.3546884288172,808.8382662259576
1731015495.3485527,809.0546851808043,807.8211160380414,810.6396743543562,809.1063121398696
1731015495.3489587,806.9600559171772,808.0302944425082,809.6721792889282,809.4357302040164
1731015495.3523526,805.5199100458814,808.2842226636328,809.0768359081493,809.7919341954383
1731015495.3533576,804.5089571739821,808.5866508221998,809.3274802441348,810.0549427826468
1731015495.3562627,803.6291116401247,808.873458868646,810.4932598790332,810.07840936603
1731015495.3601725,802.7799326383758,809.0119245791652,812.1391314085402,809.8608991555398
1731015495.3640826,802.10482346288,808.8905630139639,813.5105215399094,809.7202257104316
1731015495.3641968,801.9094801316531,808.572090946134,813.9574932032332,810.2255660531292
1731015495.3678467,802.5706843964535,808.3521443171047,813.3524273542432,811.7587848714458
1731015495.3679924,804.4391464418709,808.567002955506,812.2076794984034,814.0131963173734
1731015495.3719025,807.6552140137045,809.2550303021582,811.374103843684,815.9964064412112
1731015495.3758123,811.8831084915847,810.0214777279914,811.4928592750194,816.6830457275673
1731015495.3797224,816.1768167878698,810.2905074877865,812.5735328405884,815.7566930952303
1731015495.3798406,819.2504466940394,809.7092345943487,814.0060081534385,813.7541375138703
1731015495.3836322,820.1386633576489,808.329447096076,814.9919027472944,811.5320254576703
1731015495.3867345,818.8043562951442,806.4736063707217,815.0507423284965,809.6136739712007
1731015495.3875422,816.1656700604073,804.5136050630972,814.2155961759153,807.994582337093
1731015495.388126,813.4708173618916,802.7978978058396,812.8323533437969,806.4679494230668
1731015495.391452,811.5409535619335,801.7099091970651,811.2337103621105,805.061676638793
1731015495.395362,810.5145936432591,801.6538180219753,809.6276408728351,804.1670669759958
1731015495.3954847,810.2222045961537,802.8497953208697,808.2609056843324,804.2817587112402
1731015495.399272,810.7084496316901,805.0759155823579,807.5828902608874,805.6096772742638
1731015495.403182,812.3220042344652,807.6407216670126,808.1008064646036,807.8239427649526
1731015495.4056225,815.2787316486036,809.7188160537875,809.9436052175813,810.143584377366
1731015495.407092,819.1499732251156,810.827136642376,812.5203137229972,811.6680571919828
1731015495.411002,822.8070045284096,811.0385509478605,814.6763362188881,811.783283198681
1731015495.4111283,824.9504807229695,810.7809578955977,815.3532266258968,810.4382239028035
1731015495.414912,824.8706814734942,810.470203858168,814.2929175430144,808.1637355171296
1731015495.4188218,822.8910597350465,810.2984959415764,812.233800089546,805.8184118412942
1731015495.422732,820.1447839826219,810.2552768645063,810.4294688470004,804.1716783867025
1731015495.422895,817.7923746848488,810.2538162650443,809.8501878168563,803.5405251229133
1731015495.4245102,816.2178374745139,810.2302680595716,810.6416992827769,803.6992103360877
1731015495.4266417,814.8008449576103,810.17098981906,812.1575694495933,804.1114382263332
1731015495.4267726,812.4422480596477,810.0926046109402,813.4277654425362,804.2869056628973
1731015495.4305518,808.4360392988362,810.0144187934209,813.6888788695377,803.9787599337328
1731015495.4344616,803.0416389076063,809.9448568384763,812.7087991802886,803.1300091632735
1731015495.4383717,797.409207018279,809.8824191857632,810.8624002327771,801.7440185427387
1731015495.4422815,793.0212449569879,809.822291159754,808.995679928778,799.8846324640921
1731015495.4424164,791.0560240050195,809.761253723591,808.0753812939063,797.7746324916609
1731015495.4433982,791.9423542879996,809.6987966782698,808.6776270700187,795.7735355642362
1731015495.4461915,795.1696577631227,809.6359042576752,810.5765092716026,794.1475225915887
1731015495.4501014,799.3954573225477,809.5735991340941,812.7921665593595,792.8485142816002
1731015495.4540114,802.9185382262632,809.5122923520847,814.1868948182994,791.5863844225571
1731015495.4576638,804.41453353658,809.4518858517844,814.2106277239724,790.1682587705079
1731015495.4579213,803.5539428543262,809.3921344079628,813.1957704239284,788.7510938104142
1731015495.4580605,801.0902365224041,809.3328929142436,811.9686038571604,787.7382396602098
1731015495.461831,798.3415727510094,809.2741598678471,811.1546648187824,787.4727366044142
1731015495.462286,796.4191442361802,809.2160060790245,810.7967960673369,788.114106501257
1731015495.4657412,795.7162729321458,809.1584985855409,810.55098994299,789.8193750558071
1731015495.4696512,795.9388352084383,809.1016700408085,810.162954677981,792.9055144044743
1731015495.473561,796.5253567497865,809.045526769305,809.7169269312541,797.6225116102512
1731015495.4737043,797.0592028658284,808.9900684035532,809.4504284932017,803.6263412021614
1731015495.477471,797.4106431826737,808.9353002244089,809.3930747618298,809.7008503776111
1731015495.481174,797.6427261842322,808.8812346499029,809.238628739832,814.1779221968897
1731015495.4813807,797.8581946997701,808.8278871254038,808.5754589143187,815.8699245416827
1731015495.485291,798.1114287279158,808.7752721714467,807.214638082337,814.7748633080403
1731015495.4892008,798.4016422885336,808.7234019652683,805.2875947318984,811.941995749516
1731015495.4893482,798.7046978292151,808.6722868945133,803.08559108451,808.6392822872709
1731015495.4924324,799.0014592817494,808.621936609799,800.9065343808413,805.616250546365
1731015495.493111,799.2868824804959,808.5723606314856,799.0994292421842,803.11066546288
1731015495.497021,799.5651268933123,808.5235683834688,798.1512807336791,801.4161070482512
1731015495.5000618,799.841707104386,808.4755689576446,798.5109565494504,801.1921714705065
1731015495.5009308,800.1192739035699,808.4283709081374,800.1495903318155,802.9836054765065
1731015495.5048409,800.397590939059,808.3819821855362,802.2935258052142,806.3538112257143
1731015495.5049922,800.6753291259445,808.3364101713194,803.7591032158032,809.6179309516466
1731015495.508751,800.9515211234126,808.2916617330219,803.7595690933167,810.7087718751043
1731015495.5126607,801.2259608779681,808.2477432533005,802.5152717021094,808.631478607468
1731015495.5165706,801.4989000351419,808.2046606293253,801.10352107782,804.3266295880726
1731015495.5189495,801.7706317486239,808.1624192597557,800.6634875246701,800.1964282178486
1731015495.5204806,802.0412861181194,808.1210240347158,801.6269659986061,798.6397498141695
1731015495.520636,802.310844541779,808.0804793337593,803.5501766093734,800.6857590768731
1731015495.5243905,802.5792395070526,808.0407890292047,805.5557870019765,805.6092280770964
1731015495.5272012,802.8464290327872,808.0019564905829,806.9429968490575,811.5636561246152
1731015495.5283003,803.1124135109975,807.9639845878893,807.5203696500057,816.5952201713036
1731015495.5322104,803.3772162654926,807.9268756936056,807.5300264943268,819.3910148972293
1731015495.5361204,803.6408592378418,807.8906316844502,807.3453191626473,819.5542171015578
1731015495.5362802,803.903351439582,807.8552539436382,807.2170877933853,817.5441620170477
1731015495.5378375,804.1646928065145,807.8207433638602,807.2079247360792,814.419023132394
1731015495.5400302,804.4248880964127,807.7871003508089,807.2672689815296,811.3905928834315
1731015495.5439403,804.6839610649231,807.7543248270213,807.3297455101338,809.2599209089805
1731015495.54785,804.941955038827,807.7224162359119,807.365181947078,808.0271276299528
1731015495.5517602,805.1989073694056,807.6913735460002,807.3776209506856,807.0125713146128
1731015495.551924,805.4548026434541,807.6611952553758,807.3833577522299,805.4764917720913
1731015495.55567,805.7095436813026,807.631879396432,807.3937926225848,803.2555461393093
1731015495.5567255,805.9630043999133,807.6034235408717,807.4111022054075,800.8719458205894
1731015495.55958,806.215195289658,807.5758248049644,807.4321367619438,799.0579146609377
1731015495.56197,806.4664502534454,807.5490798550385,807.4534216802106,798.1827688459753
1731015495.56349,806.7173919022883,807.5231849131968,807.4735097205092,798.0836457067899
1731015495.5674,806.9684322020006,807.4981357632503,807.4927251753724,798.3273955987141
1731015495.567568,807.2189181192683,807.4739277568656,807.5119469952598,798.55738413283
1731015495.5713098,807.4666932793108,807.4505558199168,807.5317392213645,798.6430837577536
1731015495.57522,807.7092646694434,807.4280144590246,807.5521740453856,798.6230844553896
1731015495.5756133,807.9470076293696,807.4062977682776,807.5730631383046,798.5814269258503
1731015495.5791297,808.1864544381771,807.3853994361384,807.5942199217153,798.5681611358278
1731015495.5830398,808.4389984364446,807.3653127525661,807.6155712628344,798.5871258149849
1731015495.583212,808.7108210456212,807.3460306163729,807.6371346565769,798.6197934379479
1731015495.5869496,808.9870569224255,807.3275455427888,807.6589518469501,798.6495672621646
1731015495.5908597,809.2256201170106,807.3098496711157,807.6810451992327,798.6710421359825
1731015495.5945013,809.3826268759124,807.2929347723183,807.7034111097006,798.6870000032474
1731015495.5947697,809.4748185988828,807.276792256522,807.7260334513777,798.7020056053544
1731015495.5967386,809.6386964730164,807.261413180714,807.7488972289419,798.7185407890562
1731015495.5986795,810.1002670492882,807.246788257269,807.7719937899823,798.7366448535994
1731015495.598856,810.9937990286712,807.2329078637571,807.7953191492378,798.7552864897351
1731015495.6025896,812.1092916126246,807.2197620534472,807.8188703980768,798.7736227849791
1731015495.6064994,812.8026445932084,807.2073405643328,807.8426435327742,798.7914229915075
1731015495.6104095,812.2574007572949,807.1956328239643,807.8666332478766,798.8088683068712
1731015495.613389,810.0081256728246,807.1846279500635,807.8908337015782,798.8262082167921
1731015495.614319,806.3657130729403,807.1743147531696,807.9152392188832,798.8435697334959
1731015495.6144998,802.3802053737071,807.1646817530913,807.9398445268617,798.860951989418
1731015495.6182294,799.286213771406,807.155717216657,807.9646446399616,798.8783051237775
1731015495.6221392,797.7994862303848,807.1474092034006,807.989634664713,798.8955974059709
1731015495.6260493,797.7949541300059,807.1397455767273,808.0148096899383,798.9128348902495
1731015495.629959,798.578479238549,807.1327139321194,808.0401647804275,798.9300444807564
1731015495.6301436,799.440728653711,807.1263014504424,808.0656950171388,798.9472456273759
1731015495.6315074,799.9931758282962,807.1204948041325,808.09139553037,798.9644322429841
1731015495.632277,800.1119552015206,807.1152803368276,808.1172615072753,798.981579956441
1731015495.6338692,799.7540286357267,807.1106446322254,808.143288181746,798.99868377028
1731015495.637779,798.9683624935309,807.1065751758656,808.1694708211269,799.0158078451926
1731015495.6416893,798.0815550855302,807.1030602855309,808.1958047179714,799.0330957353068
1731015495.645599,797.7286297997899,807.100087455827,808.2222851872245,799.050679090666
1731015495.6457877,798.5070021623867,807.097640434488,808.2489075656302,799.068485176522
1731015495.649509,800.4612070209263,807.0956976129941,808.2756672106254,799.0860883406424
1731015495.6511648,802.8846018758435,807.094235829501,808.3025594978909,799.1028782693728
1731015495.6534188,804.7067612436613,807.0932412504952,808.3295798180569,799.1187197377985
1731015495.6573288,805.2000883733385,807.0927209179662,808.356723573305,799.1347965863961
1731015495.661239,804.4288035182167,807.0926990742144,808.3839861742563,799.1536576653318
1731015495.6614316,803.1045120981992,807.0931834293534,808.4113630371911,799.1773396007198
1731015495.6651487,802.0501665493946,807.0941105517345,808.438849581559,799.2037442626957
1731015495.6662762,801.7554676482803,807.0953220883868,808.4664412277812,799.2242218602181
1731015495.6690586,802.2951639797799,807.0966472965472,808.49413339526,799.2274727348595
1731015495.6700523,803.4826417600895,807.0981129520555,808.5219215002187,799.2124790868955
1731015495.6729686,804.9907859772559,807.1001444783325,808.5498009527652,799.2036505272388
1731015495.6768785,806.3684279843219,807.1034542871688,808.5777671529535,799.2491160503303
1731015495.6770756,807.0978397303286,807.1083647450556,808.6058154868896,799.38232816722
1731015495.6807885,806.7928905275148,807.1138000028083,808.6339413254237,799.5542493386735
1731015495.6846983,805.4163014898558,807.1169730440436,808.6621400277628,799.5960526400718
1731015495.6886084,803.3140967337926,807.1151452371394,808.6904069484675,799.3081915524712
1731015495.6889403,801.0403649704547,807.1096501161525,808.7187374395197,798.7175447503996
1731015495.6925185,799.1389185115964,807.1093365982402,808.7471268354682,798.3627139286074
1731015495.6927197,798.0170401115835,807.1276590788675,808.7755704185519,799.2637107189802
1731015495.6964283,797.8865257588548,807.169225951992,808.804063385898,802.3048728584968
1731015495.7003384,798.7183221704838,807.211404992917,808.8326008674172,807.3268064109553
1731015495.7010448,800.2627769355531,807.2012541999638,808.8611780340445,812.8180767961387
1731015495.7042482,802.1910442373629,807.092833078341,808.8897902574812,816.7868596901164
1731015495.7078283,804.2597948819551,806.9250321984638,808.918433156446,818.2259088820108
1731015495.7081585,806.3380426617415,806.8830243266317,808.9471023108175,817.8815599462034
1731015495.7083635,808.3068340576291,807.2399540048989,808.9757926181029,817.6184904994661
1731015495.712068,810.0183665324931,808.1283723944833,809.0044977529793,818.8916801618559
1731015495.715978,811.4026057449541,809.2816035773927,809.0332106523106,821.5635105329097
1731015495.719888,812.5589433863822,810.0357309580656,809.0619256812096,823.9943345988665
1731015495.723798,813.6430275752894,809.7184484828407,809.0906415619451,824.3015545487494
1731015495.7240074,814.6273972627039,808.1562596135518,809.1193618208391,821.7775718880883
1731015495.7267165,815.2200790516239,805.8598287315527,809.1480888123099,817.3922033698425
1731015495.727708,815.0786685393343,803.7110990472121,809.176811488747,813.0792211440569
1731015495.731618,814.1342544792171,802.3989443605125,809.205496400666,810.4441486255172
1731015495.7355278,812.7228820178838,802.0453451174751,809.23409929756,809.8820383447243
1731015495.7358136,811.4121748062944,802.2801761537604,809.2626077955878,810.649439125906
1731015495.7394378,810.6700035287084,802.6272729045513,809.2910943006574,811.6391503505603
1731015495.7396512,810.6176687520801,802.8224995950669,809.3197158605318,812.1363808969204
1731015495.7433476,811.0214161193442,802.8272019325926,809.3485907642167,812.0213311528548
1731015495.745604,811.5008998674906,802.6556628890769,809.3775677801541,811.4656891250373
1731015495.7472577,811.7825964336786,802.2968654061076,809.4060810750882,810.5838784489675
1731015495.7511675,811.8138668742207,801.8171357289158,809.4334153761757,809.4084875987917
1731015495.7550776,811.6979819141961,801.4574327828446,809.459540105797,808.1307831988341
1731015495.7552953,811.5602351975579,801.5375835526996,809.4860546394435,807.2374334534616
1731015495.7589874,811.465026940621,802.2265266419294,809.5160178598633,807.2771192553677
1731015495.7628975,811.4129287759702,803.4009323801223,809.5514293809191,808.3843265281349
1731015495.764492,811.3775668692365,804.7123482868622,809.5889076349632,809.9793033922982
1731015495.7668073,811.3377464515374,805.7851280621413,809.6174519493493,810.9655249132052
1731015495.7705824,811.2878396309491,806.4085201437485,809.6242949896108,810.3433671792878
1731015495.7707174,811.2324634686769,806.6562649637804,809.6110350983589,807.8180341008735
1731015495.770939,811.1777712072151,806.9018354474505,809.6101261210592,803.9930162501056
1731015495.7746272,811.1267423645083,807.6666291264132,809.6778968525643,800.0614922589014
1731015495.7785373,811.0791387982988,809.281103743166,809.8420953427044,797.2384176085276
1731015495.782447,811.0334951417228,811.5183099957861,810.0167562492209,796.2645587907011
1731015495.7833798,810.9887403772346,813.5117445748299,809.9551659524261,797.1592355986752
1731015495.7863572,810.9446477293792,814.1683560515739,809.3301976059196,799.2067755599488
1731015495.7865832,810.9014998447633,812.9205459927091,807.9399739374115,801.1275617009992
1731015495.7902672,810.859625993652,810.3017281887011,805.8973604317521,801.4827362440509
1731015495.7941773,810.8191736830862,807.8275388461954,803.6525783343152,799.360433310569
1731015495.7980871,810.7801239762337,807.120903291115,801.8433713873636,795.1337012353237
1731015495.8019967,810.742401880555,808.8243030945727,801.08481173806,790.7449171473305
1731015495.802227,810.7059578441166,812.0839474873405,801.7957884147087,788.9783091609839
1731015495.8022678,810.6707847049648,815.0205329966517,804.0785713042284,791.7810054757483
1731015495.805351,810.6368958614703,815.8948031434822,807.6268990954153,798.6039940024868
1731015495.805907,810.6043023902663,814.1801056479547,811.6902227576566,806.174322866224
1731015495.8098168,810.5730087459755,810.8212506803479,815.1997393915151,810.3575206195026
1731015495.813727,810.5430234115288,807.5239009272118,817.1153944390394,809.0468840212183
1731015495.8176367,810.5143663132362,805.5895265955526,816.8654630241713,803.7784644564216
1731015495.817871,810.487054635761,805.1180966021967,814.6177339559157,798.5156867829481
1731015495.8211555,810.4610660451357,805.110761379584,811.2086385793759,796.4789849220404
1731015495.8215468,810.4363099036678,804.3306011281489,807.77688959653,797.7565958193765
1731015495.8254566,810.4126616122771,802.2431460864284,805.2957980304536,799.7594385600431
1731015495.8293667,810.3900930239494,799.3629165607423,804.2083302047855,799.9369551718886
1731015495.8332765,810.3688349394456,796.8342646334522,804.3130396392045,798.1397695948327
1731015495.8335147,810.3493769226027,795.6455141195892,804.95686289389,796.5201358986569
1731015495.8371866,810.332088822956,796.0706546473989,805.4383417604166,797.2703753721472
1731015495.8400435,810.3165128017337,797.6549565930367,805.3779122147472,800.4336635279707
1731015495.8401198,810.3009183445587,799.6079624607004,804.8214311333539,803.770769483527
1731015495.8410964,810.2831161630639,801.229773767666,804.0491243165303,804.6820581951022
1731015495.8450065,810.2630178101883,802.1053961057211,803.2947364755721,802.3935574270382
1731015495.8489163,810.2455359813071,802.0728292768481,802.6206547682455,798.544531475231
1731015495.849159,810.240061847093,801.139175098188,802.0121431971477,795.832916465383
1731015495.8528264,810.2527403717052,799.4772989687932,801.537754031679,796.0087958334991
1731015495.8567362,810.2732248411538,797.4754445708376,801.3867630843779,798.8551435842813
1731015495.8589313,810.2678591279097,795.7121070287812,801.7531800356202,802.7537615559555
1731015495.8606462,810.1977779602661,794.792225599205,802.6994776627839,806.1076191630723
1731015495.864556,810.0688297613701,795.1335483173146,804.1263362524074,808.4088250877129
1731015495.8648028,809.9834622630092,796.8473490479713,805.8337271069714,810.2750899200107
1731015495.868466,810.123283748836,799.7392329271768,807.57070376887,812.65342124705
1731015495.872376,810.6004112358949,803.3226770655011,809.0371826252558,815.8964365516462
1731015495.874889,811.2341669136479,806.7979201336549,809.9198117057732,819.3492146114286
1731015495.876286,811.490562384046,809.1491372338364,810.0450904740067,821.6706751210808
1731015495.8778193,810.8180989894526,809.5452674146586,809.5815109128338,821.665803169686
1731015495.880196,809.232345962878,807.9269319600128,809.076391288427,819.1201821850412
1731015495.880447,807.5771330111206,805.301474407589,809.1765391234369,815.1057674501768
1731015495.884106,807.037054538146,803.326554092976,810.1707011494135,811.5097566679532
1731015495.888016,808.1918798915892,803.3277944994284,811.7359365606779,810.0283979316526
1731015495.8919258,810.4328078346504,805.4542862621862,813.1513186445853,811.2534160223105
1731015495.895836,812.301920828624,808.6255830858346,813.807113348199,814.4282379931396
1731015495.8960907,812.5103788322878,811.2727616990377,813.5476091767156,817.9678129521632
1731015495.8967073,810.8185675411186,812.2645110401492,812.5908879168381,820.3241392146739
1731015495.8997457,808.1158771574004,811.3938717277308,811.2297846014753,820.6511696395343
1731015495.9036558,805.7043526051922,809.2752627351244,809.6855495853997,818.9947074276596
1731015495.9075656,804.378271865572,806.9232959051684,808.2038421255536,816.0825765038061
1731015495.9096572,803.9862832215558,805.3287006264155,807.1547319843464,812.9292205344616
1731015495.9114757,803.7514479176695,805.1539023400654,806.9216733373673,810.4097507319314
1731015495.9117346,803.0256989360144,806.5403478914259,807.6501354033791,808.9273148167508
1731015495.9153855,801.827343855775,809.047724267294,809.0982677329541,808.3398573514073
1731015495.9155953,800.7361646254839,811.8017951939454,810.727742111456,808.1997836693502
1731015495.9192955,800.3144332600531,813.8668372874135,811.9692840125387,808.1005452854389
1731015495.9232054,800.6304665510595,814.687593585236,812.5008802011007,807.8631009499284
1731015495.9271154,801.2953077938938,814.3231702308063,812.3925110978422,807.50370419725
1731015495.927379,801.8784272933725,813.284815347669,812.0236148686611,807.1077167797047
1731015495.9310253,802.222535508058,812.0787168454225,811.7838258584854,806.7353380320652
1731015495.9344828,802.3605267127858,810.8158054235819,811.738986040917,806.3978307984789
1731015495.934935,802.1969673777043,809.2263253035309,811.5400866717736,806.0782125220655
1731015495.9388452,801.352797717976,807.0830990467915,810.7033160716011,805.7579055261036
1731015495.9427552,799.3953272346525,804.6645000208247,809.0759342772142,805.4292237445608
1731015495.9430225,796.3169051804022,802.8162573617811,807.1232587915612,805.0939457792817
1731015495.944426,792.8877439652946,802.4931313514859,805.7938362064789,804.7567914558095
1731015495.946665,790.5144461052578,804.1111988107657,806.0083765347587,804.4207814386111
1731015495.950575,790.5026705925817,807.2158261445402,808.048364015114,804.0863050036597
1731015495.9533708,793.0951338522085,810.7077995656433,811.2012254750797,803.7523638966585
1731015495.9544847,797.0326707428877,813.422125493946,813.9404451575788,803.4179739824161
1731015495.958395,800.1897635038457,814.6382616691695,814.6543849264419,803.0827584165518
1731015495.9586666,800.9887443267095,814.2635982189668,812.5572002801816,802.746822393036
1731015495.9623048,799.49904917673,812.7230003068222,808.194258304965,802.4103979629114
1731015495.966215,797.2701207423056,810.7043251291966,803.161959884947,802.0736137632822
1731015495.9701247,796.0443884512276,808.8597094135072,799.2126669551536,801.7364643158605
1731015495.9722586,796.4996474926198,807.5489035253482,797.3607597795632,801.3988838411606
1731015495.9740348,798.0478129151456,806.7638129303014,797.5545000843932,801.060813406065
1731015495.9743104,799.6299652293736,806.3115964201703,798.9963818048767,800.7222140702563
1731015495.9779449,800.5934459686986,806.110606060711,800.7356408817514,800.3830441584873
1731015495.9791949,800.9391951427054,806.3141354738092,802.0989026675703,800.0432483592926
1731015495.981855,801.0125926713688,807.1412749412845,802.8145846362283,799.7027935195777
1731015495.9857647,801.1189667645973,808.6127346950966,802.9555134056152,799.3617369906624
1731015495.9896746,801.3646497307317,810.4871567729015,802.827702752361,799.0202505739755
1731015495.9899545,801.7069184162532,812.4451754925947,802.7987869620324,798.6784999877138
1731015495.9911466,802.0666179784756,814.280055711905,803.0604501594273,798.3363672355147
1731015495.9935846,802.3986916080297,815.880935996982,803.473868452072,797.9932168994728
1731015495.9974945,802.7009816582114,817.0830513720906,803.6871650391513,797.6481074264725
1731015496.0014043,802.9911400961424,817.6242384062377,803.4830791237341,797.3007305357477
1731015496.0053144,803.2843045017564,817.2910684909295,803.0447611285923,796.9526776908012
1731015496.0055983,803.5850667710212,816.0926253442603,802.8640265867202,796.607625396488
1731015496.0092244,803.890608210718,814.2800495870387,803.3541414441618,796.2687354982718
1731015496.0100343,804.1966768535323,812.2202911873316,804.5055927133221,795.9333555659622
1731015496.0131342,804.5010520882358,810.266138790386,805.8698312207035,795.5891423639168
1731015496.0139637,804.8037646352129,808.706320976624,806.873644118784,795.2191322343832
1731015496.0170443,805.1057845780568,807.7549277087516,807.2255644754655,794.820257883019
1731015496.020954,805.4078708464383,807.5097686815193,807.1203032207677,794.4262367121744
1731015496.021242,805.7102090534703,807.8741969795955,807.0700316501251,794.1073749849373
1731015496.0248642,806.0126142877344,808.49815711847,807.4362073922318,793.9170057600296
1731015496.028774,806.314849493355,808.8071240997973,807.9952229272791,793.791801130253
1731015496.0289223,806.6167940432632,808.1717773760823,807.9500011462555,793.4902093628042
1731015496.032684,806.9184427869108,806.2196791222232,806.5319661301147,792.7106917483037
1731015496.036594,807.219834480001,803.1703000941711,803.8220987187282,791.4613341124178
1731015496.0368862,807.5209972186449,799.946174884892,801.0828250395125,790.4921995211996
1731015496.040504,807.8219363678115,797.8502456247642,800.154603105527,791.2919367853239
1731015496.0444138,808.1226441983339,797.8887601299971,802.2363228217467,795.2194997396386
1731015496.04781,808.4231026140899,800.1585362417742,806.9633457492508,802.1346882864517
1731015496.048324,808.723271599397,803.7559512516978,812.5154687830766,809.7953291213635
1731015496.0487325,809.0230845287266,807.3001879712467,816.6748687692725,814.9592883548215
1731015496.0522337,809.322482529712,809.7048705646303,818.0652083977975,815.5206654333069
1731015496.05253,809.6214928349103,810.6832243068159,816.7856584854567,811.9265242653094
1731015496.0561438,809.9202910620205,810.7127185696542,814.1671788129448,806.7712842043247
1731015496.0600536,810.2191306064371,810.5623435009211,811.9185839925399,803.0109124357255
1731015496.0639637,810.5180634532929,810.7306429136714,811.1848660742935,802.1969516239106
1731015496.0666978,810.8165820507037,811.1611513337634,812.0119906712637,803.8960238466285
1731015496.0678737,811.1135994012521,811.4086816580011,813.4872778904296,806.4451681093883
1731015496.068174,811.4082457796676,811.1058425821606,814.4599812315603,808.266026112047
1731015496.0717835,811.7014072677872,810.3331009051724,814.3782365770513,808.7658211364894
1731015496.0756936,811.9967532697104,809.5700794407303,813.6590811029881,808.374763532246
1731015496.0796034,812.2990809662344,809.2860748373387,813.307721210665,807.9521804519105
1731015496.083501,812.6088234508435,809.5587051344531,814.0643501286295,808.0974505921703
1731015496.0835135,812.9156140561994,810.0516496790336,815.741989975326,808.7560577442657
1731015496.083818,813.1990042574855,810.3114786813626,817.2818129797279,809.2328069093613
1731015496.0855858,813.4447620072574,810.067515978736,817.4891185525217,808.5674466602568
1731015496.087423,813.673667106398,809.3014429666879,815.888284024124,806.1373582871939
1731015496.0913334,813.9573414225301,808.137526312031,813.0637827471068,802.1941272265435
1731015496.0952432,814.3803483002873,806.7460590822935,810.26679692492,797.9303543482226
1731015496.0991533,814.9306749377163,805.3384750278246,808.6185674940825,794.8778039700177
1731015496.099462,815.3775511559252,804.1664352143905,808.4982346264678,793.9499839098017
1731015496.103063,815.2812717800706,803.4383237316439,809.4859079100975,794.8274486479323
1731015496.1044736,814.2461745695769,803.2017144744462,810.7702495160198,796.2044091966558
1731015496.1069732,812.2893031778726,803.3121850182382,811.6422975523797,796.7494748176078
1731015496.110883,809.9723558037832,803.5283743553398,811.7760245945591,796.053628557631
1731015496.1147933,808.1062038878124,803.6459433352362,811.2536652609227,794.8542650928671
1731015496.115106,807.267043035295,803.5509436900547,810.4392749693644,794.4087058388376
1731015496.1182697,807.5110272470249,803.1597895120177,809.7772887645932,795.5432559699468
1731015496.118703,808.4205849440765,802.3338792245647,809.5532611552616,798.105493989788
1731015496.122613,809.3567416964609,800.9092291510008,809.708906178699,801.168298326759
1731015496.1233616,809.7447009739444,798.9027504660695,809.8609708575287,803.7089333232731
1731015496.1265228,809.2747287208244,796.7672928084115,809.5800716817425,805.1466603314196
1731015496.1304328,807.9639688034617,795.412603924333,808.7561505783231,805.353975111666
1731015496.1307497,806.0994249447468,795.7922156105784,807.732905066356,804.3158244318184
1731015496.134343,804.1269753863874,798.2146391548481,807.0387763416642,801.9275801545393
1731015496.1382527,802.5129807971632,801.893243533493,806.9029922884824,798.1853547569104
1731015496.1421626,801.5590420571766,805.2103378291658,806.9846005984081,793.5246805145565
1731015496.142249,801.2171882613663,806.6559753825998,806.5927262899941,788.8684439055357
1731015496.1460726,801.0640191962217,805.8100479711187,805.2451821815548,785.2470088422423
1731015496.1463938,800.5371828028583,803.6119385966542,803.1016170084858,783.2940402043986
1731015496.1499825,799.2974234546139,801.67320297892,800.9116176989029,783.0357281116658
1731015496.1530385,797.4279163398376,801.140557708503,799.5348174420496,784.1085008646966
1731015496.1538925,795.3359459169162,801.9783221888786,799.4303730156362,786.1781350856957
1731015496.1578023,793.5201653618399,803.191756623987,800.4834514778652,789.1997131560915
1731015496.161137,792.4512556254671,803.7410116934097,802.2071727743469,793.2973799291873
1731015496.1617124,792.5858296648867,803.3597377133395,804.0702739197603,798.3300062175744
1731015496.1620376,794.2981524685325,802.6428670708243,805.7064749474466,803.4974587945017
1731015496.1656222,797.6073185046998,802.4356080678256,806.9740554726465,807.4381436277083
1731015496.1695323,801.9170839713377,803.1230243909047,807.9583960153786,808.9625137764685
1731015496.1734424,806.1299587295085,804.4083005133325,808.9190010145925,807.948526216562
1731015496.1773522,809.1906619309817,805.6607072666598,810.0798647075491,805.5668687671471
1731015496.1776817,810.65686823913,806.4272279114499,811.2962479013316,803.4592264562284
1731015496.180025,810.8266905313735,806.6657347446419,811.9001739774124,802.4951372586106
1731015496.1812625,810.3748386145876,806.6137512330689,811.0352649001865,802.2508505653688
1731015496.185172,809.8739804439011,806.5273788097522,808.3693829578428,801.7229431700823
1731015496.187807,809.5644981886254,806.5291362566593,804.6040968731751,800.5835239161341
1731015496.189082,809.4180269291095,806.6135715742026,801.2457782721152,799.7462320741706
1731015496.192992,809.3163008485018,806.7255865511052,799.7201974135234,800.6875940187848
1731015496.1933255,809.1788722353112,806.8238073828035,800.5102528154931,804.1476548892407
1731015496.196902,808.9926469898222,806.8988198304373,802.9700393233187,809.371026910994
1731015496.198913,808.7819324250753,806.9608988523695,805.866979310519,814.5218481361542
1731015496.200812,808.5720107986305,807.0223869863576,808.144014062672,817.8917340027008
1731015496.204722,808.372813946899,807.0888136888323,809.3604527819581,818.9170716697056
1731015496.2086318,808.1814785978825,807.1593305835082,809.6570675190158,818.2718759519474
1731015496.2089696,807.9914334672022,807.2308821788353,809.4505617527334,817.1274688152064
1731015496.2125418,807.7986202353095,807.3013772267012,809.1331486799962,816.3157256286761
1731015496.2164516,807.6025969421659,807.3704492886972,808.9237537216093,816.0238839725982
1731015496.2178009,807.4047527105499,807.4387059332352,808.8788383094038,816.0252532977199
1731015496.2203617,807.2063963684074,807.5067974348093,808.9902716532101,816.0451662337376
1731015496.222576,807.0079850220832,807.5749898181638,809.261918508743,815.9561572563339
1731015496.2242715,806.8093245717657,807.6432215554346,809.687323484321,815.7724486616098
1731015496.2246134,806.6100630133408,807.7113328705453,810.1627774121232,815.5598845913262
1731015496.2281816,806.4100020721844,807.7792260054051,810.468847191838,815.3652347906193
1731015496.2320914,806.2091366540117,807.8468954118613,810.4037565140901,815.1978138935211
1731015496.2360015,806.0075521490231,807.9143825630518,809.9737109529286,815.0450124278426
1731015496.2366889,805.8053224084871,807.9817260617147,809.4420796327363,814.8926802283902
1731015496.2399113,805.6024684396918,808.0489412970329,809.1573619047177,814.734853000727
1731015496.2402575,805.398968364914,808.1160274989339,809.2998277542534,814.5728187725281
1731015496.2438214,805.1947897022261,808.18298495067,809.7569796748144,814.4101849942415
1731015496.2477312,804.989924752806,808.2498264106989,810.1920012920227,814.2493086321576
1731015496.2516413,804.7844156850338,808.3165735308249,810.2004955672032,814.0905426498437
1731015496.255551,804.5783472921745,808.3832375932524,809.4491985040114,813.9331638761503
1731015496.2555766,804.3717831146641,808.4497965674159,807.804943897349,813.7764438075795
1731015496.255901,804.1646570443719,808.5161947891036,805.4934280477552,813.6201116803144
1731015496.2573447,803.9567109474108,808.5823919234111,803.2059014879816,813.4642667869367
1731015496.2594612,803.7476260068324,808.6484532669386,801.9612040777009,813.309108691487
1731015496.2633712,803.5374140159512,808.7146048635711,802.6335923392227,813.1547578868426
1731015496.2672813,803.3268465063736,808.7811274791137,805.3549315129186,813.0012280221825
1731015496.2711911,803.1173494988277,808.84803051703,809.2224789006289,812.8484814856221
1731015496.2715452,802.9098083435553,808.9146881932505,812.625903684499,812.6964861996039
1731015496.2744646,802.7025739150891,808.9799166502784,814.079687316775,812.5452356782702
1731015496.2751007,802.4905087614978,809.0429646164766,813.0438697095204,812.3947371786082
1731015496.279011,802.2678394066833,809.1051892143216,810.1835754322261,812.2449909566582
1731015496.2829208,802.0357182554483,809.1708896127881,806.9062654534039,812.0959821630503
1731015496.286831,801.8097524777706,809.2449693399191,804.5262274899932,811.9476958128492
1731015496.2871892,801.6165192296044,809.3266180494703,803.6305125476308,811.8001477396939
1731015496.2907407,801.4695469892738,809.4029152528724,803.9945762584483,811.6534027076898
1731015496.2921133,801.3325136319738,809.4515447371526,804.9517278265068,811.5075391288489
1731015496.2933524,801.1064294933561,809.4607410104064,805.8571980523388,811.3625452889405
1731015496.2946508,800.6919525801202,809.4602741734859,806.3719892173942,811.2182094650857
1731015496.2985606,800.1380625428882,809.5328998920769,806.5316721040969,811.0741555951527
1731015496.3024707,799.7821342974775,809.7631817238101,806.6804854893835,810.9301647411908
1731015496.3028333,800.1867111371206,810.1133610787022,807.2950579601481,810.7866933618094
1731015496.3063805,801.7577541275908,810.3048916130053,808.685160945314,810.6450958403881
1731015496.3102906,804.2774356726345,809.8698097257712,810.6796830249314,810.506835570674
1731015496.3122404,806.8631057339823,808.4747054630706,812.557216709856,810.3714896648854
1731015496.3142004,808.5507857668026,806.3300812439734,813.4059399897016,810.2348466424794
1731015496.3181105,809.0139065300829,804.2447643286513,812.7547601730392,810.0899826477727
1731015496.3184772,808.7406714251186,803.1183329895256,811.0053092198447,809.9336929440642
1731015496.3220203,808.542507016687,803.266546777166,809.2638517077868,809.7760028484639
1731015496.3259304,808.8707000110065,804.2153261062646,808.6299763535604,809.6429236803538
1731015496.326882,809.5037912975043,805.1554311198569,809.4570775680862,809.5591992083976
1731015496.3298402,809.7994369768561,805.6254088258772,811.1437983572857,809.5086961297662
1731015496.331128,809.2668116939734,805.8046457506686,812.5999793925204,809.3976414030474
1731015496.3337502,808.0190335517627,806.1765711709422,813.0088511320811,809.0695527651417
1731015496.334121,806.786081809157,806.9028282293697,812.3070356733931,808.3929765586349
1731015496.33766,806.4789648033673,807.515227720766,811.069217453227,807.3454909627245
1731015496.34157,807.5851655951492,807.2388541118277,809.9748640971704,805.967157183488
1731015496.34548,809.7826916633921,805.6754417818404,809.3361060249246,804.2079106567426
1731015496.34939,812.0408918597803,803.2474123062639,809.0391977244241,801.904006729808
1731015496.3497653,813.1908527248523,801.0182526347161,808.8387958587058,799.0295446827041
1731015496.350016,812.6338725739917,800.0313138548526,808.6407959923521,795.9952839002876
1731015496.3533,810.7088026911003,800.6719046760784,808.492505163957,793.5928896031085
1731015496.35721,808.4216557996667,802.4969145065264,808.3540959273274,792.4974156222778
1731015496.36112,806.7032829464579,804.6043548799315,807.9675771808653,792.7229134863
1731015496.3616507,805.763817314783,806.2402673127873,807.0225848259952,793.5371682933725
1731015496.3650298,805.0710381469365,807.2174456666166,805.4895110484492,793.9543172763664
1731015496.365409,803.9642673926005,807.9002744908809,803.8035844240455,793.4281779388749
1731015496.368904,802.3570768268206,808.8311450130211,802.7061227448587,792.216194104902
1731015496.36894,800.8977872690508,810.297335993313,802.830716611752,791.1607202558542
1731015496.3728497,800.4501361033385,812.127551640548,804.3121739699482,791.0748561958663
1731015496.3767598,801.3880057882517,813.8105758439859,806.6799688113853,792.1895205652229
1731015496.3806696,803.3608146447087,814.8091238946319,809.1147949177582,794.0398199285405
1731015496.3810527,805.693539625615,814.852448311335,810.9070309204468,795.8115290913896
1731015496.3845797,807.92974459841,814.0599868723648,811.8082215224312,796.8223478307576
1731015496.387792,809.9267032666719,812.8732358261262,812.0450090646183,796.781426360837
1731015496.3884895,811.497466777512,811.8479286557317,812.0443388623131,795.7665659008468
1731015496.3923995,812.1796157375104,811.3867772790792,812.1529226211617,794.142260412892
1731015496.3963094,811.5720141683406,811.5280237085279,812.5714301406516,792.5838450326597
1731015496.3964195,809.9553836103053,811.9196014299255,813.42853406951,792.0615909850078
1731015496.3966968,808.4594649125396,812.021760983625,814.755142035358,793.5073697317723
1731015496.4002194,808.4173318742834,811.4171426047509,816.3092112643394,797.1901401478691
1731015496.4041293,810.368233934905,810.0237587210275,817.5023298255417,802.2776647275633
1731015496.4066796,813.5694578150436,808.1028527992568,817.6583357693977,807.1036652610777
1731015496.408039,816.4595207300184,806.1219730056333,816.4586136130825,810.11173771774
1731015496.4119492,817.7052541310464,804.5868544116848,814.1601571273624,810.7898452409556
1731015496.4123406,817.0113439032754,803.8800576303547,811.3795331496603,809.8293316888079
1731015496.4158592,815.1225677292738,804.105350983812,808.688054758773,808.3929773536529
1731015496.419769,813.1186756331784,805.0104472974211,806.4137143361655,807.1602289758448
1731015496.423679,811.6133462888683,806.0984531962285,804.7395718956494,805.9756246518161
1731015496.4255676,810.4645797971049,806.9039994363964,803.8453559644486,804.3245723966553
1731015496.4275887,809.1593580158535,807.2329849703239,803.8765177695304,802.1110159885635
1731015496.4279847,807.5090159584878,807.1846729242385,804.8280931517444,800.0051347739764
1731015496.4311883,806.0509095997703,806.9846942895668,806.5565315909682,799.0649161294436
1731015496.431499,805.7677878725706,806.806220233238,808.9206366548367,799.9529890521114
1731015496.4354088,807.2794535638906,806.7043504737107,811.8187216233084,802.374190149323
1731015496.439319,810.1339800381926,806.6530323180033,814.9856838212197,805.1763419792777
1731015496.4432287,812.8189454155063,806.6089183893448,817.7548257995711,807.045582291972
1731015496.4436283,813.582711207371,806.548737069908,819.1444502923416,807.2658141213961
1731015496.4444554,811.5265695488815,806.4725240524203,818.3600763577007,805.9821446891923
1731015496.4471388,807.2160957278473,806.3903548193804,815.3660376130296,803.8568870047478
1731015496.4510486,802.3955864562313,806.310338405708,811.036047426894,801.5166161887715
1731015496.454959,798.9806544485003,806.2346756562665,806.7028132448028,799.2726237384617
1731015496.4588687,797.9628394542978,806.1616533789746,803.4130047934584,797.2311487681101
1731015496.4592726,798.933195554828,806.088946035327,801.4333279719818,795.5315211331714
1731015496.4627786,800.5433314170818,806.015417140576,800.351665141464,794.4232759868144
1731015496.4633431,801.5596361496509,805.9411504720944,799.6419293103804,794.1385527381409
1731015496.4659572,801.7056808410995,805.8667010150715,799.1967476403739,794.7177748407954
1731015496.4666886,801.6570614360458,805.792478627279,799.3813693403253,795.9482911099489
1731015496.4705985,802.258631158065,805.7185738585532,800.5924258011322,797.4556912891103
1731015496.4745083,803.6709355184814,805.6448825625001,802.7431268179017,798.8665615910917
1731015496.4749165,805.1755471121214,805.5712809172713,805.1433719707243,799.904245431695
1731015496.4784184,805.7839066311852,805.4977126768727,806.866832413858,800.3389045188582
1731015496.4822311,805.0924804263279,805.4241844047485,807.2790523698926,799.8888229185391
1731015496.4823284,803.5993581956267,805.3507247400713,806.3317132903102,798.2922912551026
1731015496.4862382,802.2196839009735,805.2773542696959,804.4984160020356,795.6185853365819
1731015496.4901483,801.5443086133074,805.2040785251054,802.5002155507624,792.5363539038448
1731015496.4905603,801.5525272295044,805.1308933848684,801.0104672805926,790.1334615850855
1731015496.494058,801.8744325555457,805.0577894596187,800.4246063001732,789.2608536376955
1731015496.4979682,802.1767483836804,804.9847521744182,800.7267612666,789.9170391182608
1731015496.5007255,802.3357567258337,804.9117647624422,801.5083962074253,791.2562427932521
1731015496.501119,802.3904312068487,804.83882227046,802.1751665910035,792.2430818235961
1731015496.501878,802.4238050780041,804.7659521336229,802.2678089857275,792.3729393008995
1731015496.505788,802.4854800441393,804.6932174859314,801.7200103159311,791.8686642579295
1731015496.5062044,802.579542453517,804.6206728043442,800.8933250732242,791.3113925825438
1731015496.509698,802.6879175981747,804.5482721043359,800.3596487919735,791.1488441629425
1731015496.513608,802.7942902146418,804.4758005238677,800.5456306313769,791.4914900789553
1731015496.5175178,802.893298179662,804.4029604786831,801.4295648805804,792.2197213796547
1731015496.520007,802.9876439901819,804.3296926130233,802.4737151084076,793.1708310887115
