timestamps,eeg_1,eeg_2,eeg_3,eeg_4
1731016844.229,800.3976089317603,808.3598602165073,802.9447381106494,780.8318388133091
1731016844.2640002,800.4305505965425,808.1231498952908,803.0035444796014,780.5921878286797
1731016844.2644074,800.297905816272,807.7686471601079,802.8088075918538,780.6533698967488
1731016844.2832963,799.7991423573615,807.3106070242072,802.2627379181399,780.9840509853282
1731016844.299,798.8190454745904,806.9354045267187,801.5759065575842,781.1315234830305
1731016844.3021855,797.5512141463639,806.9111429843947,801.3313004228572,780.4873457041895
1731016844.305034,796.5745151042322,807.4288723170957,802.3167918008552,778.7932988272303
1731016844.3089318,796.5835779145701,808.4946454871508,805.0721062157708,776.5305248001729
1731016844.3128295,797.896655325211,809.9489074071129,809.3371786501631,774.7970668638611
1731016844.3167276,800.1420322558799,811.5741110896756,813.808259946085,774.6213938107102
1731016844.3201127,802.4306035993749,813.1853006817802,816.5617969950777,776.1958405824848
1731016844.3206255,803.915894198109,814.6584912335705,816.0962577253601,778.7065318139082
1731016844.3210745,804.3177193862997,815.9518864288943,812.3911649505866,780.9659688535805
1731016844.3245237,804.0293065546061,817.1623281557044,807.1661590511021,782.3102999076175
1731016844.3284216,803.7584540853805,818.5370354309171,802.9782878601117,782.9712282373338
1731016844.3323195,803.9867145890439,820.3190202600483,801.6849048569111,783.65406277665
1731016844.334,804.6459569422594,822.4656699761753,803.3679622570419,784.8048419281732
1731016844.335667,805.2442030534995,824.4900482245656,806.4863125292826,786.2689529498674
1731016844.3362174,805.3236488473849,825.658019500223,809.0457229097204,787.5722198900947
1731016844.3399634,804.8592379907428,825.4765799597487,809.8311459260394,788.4371506859458
1731016844.3401153,804.2547116729651,824.0961100183476,808.8566183607138,788.9888460004636
1731016844.3440132,803.9492567667772,822.2481199518147,806.94322133858,789.4816996443299
1731016844.3479111,803.9952916582896,820.7045877210895,804.9955625792821,789.8646686803406
1731016844.3512204,803.9867924214603,819.6786167051197,803.5937274547048,789.6526505890965
1731016844.351809,803.4043609566628,818.6870284315515,803.0505527609683,788.290861578823
1731016844.3557072,802.0953302935808,817.0271639865329,803.6122037033967,785.748492948488
1731016844.3588526,800.512317657678,814.4788590598832,805.4264811430177,782.8262601808394
1731016844.3596053,799.5231795011829,811.6201367817921,808.2611341713468,780.8288622905167
1731016844.363503,799.8984700333563,809.464946737694,811.3270610849021,780.7534411861948
1731016844.3667743,801.7883315394962,808.715175565206,813.5428785648012,782.5996321228209
1731016844.367401,804.5287961557536,809.2443833542202,814.1572921153196,785.3851598258331
1731016844.3690002,806.953858039281,810.2211320374042,813.2414801903003,787.8790710240133
1731016844.3712988,808.0805264844128,810.7418845312563,811.6069417002886,789.4214247740263
1731016844.3751967,807.7364632920101,810.4498874675021,810.1868958975939,790.1331803279535
1731016844.3777416,806.6626830762813,809.6803439815181,809.3863585745652,790.4441944842871
1731016844.3790946,805.9753969987727,809.0962088635404,808.912687089537,790.5352280581782
1731016844.3823285,806.3865917607689,809.170899557421,808.1553333348824,790.2724201809723
1731016844.3829925,807.7938357958076,809.9151526122583,806.7308122307826,789.5578718849044
1731016844.3868904,809.5184120713977,810.9712979725261,804.754804128139,788.5335771891123
1731016844.3907886,810.9046566841423,811.9132207077946,802.72325066586,787.3545662091956
1731016844.3946865,811.7451657480987,812.5156013415921,801.2037910232218,785.9150177163376
1731016844.3966303,812.2606847087088,812.8441366964443,800.5749388612571,784.0601808686971
1731016844.397882,812.8024888595721,813.1263432348064,800.8854700217514,782.1724486525695
1731016844.3985844,813.6192378391091,813.4694205419293,801.8068679830603,781.3643553621047
1731016844.4024825,814.8522817348722,813.6266760653298,802.7067729089321,782.757391679306
1731016844.404,816.6458701851964,813.0687094560788,802.9119886238864,786.3380885749333
1731016844.4063802,819.153648610736,811.4221220781791,802.0980277567179,790.5300023494472
1731016844.410278,822.3582398836829,808.9634693910001,800.5456362050811,793.0714300214368
1731016844.413436,825.8557255862544,806.6660481733559,799.0116305418506,792.5400369590135
1731016844.414176,828.8627910925769,805.5972593194941,798.2526628696532,789.2313426142841
1731016844.4155197,830.5506832579105,806.079322337673,798.5579046600968,784.7261118228906
1731016844.418074,830.5124953029224,807.3591440122403,799.655929121386,780.6637176622289
1731016844.421972,829.0134496108691,808.1587617309347,801.0300778153671,777.7933621394774
1731016844.42587,826.8221928932787,807.6739064684622,802.3217301924572,775.9282430859062
1731016844.42899,824.7392913236645,806.1479387977716,803.4599952008306,774.5909989538378
1731016844.4297678,823.1491745691961,804.5538986231444,804.4561700325531,773.6708329333563
1731016844.4336658,821.885168483834,803.7662000147216,805.1440772044765,773.5494282689809
1731016844.434409,820.4824887222038,804.013043426981,805.197112872714,774.6521355815349
1731016844.4375637,818.6430793305179,804.9883389173343,804.4516049723989,776.8515720196073
1731016844.439,816.5783413022057,806.2921236707876,803.2049540447166,779.2708012239534
1731016844.4414616,814.9468700293901,807.6469876987666,802.117759406785,780.7103895675508
1731016844.4445438,814.3902752066163,808.7554934849145,801.7193521246908,780.4001037342804
1731016844.4453597,815.0098104696849,809.1443052256628,801.9526211476215,778.4882045820716
1731016844.4492574,816.2145333082888,808.3242590451946,802.2299541608857,775.8902482548241
1731016844.4531553,817.0837362289568,806.167993477155,802.0102477593172,773.6479107503683
1731016844.4532976,816.9620932073169,803.1128521754606,801.3754580956448,772.319967707607
1731016844.4570534,815.8340846533885,799.9594705910347,801.0333775748103,771.8212901077825
1731016844.4600976,814.2416599870901,797.4338069990398,801.6955737331548,771.6993670267988
1731016844.460951,812.8807648741405,795.8782630675213,803.3861347198307,771.5354712506496
1731016844.4648492,812.2084913192476,795.2743771282579,805.3314519786842,771.1998930787892
1731016844.4687471,812.3014193957952,795.4814138834063,806.5556919500511,770.8855855333192
1731016844.4721866,812.961882220901,796.4084950204168,806.6524890040208,770.9403568903534
1731016844.472645,813.8818551383844,797.9529192844598,806.0380226285922,771.5490084151821
1731016844.474,814.6829975486988,799.8088633834142,805.4691987999084,772.4365041903177
1731016844.4756515,814.848371132962,801.4151091875099,805.2871178926086,772.8794602258334
1731016844.4765427,813.7623433267469,802.1928317486513,805.0966198796748,772.1612201674185
1731016844.4804409,811.0334443210562,801.9174391736782,804.1874145782175,770.1923318151086
1731016844.4843388,806.9534917716135,800.8801286883593,802.3095094404839,767.7564073399114
1731016844.488237,802.6561674642749,799.6533645083473,800.0742819759724,766.0909007077158
1731016844.4910758,799.6580306912873,798.6568115453601,798.5887225857444,766.0899150980754
1731016844.4912057,798.9788651963719,797.9336204206357,798.6332817235243,767.7477299359876
1731016844.4921348,800.4743603867227,797.3434881068657,800.0964925387669,770.2319929745719
1731016844.4960327,802.922248688301,796.9535352192235,802.1157370410148,772.4635815204457
1731016844.4999306,804.830802630394,797.2023093962038,803.7335095816808,773.7810829834226
1731016844.5038283,805.3796779470832,798.6306003183264,804.4839685407572,774.332467963485
1731016844.5067592,804.8180383213626,801.37952359212,804.4964786134467,775.0325390944228
1731016844.5077264,804.0699411534009,804.8662531194584,804.1867711944813,777.0619089482498
1731016844.509,803.8771202605619,807.920778394595,803.8983904425097,781.0507706089398
1731016844.5099647,804.1304542828284,809.357314018226,803.7542711764298,786.3826878263026
1731016844.5116243,803.9052300152495,808.6705486989442,803.7138600208092,791.2186038602376
1731016844.5155222,802.2046358153149,806.4124157179682,803.694317546967,793.4748891519474
1731016844.51942,798.8562147409611,803.9154410985492,803.6472467434296,792.1708357987238
1731016844.522313,794.8335163633818,802.43261520293,803.5695704457471,788.0577683424432
1731016844.5233183,791.7051654940193,802.262888648819,803.4797002720525,782.9450473122357
1731016844.5272162,790.629248349882,802.5708783352329,803.3938049947136,778.3125393067921
1731016844.5288537,791.6629099351426,802.113572158903,803.3169913974059,774.461174745632
1731016844.531114,793.8309897541486,800.3007162835263,803.2464188310274,770.8771150651339
1731016844.535012,795.7670747995489,797.6860603337149,803.1776014634269,767.2757675524721
1731016844.5378673,796.4157140159497,795.4845752018493,803.1081442652638,764.2117261237138
1731016844.53891,795.4336462926709,794.581326805971,803.0380420844899,762.7100546560856
1731016844.5428078,793.2251660322069,794.9084705784926,802.9683147635665,763.3936256783052
1731016844.544,790.6901315943219,795.6635283751601,802.8997799055595,765.9949162304858
1731016844.5467055,788.7860853740689,796.0680704471334,802.8326515411289,769.6366913614942
1731016844.5477428,788.0617436694291,795.9568404617451,802.766744414975,773.4627724780898
1731016844.5506036,788.3894378378179,795.7469069288013,802.7018108930974,776.9201541021935
1731016844.5534208,789.0701813775659,795.9278722172462,802.6377246134224,779.4718183080979
1731016844.5545018,789.2772707445542,796.5749156572136,802.5744840887327,780.23653808094
1731016844.5583997,788.5823375862411,797.266721930138,802.5121371699756,778.2400143422013
1731016844.5622976,787.2407122587781,797.4026148757657,802.4507182894814,773.3412069046475
1731016844.5661955,786.054823607131,796.635015197372,802.390228495165,767.0244299384575
1731016844.5666318,785.8916773968698,795.1315650339258,802.330643703456,762.0586997356003
1731016844.5689747,787.1359548541603,793.5389226289021,802.27192941939,760.8881212370941
1731016844.5700934,789.3932013531928,792.6688794603654,802.2140542577121,763.8382260095769
1731016844.5739913,791.6180319006102,793.040978295242,802.1570054513982,768.6344590711878
1731016844.5778892,792.6232016041365,794.5272422061649,802.1008038937748,771.8200257405712
1731016844.579,791.7339594696967,796.372202934919,802.0454997794121,771.1343169776908
1731016844.581787,789.2616933449705,797.6672898839684,801.9911248013411,767.0916935612933
1731016844.5845287,786.5139458078557,797.9949740378204,801.9376075033252,762.6059892243876
1731016844.5855207,785.2353003317763,797.7311230369265,801.8847237234895,760.9967926469867
1731016844.585685,786.658457135978,797.6887795367611,801.8322011790847,763.8403173183727
1731016844.5895832,790.6451732544551,798.3319825825527,801.7800319656753,770.0905849010884
1731016844.5934813,795.510770667493,799.2347065049835,801.7288153759104,776.9028979217223
1731016844.597379,798.8394976567762,799.3466705950492,801.6796730407588,781.4640748735039
1731016844.6000824,798.9512085665839,797.9525977761305,801.6332921644831,782.6077087966729
1731016844.6012769,796.0993041969468,795.536953002477,801.588330843404,781.2932813103125
1731016844.60441,792.4912563438018,793.7425409625091,801.5406574305097,779.8334736361455
1731016844.6051748,790.9535453457959,794.3235063573197,801.485636430382,780.477209478393
1731016844.6090727,793.0482215505601,797.8376473407852,801.4241803502835,784.1841235537908
1731016844.6129706,797.948192075243,803.0741284742446,801.3687688179538,790.168319129938
1731016844.614,802.939617270396,807.6768480429707,801.3406512378697,796.3313068632236
1731016844.6156363,805.2728911866193,809.5512380769562,801.3506337733011,800.3059182002844
1731016844.6168685,804.0568383149072,808.0980634893359,801.3696957703154,800.6044118839962
1731016844.6207666,800.8131797748384,804.4675586356386,801.3189394461281,797.3375273846042
1731016844.623299,798.3072309801773,800.7236098266641,801.1199927220961,792.1650420339754
1731016844.6246643,798.5820143603114,798.540982994245,800.8154447400369,787.5057722123703
1731016844.6285625,801.6809377185673,798.320236100211,800.6853111539746,785.4097846333497
1731016844.6311903,805.9070202807284,799.2374467080801,801.2100993388317,786.6652468886883
1731016844.6324604,809.2211698702422,800.0517617604277,802.7841534130463,790.5710999857441
1731016844.6363585,810.5936898009662,800.0028256326741,805.3063076199895,795.4317327160962
1731016844.6402562,810.3609265110921,799.1826029901224,807.9927615546898,799.4311342909529
1731016844.6421878,809.5478304944347,798.2495487946658,809.6956390067196,801.3581980711848
1731016844.644154,808.8765277197632,797.8319581907729,809.6155689489407,800.8193673130942
1731016844.646744,808.2626664127475,798.0917449106164,807.8857191485024,798.0004613333645
1731016844.648052,807.0948272938745,798.700104776185,805.5196202835823,793.3938465796725
1731016844.6490002,804.9661550051626,799.1622516964446,803.7301871621636,787.8365927902561
1731016844.65195,802.218537095233,799.2215742811275,803.1727059209464,782.7079348684024
1731016844.655848,799.8369289239375,799.0427903297348,803.6950307741293,779.7111488651211
1731016844.659746,798.754163468278,799.0344648973191,804.6801801904709,779.9140093627125
1731016844.661077,799.1179018738611,799.4611803294496,805.5619400149459,782.6070464142815
1731016844.662298,800.1352916780761,800.1973224140328,806.0589115496981,785.1667291484811
1731016844.6636438,800.6554487504936,800.8645991566857,806.0599943112663,784.5571567666989
1731016844.6675415,800.0337926180077,801.2350435384215,805.4541746113487,779.5912638012655
1731016844.6714396,798.5828845054974,801.5196530719395,804.1813656912253,772.060607107568
1731016844.6753376,797.2693803430349,802.2643034201262,802.4660689355322,765.5828856371156
1731016844.677852,796.9429636310565,803.9250819216725,800.9397132688807,763.0149190677877
1731016844.6792357,797.728313446745,806.4558340369698,800.4138523961153,764.5862689600384
1731016844.679966,799.0204511064868,809.2172926215285,801.3704551861623,768.1826136932275
1731016844.6831334,800.0274426420499,811.286864841748,803.5160073492241,771.2238812301514
1731016844.684,800.4198625436802,811.9905039776447,805.7720696154613,772.3538971773389
1731016844.6870315,800.6029602921938,811.3220133007577,806.809934307048,771.7290705628806
1731016844.6909294,801.3961574716851,809.9458394516973,805.8495238968616,770.1940668865067
1731016844.693406,803.3237076367889,808.7352709363497,803.2089255992983,768.4736189774707
1731016844.6948273,806.0474332738945,808.1610809969796,800.21081062307,767.0826976297559
1731016844.6987252,808.4344108913831,808.0218831184777,798.4708536107978,766.6915093767382
1731016844.6988547,809.2841377845459,807.7678325553111,799.0110522148383,768.2233447148602
1731016844.7026231,808.1865887752266,807.150222680373,801.7487604237494,772.3364754769657
1731016844.706521,805.8575124364766,806.5963847270934,805.6425934048334,778.6637364214536
1731016844.7089596,803.732214660901,806.9196318806403,809.3363758535666,785.5623033246193
1731016844.7104187,803.1677510853104,808.5751293424426,811.8409345869386,790.8073219853983
1731016844.7143168,804.7940025551853,811.1069282892498,812.828944566162,792.8607388067894
1731016844.717744,808.3111870646188,813.2870455074026,812.4524965295559,791.7498027761634
1731016844.718215,812.7070406935295,813.8707371811832,810.9686343702463,788.8366158524312
1731016844.719,816.727909501438,812.4124098608943,808.5683591157737,785.7284843433854
1731016844.722113,819.4166068907173,809.5768676013079,805.5452566203355,783.3265780073189
1731016844.7245135,820.479590900311,806.7650099020327,802.5412851720195,781.7387970143202
1731016844.7260108,820.2468117707343,805.3165539302032,800.4703931046733,780.8138648017838
1731016844.7299087,819.2205508665935,805.7845880941868,800.0270558215236,780.5082739704833
1731016844.7338066,817.5769791693838,807.704078170412,801.1541137843379,780.7378321571551
1731016844.7366333,815.0823790665078,809.9519627683421,802.969068088838,781.120195807123
1731016844.7377045,811.4989464845577,811.4169437167789,804.2614157318943,781.0994827515902
1731016844.7400675,807.0409845233614,811.533628644486,804.1687751897609,780.3507471501616
1731016844.7416024,802.3883687688375,810.4097685619541,802.5373486325594,778.9760631402602
1731016844.7455003,798.2560967221026,808.610605092906,799.8269913096985,777.3217682442971
1731016844.7493982,794.9936542806583,806.8538539314195,796.8017852325968,775.7383338465812
1731016844.7532964,792.6136805838299,805.7888660250887,794.2809259356419,774.5635369976371
1731016844.7540002,791.151247897518,805.8414311551128,792.9901170617446,774.1651650185936
1731016844.755522,790.9086254124928,807.0427712332304,793.3918176629808,774.7336384558275
1731016844.7556212,792.2852140815799,808.8943570744038,795.4580739453351,775.908442067375
1731016844.7571945,795.3306926312382,810.4673145177431,798.5418455402113,776.7236273943677
1731016844.7610922,799.4497221902839,810.849367449278,801.5492338978304,776.1860951902113
1731016844.76499,803.5749417513388,809.7240647733901,803.4226278135908,774.1524185462634
1731016844.768888,806.7278998400318,807.621357756968,803.6749348128469,771.7205755453892
1731016844.7711751,808.5590667885606,805.5555774749653,802.6293796248557,770.6320579651941
1731016844.772786,809.4697264131066,804.2837186204315,801.2093098100408,772.0072440187631
1731016844.774411,810.2350726911903,803.7827267089758,800.418374980843,775.377632013046
1731016844.7766838,811.4081618431602,803.3811029155206,800.8206279815664,778.8414137284367
1731016844.7805817,812.9387286506294,802.4277461432281,802.2961759874303,780.3309640691284
1731016844.78448,814.2849804287772,800.9325183459998,804.1814893856427,779.0892411647965
1731016844.786729,814.912868934248,799.6389966630117,805.6981578281009,776.2120092720415
1731016844.7883778,814.7470732119214,799.4537228315775,806.4122260953237,773.7777791744943
1731016844.789,814.1761979346908,800.683183576315,806.4374997192888,773.2148699411014
1731016844.7922757,813.6360213355434,802.6996955195442,806.2499639669624,774.236171590228
1731016844.7933002,813.2086050066641,804.3251688636714,806.249581910176,775.2485886583071
1731016844.7961736,812.6551327856583,804.6452210982084,806.4077397519186,774.8822952258837
1731016844.8000717,811.846024076282,803.6137289340029,806.2918656346847,773.2719843017499
1731016844.8022828,811.1107777244825,801.9786659887338,805.4528842581383,771.9171367339887
1731016844.8039694,811.0593249261982,800.6262494931892,803.8331997237966,772.2374644366236
1731016844.8078673,811.9401685124773,799.9268762464868,801.8221678732426,774.159240930119
1731016844.8117652,813.123217794982,799.6314930532859,799.9246416599818,776.0669884127493
1731016844.812189,813.2894358309159,799.3178411584817,798.3971628405985,776.2131872997461
1731016844.815663,811.3119125288358,798.8584323492805,797.2264754402161,774.3501845408911
1731016844.8178368,807.14943204636,798.4525439029668,796.4298611487179,772.145737570978
1731016844.8195612,801.9825678716207,798.3225188917633,796.2729031676524,771.9979673817089
1731016844.8234591,797.43401532675,798.4916250244502,797.0733285080872,775.1930537144815
1731016844.824,794.5006710811791,798.8225701348671,798.7368881762413,780.837835359849
1731016844.8273573,793.070603917627,799.1682374341768,800.5340737049708,786.3511782707054
1731016844.831078,792.3665356456544,799.4605734482353,801.4569059176134,789.1193294951946
1731016844.831255,791.8300867072448,799.7052307813852,800.9376047418948,788.110574281709
1731016844.8333907,791.6056919734104,799.9351090922717,799.3222334542726,784.3363102817847
1731016844.8351529,792.2242050244616,800.1739777671562,797.665819119904,779.9278053358422
1731016844.8390508,793.8797006192804,800.4267453143119,796.9949072336588,776.6256966919401
1731016844.842949,796.0570543006954,800.6871268208282,797.6308468712466,774.8727483583486
1731016844.8468466,797.8682550855838,800.9479546558551,799.0854764991835,774.1163814258064
1731016844.8489444,798.7391861793509,801.206168536388,800.5385216607699,773.8375449279633
1731016844.8499672,798.7942483419758,801.4623960126374,801.4576444770746,774.2071785600945
1731016844.8507447,798.6566158088261,801.718468345131,801.8918118816537,775.7192939822703
1731016844.8546426,798.9557906170567,801.9756006231528,802.3007966521245,778.2308293720379
1731016844.8585403,800.011498516741,802.2339944646217,803.1410491834811,780.4891154598404
1731016844.859,801.8497281980906,802.4933006036325,804.5419723956674,780.7998575290295
1731016844.8624384,804.329282585156,802.7531621945784,806.2585235628486,778.3824194287602
1731016844.8644984,807.1282806054193,803.0134531081634,807.8470363105498,774.2252231463303
1731016844.8663363,809.6291268221448,803.2742354102309,808.8826361778906,770.6002267300485
1731016844.8688562,810.9728238135812,803.535621685763,809.0973459945823,769.5398176475986
1731016844.8702345,810.44378989492,803.7976824821033,808.4559828464668,771.4980957830697
1731016844.8741322,807.9873087704902,804.0604333407948,807.2178935741954,775.2622136268186
1731016844.87803,804.4200021430308,804.3238685759953,805.9285575045386,779.0725165206884
1731016844.8800523,801.0519507365775,804.587996844857,805.226065492853,781.8803583880915
1731016844.881928,798.9121964450258,804.852850195852,805.4818839763891,783.6840949153769
1731016844.885826,798.1474876387546,805.1184600455141,806.5106645159252,784.8708667974462
1731016844.8877451,798.0740978402944,805.3848157365953,807.6171928425875,785.4259399755928
1731016844.889724,797.8392599977789,805.6518446552899,808.0106829095703,784.8513687382272
1731016844.893622,797.1418936836177,805.919462314596,807.3127126943763,782.8062893423504
1731016844.894,796.4284564902373,806.1877042956638,805.7937228783805,779.7662772391329
1731016844.895606,796.4462234221028,806.4568542074154,804.1694841355869,777.0466537772008
1731016844.8975198,797.576362667287,806.7273777418409,803.1065795701654,776.1362458563103
1731016844.9014175,799.5096546837391,806.9995037000888,802.7875820059966,777.8077184544056
1731016844.9053156,801.4805179852808,807.2725939489972,802.8391858705039,781.5618040211408
1731016844.9066343,802.7903806454108,807.5449382151536,802.6676800898416,785.7285531469914
1731016844.9092135,803.1681107986368,807.8148350653369,801.953578600725,788.2085566307046
1731016844.91116,802.7497052465476,808.0830933842785,800.9405864660299,787.5093933635702
1731016844.9131114,801.8282067293518,808.3552020958515,800.3047809983518,783.5261506429655
1731016844.9170096,800.6657701550357,808.6395737180605,800.6973844061005,777.5915463963765
1731016844.9209075,799.4966244948158,808.939206077525,802.2837448154411,771.7257456649875
1731016844.9248054,798.6119494557885,809.2401496373985,804.5841430674523,767.5221002298048
1731016844.9255233,798.3524134748139,809.5092990720259,806.696328734002,765.3530592496531
1731016844.926714,798.9694651791317,809.717061068893,807.7401280564094,764.3816079128861
1731016844.9287033,800.4865571988648,809.8848614818315,807.2720165762787,763.3428545274606
1731016844.929,802.717056696203,810.1211228507237,805.4716556586428,761.5496300168762
1731016844.9326012,805.4407549840192,810.5773226144453,803.0152606157684,759.4149274772033
1731016844.936499,808.5520655470068,811.2795486632999,800.6883857545074,758.126708757902
1731016844.940397,811.9817225952629,811.9077384403088,798.9519057805227,758.75766400775
1731016844.942268,815.4198414602167,811.7509765521456,797.7594802816401,761.5291169298384
1731016844.9442947,818.1289835116812,810.0661835927567,796.7784785635166,765.7623457502236
1731016844.9444122,819.1342349773607,806.7248756125489,795.8298130987395,770.4121284720179
1731016844.9481928,817.747358886883,802.5876868352277,795.1468692570919,774.6344235468817
1731016844.952091,814.0203424497658,799.1211472875805,795.2195477790326,778.0005749048387
1731016844.955989,808.723708216446,797.4712636086643,796.3904894354487,780.4314267423957
1731016844.9578216,802.8631011977179,797.7655289447265,798.5807604339674,782.0972175507123
1731016844.9598868,797.1814881510305,799.2003044803671,801.3348513958192,783.3077504931813
1731016844.9633012,792.0807007339772,800.7606801878862,804.0407621514731,784.2569655536909
1731016844.9637847,787.9336219640653,801.9208388828572,806.084557017889,784.7054967755575
1731016844.964,785.3381754467135,802.7776307015168,806.8997035571338,783.9795584019732
1731016844.9676826,784.9342660938537,803.6159672351346,806.0723067566151,781.5094448563441
1731016844.9715805,786.8805181242114,804.388745185718,803.5934724662085,777.5450115250524
1731016844.9733756,790.4680836019576,804.6142085215934,800.0851347571863,773.3286164076337
1731016844.9754784,794.2678095199533,803.7772134112669,796.6966266868991,770.407714967721
1731016844.9793763,796.7793702953305,801.8673268258563,794.5855136825268,769.6085417950676
1731016844.9821904,797.1820824944595,799.5856600695369,794.2928648268424,770.5686277755766
1731016844.9832745,795.7445479054094,798.0421963243787,795.5021536050984,772.1910947476946
1731016844.9871724,793.6796813643907,798.1542997352935,797.4035410552851,773.5124669751251
1731016844.9889295,792.5241620890914,800.1384652511716,799.3719166935016,774.2096258029595
1731016844.9910705,793.339781233939,803.3906017671746,801.3795137828783,774.4883507074135
1731016844.9949682,796.1374415591752,806.8072276151416,803.7956294082262,774.6860393411667
1731016844.998866,799.8622298241307,809.3628475774191,806.782718645235,774.9957085868949
1731016844.999,802.9990424048971,810.6175418581958,809.8638424344986,775.4300763366168
1731016845.001079,804.4600585881941,810.8524396423779,812.0769143014309,775.9171987777445
1731016845.002764,804.1782524127667,810.7536127531912,812.6122154135171,776.3939627511182
1731016845.0044832,802.9956028669712,810.8802199492841,811.4227107785246,776.8405858472441
1731016845.006662,801.9381901545607,811.3119016268248,809.3243787358181,777.2683161382549
1731016845.0105598,801.4419927554195,811.7023278383699,807.5019235454123,777.694738216104
1731016845.0144577,801.137401492152,811.6040521764288,806.7734685787754,778.1291936024711
1731016845.0183558,800.3439233687386,810.7329876807731,807.1259544920889,778.5716622187816
1731016845.0199685,798.8279884086526,809.0082039291439,807.8192233757021,779.0181298851754
1731016845.0200372,797.1493396234611,806.5108837873989,807.9517920388123,779.4653902665709
1731016845.0222538,796.2762316187335,803.5551815598285,807.0794809433143,779.9126033985251
1731016845.0261517,796.7916940473966,800.795076741858,805.4649062622005,780.3604862740862
1731016845.0300496,798.3879858557221,799.0905994178352,803.8088806814131,780.8099913752843
1731016845.0339477,800.1155675787562,799.0475056260334,802.7110890124915,781.2615909023343
1731016845.0340002,801.2011299350143,800.5402171431706,802.3136992366957,781.7152687763286
1731016845.0355911,801.7470965516845,802.6546765954455,802.3641720774493,782.1708219817635
1731016845.0378454,802.7181028259598,804.1684145236422,802.5211939007069,782.6281063450409
1731016845.0388577,805.2088850266983,804.2318978239679,802.5866650629944,783.0871041031448
1731016845.0417433,809.5431473090772,802.7610832660401,802.5374609097925,783.5478717670212
1731016845.0456412,814.8394691913195,800.3156925414341,802.4367526224813,784.0104691868733
1731016845.049539,819.3197714023382,797.6586066377386,802.3442456323775,784.4749270490412
1731016845.0511448,821.172142673824,795.3929261189422,802.2805031077083,784.9412551009458
1731016845.0534372,819.5024809927884,793.8991265101245,802.2363091617987,785.4094649357595
1731016845.0573351,814.8816434603351,793.4463947518487,802.1953785150097,785.8795798146286
1731016845.0577464,809.172013117735,794.1959842993716,802.1485603096511,786.3516183279231
1731016845.061233,804.6613279949246,796.0086919016674,802.0954937641554,786.8255615352936
1731016845.0651307,802.9334967037064,798.2847892705307,802.0398302514518,787.3013381451302
1731016845.0666988,804.1167791031994,800.1273019064358,801.9846736624146,787.7788713559463
1731016845.069,806.9522155016118,800.82720345654,801.9309630084898,788.258195820172
1731016845.0690289,809.6018256420457,800.3214983003703,801.8781300654421,788.7395642883888
1731016845.0729268,810.6508581629221,799.2459932855579,801.8253238849861,789.2233747018063
1731016845.0766354,809.7070958724605,798.5315035671285,801.7721138186841,789.7097865936104
1731016845.076825,807.3609369099934,798.8485906072372,801.7185291475735,790.1981733615908
1731016845.0807226,804.7007250204111,800.2676817097662,801.6647888785532,790.6869893225494
1731016845.0822527,802.7443056341538,802.2778221175556,801.6110672586444,791.1747948939766
1731016845.0846207,802.0321366851651,804.0718136991908,801.5574210950258,791.662485592348
1731016845.0885186,802.4650804807083,804.9443481119529,801.5038317786073,792.1550812127347
1731016845.0924163,803.4160086199358,804.6777500793278,801.4502700082554,792.659890521583
1731016845.0955243,804.1098259369459,803.7541571975028,801.3967297809126,793.178910534766
1731016845.0963144,804.1289841698123,803.1921995388223,801.3432286366876,793.6988585482208
1731016845.0978065,803.7482790459666,803.9588811462553,801.2897946747153,794.1901778337534
1731016845.1002123,803.8363207110908,806.251950031053,801.236457029674,794.6283377870595
1731016845.104,805.3215448026172,809.1771014727443,801.1832423947628,795.0359512665584
1731016845.1041102,808.5237923622082,811.1628328263524,801.1301712988868,795.5118282107236
1731016845.108008,812.7798968229957,810.9343553162632,801.0772504396135,796.1865705359689
1731016845.111906,816.6540139994341,808.4100366671611,801.0244682325352,797.0692592936844
1731016845.1133604,818.6802558575556,804.8676822998841,800.9718090867138,797.85577423395
1731016845.1144135,818.2190373283108,802.1994128469313,800.9192937941557,797.9023149004748
1731016845.1158042,815.8707052216288,801.7197746836755,800.8670225575316,796.5473771360046
1731016845.119702,813.1408728827475,803.3487504303641,800.8151606616321,793.6424585099732
1731016845.1236,811.5661009976237,805.7548014042895,800.7638105079892,789.7908925920711
1731016845.127498,811.8902688244307,807.3350093844742,800.7128048670487,785.9578799558464
1731016845.1289144,813.7986360265975,807.277862043102,800.6616174855334,782.7658122693928
1731016845.1313958,816.2565966798661,805.944991508316,800.6096769502186,780.1378261165902
1731016845.1333025,818.102037683609,804.417872213129,800.5571627264546,777.5899484700986
1731016845.1352935,818.5131998275955,803.6995840641125,800.5057661009048,774.8671578857186
1731016845.1390002,817.1989588237712,804.1810577435352,800.4582641455446,772.3563797319655
1731016845.1391916,814.3392230025299,805.5986338370014,800.4159542253791,770.911726737867
1731016845.1430895,810.3632836247283,807.3029037108267,800.3748491123198,771.1790837803873
1731016845.1444683,805.7137447820818,808.5793989080696,800.3245465694145,772.9141103094117
1731016845.1469874,800.7969100059597,808.9185993966632,800.2550470161109,774.8823851994317
1731016845.1508856,796.1906707759363,808.2281791079633,800.1724058609242,775.5671978589006
1731016845.1521916,792.8646307891177,806.9173015433145,800.1129676403282,774.2557159342626
1731016845.1547835,792.0044362326274,805.738645291992,800.1360122997082,771.6508487214044
1731016845.1586814,794.331039296695,805.407136674922,800.2842611868896,769.4459554872318
1731016845.160022,799.3678987696234,806.2203691480895,800.5418345050927,769.1621938485788
1731016845.1625793,805.346129107863,807.9391267135599,800.8508361804558,771.1914295758065
1731016845.1664772,810.0181804211595,809.9795046902916,801.1933508479253,774.7500273244926
1731016845.170375,811.9088985504618,811.7289343396288,801.63362576263,778.5839521924296
1731016845.1710806,811.1395106137355,812.7654452871762,802.2269889227088,781.6983969599098
1731016845.174,809.2507604104815,812.9240740829853,802.8900826622461,783.6348331110264
1731016845.174273,808.1579508066668,812.2945318602782,803.4345099758993,784.4266044708438
1731016845.175576,808.9471790624706,811.2014952058973,803.7849414420618,784.5544572867029
1731016845.1781707,811.30017770663,810.1070769931481,804.1362807437162,784.8903943193843
1731016845.1820693,813.8942331565195,809.3759884380124,804.8141629014096,786.3625524216078
1731016845.185967,815.4390016495702,808.9959843740802,805.9173265533803,789.3284445926548
1731016845.1898649,815.5463667091753,808.484935555415,807.091853916166,793.098525149025
1731016845.1899695,814.7788712122733,807.1573474887562,807.7049503207264,796.0938933917167
1731016845.19113,813.929146751686,804.6585692788317,807.3170961908068,796.6437599963144
1731016845.1937628,813.2470504743563,801.3998173842983,806.0572348680262,793.9271512553304
1731016845.1976607,812.3244953931455,798.501198906488,804.5707104129448,788.489158007679
1731016845.2015586,810.6765545960512,797.1745965483233,803.574502715538,782.0648946815625
1731016845.2054565,808.39312095593,797.9437363544755,803.3841756780001,776.8170353670516
1731016845.2066836,806.2165342574276,800.2969691649764,803.779526343013,774.3589062647044
1731016845.2088585,804.9793033462258,803.0677840829322,804.2687785087746,775.0443935716405
1731016845.209,804.9013151337219,805.2574051761227,804.485958395328,777.8901544925725
1731016845.2093544,805.3162686599326,806.6522033789581,804.3928140140916,781.1546404172851
1731016845.2132523,805.033965743262,807.765774242041,804.1810057897985,783.2251735085173
1731016845.2171504,803.1119279969779,809.2058434858698,804.0440347226944,783.313125579609
1731016845.2210484,799.5615676491303,811.043842210546,804.043807456233,781.6109131531693
1731016845.2222376,795.5248524845538,812.7289992571499,804.1322372744531,778.8993541055058
1731016845.2249465,792.7377919134733,813.5650568466302,804.2371150694632,775.9167849158318
1731016845.2277477,792.5542978605022,813.25130617214,804.3187456653243,772.9460554930038
1731016845.2288442,795.146903648966,811.9869742565304,804.3754885330457,769.928405992311
1731016845.232742,799.4140249182852,810.1308824801924,804.4228531248147,766.996706719771
1731016845.23664,803.6223467966431,807.859463190271,804.4739572823853,764.9024582976622
1731016845.2377915,806.3112134681791,805.2078592012929,804.5326738277695,764.7927838519307
1731016845.240538,806.8970749233938,802.4108220483637,804.5964779912773,767.3219264007245
1731016845.2440002,805.7317503418604,800.1026138330053,804.6616739238149,771.7738614696788
1731016845.2444358,803.7298856099205,799.0564386961436,804.7263743872468,776.0673554627456
1731016845.2466366,801.8251575313909,799.6102994719445,804.790651672706,777.8988721129675
1731016845.248334,800.4983501715072,801.2783217142804,804.8553779292745,776.2808629487827
1731016845.2522318,799.5900943799109,802.94707071563,804.9212266437244,772.2445043704214
1731016845.2533453,798.533281250186,803.5787424628908,804.9883673101085,768.0550087668576
1731016845.2561295,796.9053688305557,802.8966138083551,805.056648915699,765.5358016453437
1731016845.2600276,794.9143812424734,801.5099001493599,805.1258789302937,764.8978680283241
1731016845.2639256,793.4021922778388,800.3843150222434,805.195968881448,765.0233546836442
1731016845.2655256,793.3085833271797,800.1051019876156,805.2669312403082,764.8268990995078
1731016845.2678237,795.0040210181986,800.535247420093,805.3388139485767,764.3585758899649
1731016845.2688992,798.0230532335553,801.1041362630384,805.4116492057508,764.6269159401522
1731016845.2717214,801.3877485535475,801.4096602253284,805.4854415897521,766.385747709892
1731016845.2756193,804.2213574312547,801.5762462875298,805.5601824037994,769.1165457332366
1731016845.279,806.1470557840113,802.0698421907082,805.6358670821182,771.2181409983781
1731016845.2795172,807.199705428967,803.162250344955,805.7125000270852,771.2457879089105
1731016845.2834153,807.4347404570949,804.5286755140735,805.7900836437639,769.0791058700886
1731016845.2844148,806.6996837488444,805.3417271880019,805.8686006152061,766.0285388156581
1731016845.2844532,804.8633467779646,804.8254806870101,805.9480087449438,763.8819920812896
1731016845.2873132,802.281260528244,802.8663503606757,806.0282685260128,763.7438789461028
1731016845.2912111,799.9070794636618,800.2012130375361,806.1094024630839,765.5185629099282
1731016845.295109,798.7087817448688,797.9849863593233,806.1915402915627,768.2219760874331
1731016845.2990067,798.7937540285134,797.0109284158325,806.2748661061888,770.6745867102212
1731016845.3000069,799.122962525974,797.1674324275411,806.3594152582684,772.0200909127807
1731016845.3029048,798.2629043397881,797.5728115455798,806.4448176960066,771.8560310884593
1731016845.3033037,795.6083725656541,797.3026787176665,806.5302899045095,770.1523960492995
1731016845.3068027,791.9757735242268,796.1470035021449,806.6152167126623,767.2380580575511
1731016845.310701,789.0319659362772,794.809642405432,806.7002594450266,763.9126457525016
1731016845.314,788.1065263063105,794.3910469101448,806.78807758761,761.4349888870012
1731016845.3145988,789.4154149267649,795.5231049910786,806.8821020399816,761.0890692276857
1731016845.3155608,792.1985643858978,797.7870670315228,806.9825580700034,763.3851033457519
1731016845.3184967,795.4110820708784,799.88308635787,807.0818690979249,767.4575651260667
1731016845.322193,798.2881685938282,800.5121610146631,807.1652954157009,771.3335028539007
1731016845.3223946,800.4740368325023,799.3754534615625,807.2228050444097,773.1615846142219
1731016845.3262925,801.8932178554063,797.5114436985671,807.269762676974,772.6003838928507
1731016845.3301904,802.6352426445168,796.621560332076,807.3578825873834,771.2221578311578
1731016845.3311148,802.8958103023724,797.8290013618329,807.5470659662502,771.4770055062075
1731016845.3340883,802.8759365220559,800.818397385172,807.8255064100059,774.9575354855451
1731016845.3379862,802.6440865909293,804.0340610832549,808.0204502462908,781.2933823095673
1731016845.341082,802.0890049562994,805.77367556509,807.8011563839542,788.4291117971512
1731016845.341884,801.018187893268,805.3304763456179,806.8516589571108,793.8894604887271
1731016845.345782,799.2990247786229,803.3679677196963,805.1332912273201,796.0025324754794
1731016845.3466685,796.9363648379053,801.3528540074773,803.0015382561929,794.38687743202
1731016845.349,794.1240113932773,800.5445940689955,801.0243248426732,789.776337596624
1731016845.3496802,791.349002646179,801.2578774552987,799.6395038777522,783.6412926806054
1731016845.353578,789.454625713336,802.8274461240222,798.9481023664407,777.8403898787794
1731016845.357476,789.4159229735739,804.1974930663051,798.7806699531801,774.1705926179643
1731016845.3599708,791.7539056142674,804.6691752393766,798.9050508487312,773.6963523550606
1731016845.361374,795.947188594734,804.2849594581529,799.1590902198412,776.1184162556063
1731016845.3622224,800.4257618795823,803.6287238757388,799.4358137376656,779.714801525642
1731016845.3652718,803.3734394530144,803.2705505963005,799.6252443722761,782.1535428848738
1731016845.3691697,803.8409108228553,803.3397644016968,799.6310296586036,781.8277362960032
1731016845.3730676,802.2871060412672,803.5489066295551,799.4448403044322,778.8313492076871
1731016845.3769655,800.0918539290997,803.5588365233965,799.1637294448367,774.8297986321601
1731016845.3777764,798.4713676243186,803.2831042745788,798.9004563588961,771.907288877499
1731016845.3788598,797.7196379265278,802.851356291356,798.6780178927827,771.3129683582576
1731016845.3808637,797.327677724052,802.334592643993,798.4357444430099,773.0577550550009
1731016845.384,796.7075286362369,801.5741559987838,798.1541268907059,776.4608706591367
1731016845.3847616,795.7787610101991,800.3253370706333,797.9654150010925,780.8702541468225
1731016845.3886597,794.9391606773901,798.58629147249,798.1174232845868,785.7896543996525
1731016845.3925574,794.5855796439951,796.7799984259238,798.8020077469226,790.4804260805308
1731016845.3933303,794.7272091396438,795.5765106678681,799.9932127112204,793.7956364074734
1731016845.3964553,795.0381565073225,795.4616100826725,801.4250491515156,794.7451849222984
1731016845.3977487,795.206632919473,796.386433184896,802.7061206044222,793.364497612003
1731016845.4003532,795.1770537699108,797.7765359412809,803.4728029846307,790.9326312732154
1731016845.404251,795.0747502851846,798.8946638807802,803.5095694923929,789.1120042273628
1731016845.408149,794.9820460212495,799.2836640455969,802.8337252391897,788.6548317481487
1731016845.408884,794.868386810457,798.982414526246,801.7382118334394,788.8218794568832
1731016845.412047,794.7507786065655,798.4152817345391,800.7330264952768,788.0627025762852
1731016845.4159453,794.8673078180284,798.1057509219983,800.3417185588941,785.3988219326121
1731016845.416638,795.6229242582095,798.4435278843731,800.8238327163245,781.3631134032623
1731016845.419,797.3168540433804,799.6085052249894,801.9947990626695,777.7431629177456
1731016845.419843,799.8895136316268,801.5859012609446,803.2883323469721,776.3427958422128
1731016845.4237409,802.8985817674322,804.1716560670988,804.0615934985531,777.7287895682344
1731016845.424438,805.7179061979912,806.9719265658049,803.9812925003076,780.9334202303365
1731016845.4276388,807.7958309914892,809.4844358593106,803.2526422865948,784.3368703487515
1731016845.431537,808.8375183630163,811.2819361315495,802.5201443259798,786.97799143082
1731016845.4354346,808.8870222277307,812.1702110135465,802.466211386905,789.124415159696
1731016845.4355268,808.3231227365843,812.1679330269254,803.3526149002465,791.5488583197765
1731016845.4393325,807.742673629735,811.3324372053991,804.82639734682,794.1927532680932
1731016845.439992,807.7112347295861,809.6506232643612,806.150720769044,795.6030066415589
1731016845.4432304,808.4703874813935,807.1682311190336,806.7087135734557,793.8905638964202
1731016845.4471283,809.7887727585561,804.2414514471394,806.4050091861558,788.4731631507841
1731016845.4510264,811.0780295908764,801.5827235720283,805.6620054594018,780.9855020514979
1731016845.454,811.6933703235428,799.9287116693455,805.0430001881679,774.4087862642764
1731016845.454416,811.2094373222899,799.5617234694128,804.8445115132863,771.0793860749159
1731016845.4549243,809.5417862511345,800.124403671719,804.9939292617172,771.2313000963741
1731016845.4555457,806.9532064887585,800.9243468323951,805.2741974022714,773.2038243155805
1731016845.4588225,804.0188994364474,801.4664777926944,805.594080470107,774.9796141076187
1731016845.4627202,801.5062809242148,801.7430845708168,806.0289202948012,775.6770691443419
1731016845.466618,800.0787490455787,802.0499127082753,806.6340617548675,775.8427700622483
1731016845.470516,799.9117706691773,802.5354954205441,807.2695991750156,776.529886265282
1731016845.4710996,800.5321419567546,802.9226713223208,807.6396916201096,778.13198233637
1731016845.473305,801.1185291324031,802.676868355331,807.5167067146181,779.9732189858687
1731016845.474414,801.0939086667709,801.4911350897635,806.9410759889926,780.8630986184514
1731016845.4783118,800.5077393898575,799.6576416671151,806.2153998336091,780.0080432917966
1731016845.48221,799.8732734747372,797.964228367058,805.6934706440213,777.5081193359185
1731016845.4861078,799.6803760538367,797.1608374093589,805.5382687398217,774.1580499157435
1731016845.4866536,800.1348948910361,797.4383104561095,805.6477725639689,770.8767654950328
1731016845.489,801.3672846341918,798.3668213396382,805.7958971810747,768.2782422098718
1731016845.4900055,803.7364328325198,799.320021116129,805.8320378026367,766.6002633433912
1731016845.492194,807.6734518928573,799.9637583949855,805.7285961243457,765.8161477430925
1731016845.4939036,813.038552604521,800.361506965044,805.4415492828912,765.6812208969926
1731016845.4978015,818.6345501119935,800.6663930249391,804.7825190511156,765.7166462375683
1731016845.5016994,822.5468716262814,800.7966622362751,803.5176962017813,765.3366862204475
1731016845.5022073,823.2583745861922,800.4831413737627,801.6525394656932,764.2001467945165
1731016845.5055974,820.7245315784489,799.6516233085252,799.6036237594492,762.5639750611316
1731016845.5094953,816.5395113044077,798.7227537992679,798.0177751267429,761.3121827108691
1731016845.511083,813.0147980469944,798.4763187303656,797.3512648014068,761.5548487573813
1731016845.5133934,811.8052363215525,799.5436504812382,797.5902943751926,764.0042453205809
1731016845.5172913,813.0082723449652,801.9237784024973,798.3618099807529,768.4652883956503
1731016845.5177612,815.275943263358,804.8859711448644,799.2790274393548,773.6960190475372
1731016845.5211892,816.7691144300961,807.329775473034,800.1421900090609,777.7371006009075
1731016845.5240002,816.2748088704625,808.3874052487068,800.8299799145527,778.6597444754082
1731016845.525087,813.8069332564321,807.9185076742563,801.1140487789387,775.5138560911078
1731016845.528985,810.4311040435977,806.5871667660995,800.726363770046,769.0681400345527
1731016845.529972,807.5525022919776,805.4264587058818,799.6782252554815,761.8528128448278
1731016845.5328827,806.164813201123,805.1287674653936,798.4635174556067,757.23805574564
1731016845.5333152,806.4719839240865,805.548744711283,797.8294871582904,757.824541859058
1731016845.5367808,807.9845647015958,805.8253057063309,798.2410901130313,763.9733550515806
1731016845.5406787,809.9037895634189,805.0897487932117,799.5187182528157,773.4009381304388
1731016845.544577,811.5216305063669,803.2385222076548,800.9973323841151,782.2162208744544
1731016845.5484748,812.4608970346517,801.1422997321299,802.061299609673,786.8935833991355
1731016845.548861,812.7003030871051,800.0840255384171,802.5592641473412,786.0687908912523
1731016845.548869,812.4033489063229,800.8409052365131,802.7464740950637,781.1401049661184
1731016845.5523727,811.6576272643179,803.1175991551473,802.8765233366381,775.3685847198128
1731016845.5562706,810.333803169771,805.7508179681902,802.8859225957234,772.0261749458415
1731016845.559,808.2396098775582,807.4942586192844,802.4809241511034,772.6510720747593
1731016845.5601685,805.48889260948,807.7726708962662,801.5129821922754,776.3877227071574
1731016845.5640664,802.7290725659958,806.8861970989586,800.250145808405,780.7441141257318
1731016845.5644228,800.8969315843897,805.6240990494198,799.2704447089623,783.2169219233946
1731016845.56775,800.5647417839721,804.6805181916078,799.0694534899702,782.68205090132
1731016845.5679643,801.3697541110221,804.3160864832679,799.7231743575362,779.6834201547897
1731016845.5718622,802.0712832633566,804.4094590654652,800.8683210058425,775.6477164451256
1731016845.57576,801.3407231328196,804.709435412314,801.9697374114975,771.8617512884476
1731016845.5796585,798.7806876925986,805.013045598376,802.6288802730586,769.0574925219889
1731016845.5799768,795.3969685501958,805.1703000730602,802.7234181893314,767.6976249182642
1731016845.5835562,793.0884436927012,805.0329933745527,802.3660673903933,768.3259321324392
1731016845.5866392,793.4543184109731,804.5026597042187,801.7996134058574,771.3757899875544
1731016845.587454,796.7602486368254,803.675550232322,801.3001450685646,776.5449112401303
1731016845.591352,801.790308321422,802.9188472866775,801.069052407366,782.4577467716888
1731016845.594,806.6248956693807,802.7330686959565,801.1189295967524,787.1772921698342
1731016845.59525,809.7124674825815,803.4525167357167,801.2543194335498,789.331417549211
1731016845.5955307,810.5050418461358,805.0104933784405,801.2234122314835,788.9777609239636
1731016845.5991478,809.4125344451334,806.9672468775993,800.9358282593313,787.4865838199463
1731016845.6030457,807.3782086905926,808.784723283984,800.5317356986936,786.5292013878861
1731016845.605528,805.4879867181309,810.1300101275701,800.235099516339,786.961874832045
1731016845.6069436,804.7159279930027,810.9823998203004,800.161386196799,788.386434692643
1731016845.6108418,805.6316299117968,811.5055665682863,800.2673136057878,789.5548090739626
1731016845.6110845,808.0169192790214,811.8449182961378,800.4388841901877,789.1786147823378
1731016845.6147397,810.714527413807,812.0358776325102,800.5910242603105,786.576206554928
1731016845.6186376,812.1383475859236,812.0579950696268,800.7005183334693,781.8963610419569
1731016845.6225357,811.3962932115165,811.9228622196755,800.7840330387525,776.0324956324373
1731016845.6244173,809.2494805425481,811.6932832301508,800.864570623106,770.4625894767614
1731016845.6264334,807.9241171989913,811.4411091293682,800.9533575554264,767.055807550383
1731016845.6266384,809.5393578843449,811.2075725957521,801.0495044566014,767.6178018464818
1731016845.6290002,814.1548419274619,810.998364635385,801.1474586644451,772.9992712199304
1731016845.6303313,819.0798844137167,810.8014483134473,801.2431306745545,782.1074517379358
1731016845.6342292,820.3396778838444,810.6050516891937,801.3356164115523,791.6810507258606
1731016845.638127,815.4551741696782,810.4049947862769,801.4259483436548,797.4901410815899
1731016845.642025,805.430364675019,810.2030163364055,801.5153492115896,796.5864614029625
1731016845.6421924,794.3204161437214,810.0023302942773,801.6043628807805,789.2019366611136
1731016845.6433065,786.6758435141483,809.8047852253072,801.6929052020973,778.8852779158981
1731016845.6459231,784.8055890576921,809.6104931226149,801.7806785089583,770.5941272955948
1731016845.649821,787.7650424280947,809.4187533774227,801.8674834094506,767.8670111259233
1731016845.6537187,792.4950749174342,809.2289566945783,801.9532916038645,770.8731783170069
1731016845.6576169,796.0207810272047,809.040915779026,802.0381704761626,776.6206520714284
1731016845.657746,797.1614188042809,808.8547430691981,802.1221910891019,781.1854068310647
1731016845.6615148,796.8316142667592,808.6706101938213,802.2053865436251,782.4178912064754
1731016845.6621952,797.0379168524094,808.488606895441,802.2877580224555,781.2195010103623
1731016845.664,799.3977736813902,808.3087308592776,802.369297555628,780.5198716241537
1731016845.665413,804.1190243257972,808.130940165141,802.4500037033739,782.7962368418614
1731016845.6693106,809.9523388014406,807.9551998807292,802.5298842966993,788.0511692965127
1731016845.6732085,814.9777596224579,807.7814970175069,802.608951815021,793.7621877579734
1731016845.6733,817.6112399770632,807.6098325369462,802.68721854452,796.7481406577477
1731016845.6771066,817.2110813923849,807.4402084921685,802.7646949698508,795.4224014620087
1731016845.6810043,814.0735147449387,807.2726211396844,802.8413909846726,790.7220548612207
1731016845.6810842,809.0403413090863,807.1070609637391,802.9173176391172,785.2051776852097
1731016845.6849024,803.061052413321,806.9435156791328,802.9924871832465,781.2740260723237
1731016845.6888003,796.904696433936,806.7819725871653,803.066910572801,779.9460534655243
1731016845.688854,791.0681825518931,806.6224190408161,803.1405940641879,780.8377526255872
1731016845.6926982,785.8708890003795,806.4648416691839,803.2135390912493,782.9443264626816
1731016845.696596,781.6555858008545,806.3092256317373,803.2857497219605,785.3780503780389
1731016845.699,778.9175501877235,806.1555548274282,803.3572465182584,787.6215041306059
1731016845.699973,778.1975272301997,806.0038131026885,803.4280749205085,789.4428255318699
1731016845.700494,779.7516285922204,805.8539853840424,803.4982886830564,790.7967008755074
1731016845.704392,783.2029583257034,805.7060568775003,803.567899414168,791.7732048285508
1731016845.7044077,787.4263495392074,805.560009133162,803.6368206656686,792.4228081142996
1731016845.70829,790.8167334382609,805.4158147584819,803.7048806241869,792.4494453797561
1731016845.712188,791.9189847158749,805.2734367786638,803.7719759282636,791.1300107773152
1731016845.716086,790.188065729497,805.1328397427205,803.8383301820144,787.8169022763013
1731016845.7188623,786.4608296549765,804.994011983817,803.9046202255852,782.7970810913455
1731016845.7199616,782.7296897012934,804.8569814617213,803.9716111686718,777.6847523895043
1731016845.7199838,781.1666627110142,804.7217936637982,804.0391790971098,774.7066945202624
1731016845.7238815,782.9069467435562,804.5884333949488,804.1053298944303,775.2183423369459
1731016845.7277796,787.4021790057498,804.4567297531679,804.1666354683067,778.6286796522717
1731016845.7316775,792.8301841920629,804.3263601526913,804.2213338463305,782.6945426851568
1731016845.734,797.2770322053478,804.1970789617982,804.274121429027,785.0029211196979
1731016845.7355156,799.8306883370874,804.0691363688818,804.3379192464022,784.4663023207362
1731016845.7355754,800.8481298443498,803.9435309415983,804.4260426627536,781.7158077813023
1731016845.7377512,801.3503756257663,803.8215081425644,804.5334614815018,778.2694371924455
1731016845.739473,802.1459885486573,803.7030335418823,804.6200259654105,775.349092360942
1731016845.7433715,803.3732394207378,803.5851000478807,804.6229751564613,773.3740946956597
1731016845.7472694,804.6966423395818,803.4621094983241,804.5203859092403,772.3943064004056
1731016845.7510693,805.8391670482457,803.3305247928058,804.4239710770846,772.7684190967212
1731016845.7511673,806.9312843808883,803.19669225142,804.6147014739772,775.169701953594
1731016845.7550652,808.4083234236334,803.080660367098,805.4226687329212,779.7719959328174
1731016845.7566402,810.6023441590246,803.0051082615778,806.9709064180805,785.4631279470725
1731016845.758963,813.3946318213874,802.9656506318605,808.9731242578346,790.0713796633718
1731016845.762861,816.2012261547283,802.9007500853886,810.7789920505143,791.6630545464328
1731016845.7666233,818.2968889133127,802.7037408937583,811.6600415996943,789.9060155722693
1731016845.766759,819.2466547591866,802.3131528755998,811.1541994521988,786.3636875752399
1731016845.769,819.1417494886331,801.8471484329178,809.2892508270693,783.4853442238967
1731016845.7706568,818.4719723985049,801.6438051363418,806.6073489581096,783.1050273763278
1731016845.7745547,817.7401623380227,802.0747314855344,803.9996566897707,785.5271297735234
1731016845.7755294,817.140817446746,803.2102855377371,802.4009798867705,789.6502948763234
1731016845.7784529,816.583458718799,804.6350397885408,802.4234200725393,793.7578763509136
1731016845.7821772,816.0345124006357,805.6445632562442,804.0692856940068,796.3237289894829
1731016845.7823508,815.8257583016951,805.7295392217962,806.7115673006713,796.5072717402093
1731016845.7862487,816.5496766560497,804.9873023314742,809.4301818715809,794.3799580585252
1731016845.7901466,818.5223256709376,804.1222070052328,811.5194154085796,790.9095132650816
1731016845.7940445,821.256615048257,803.9827007349386,812.7769046166895,787.553689845404
1731016845.7944183,823.4933789775462,804.9230348977535,813.3352740943606,785.4661678962857
1731016845.7977307,823.9044973393534,806.4259292498524,813.2326221291437,784.7732825865227
1731016845.7979424,821.9664649003105,807.2825643007724,812.1902321218347,784.5543561282772
1731016845.8018403,818.299710150708,806.2951917501003,809.8568110874817,783.6600140039486
1731016845.804,814.2089813725796,803.1278127429003,806.297013336006,781.7231783734662
1731016845.8057382,810.8377454092347,798.7595930869431,802.2469219649489,779.4623969827163
1731016845.8096364,808.616549419482,795.1373753178356,798.8616086491252,777.9764674236352
1731016845.8132849,807.3181806065476,794.0927113702895,797.1067863137657,777.649894449771
1731016845.8133073,806.4558482030225,796.1437445575099,797.2119792735126,777.6625446421373
1731016845.8135345,805.5702773361049,800.017406502326,798.5406702355039,776.5749457289985
1731016845.8174322,804.2666260063031,803.3322886000452,799.9538412503957,773.5234014069206
1731016845.82133,802.2365394774702,804.0750611416285,800.4485832975616,769.0361889892719
1731016845.825228,799.4744824887999,801.8814284856188,799.6924270595742,764.8030267893356
1731016845.8288388,796.5312588648301,798.2237204780376,798.129171801367,762.5857994792043
1731016845.829126,794.4271312672707,795.3855861186514,796.5986294251802,763.1142936171652
1731016845.8321965,794.094212642863,794.9723268663945,795.738647395783,765.7511520092115
1731016845.8330238,795.7068804286741,796.9968518905295,795.5810101759939,769.0538105209212
1731016845.8369217,798.4656029327139,800.1086768853595,795.5961033472341,771.7031160300455
1731016845.839,801.0735585455145,802.6916217589803,795.1203504719235,773.1241565695024
1731016845.8408196,802.5701923273107,803.9743383924671,793.8635561095681,773.501209274438
1731016845.8443928,802.8853466071981,804.3778080355188,792.169241850966,773.373266044808
1731016845.8447175,802.7144867576939,804.9649659667924,790.8543610055503,773.2037229814399
1731016845.8486156,802.8745506165008,806.5371979835494,790.6996311198502,773.1880501778429
1731016845.8510854,803.7067048507635,809.1075186417072,791.9034442925214,773.3045323436482
1731016845.8525136,805.0153021020542,812.0673941137708,793.8971235122627,773.4581906576117
1731016845.8564117,806.5364921831041,814.753324292772,795.7068247084349,773.5840030141638
1731016845.8599465,808.4313415276243,816.8442304424809,796.6247771351168,773.6711165388294
1731016845.8603094,811.2497840902004,818.2814192973583,796.6717446362869,773.7389413305132
1731016845.8642073,815.3007897781797,818.9132691482971,796.4886117607649,773.8078141330582
1731016845.8681052,819.9676860160621,818.3328154911786,796.7753277151197,773.8857607651711
1731016845.8699744,823.6467990875601,816.156595693364,797.7575408521072,773.9704827585551
1731016845.8720033,824.5070840942916,812.5208410605782,799.0855235591807,774.056657253857
1731016845.874,821.601674198056,808.3127836258191,800.1708733654601,774.1409629908736
1731016845.8755004,815.5777558978932,804.8483776649535,800.6345085459477,774.2229896825241
1731016845.8759012,808.5011786730436,803.1628164799577,800.5356574895087,774.3038101528674
1731016845.8797991,802.8692559088513,803.3991854003431,800.2971584378676,774.3844401877934
1731016845.883697,800.3554676335441,804.715912313948,800.4669794981071,774.4652125130028
1731016845.8875947,800.9813087862063,805.7627977403824,801.486120004301,774.5459348735573
1731016845.8888636,803.1823373456855,805.4056947328497,803.5237208206095,774.6262863857179
1731016845.8910544,804.7298819245952,803.2789113902662,806.3637969477069,774.7060686669518
1731016845.8914928,803.960458933597,799.9192739837868,809.3728514716083,774.785237646862
1731016845.8953907,800.5871323981333,796.4825071797412,811.6544430984648,774.8638212469416
1731016845.899289,795.6728855538528,794.1976326251827,812.4422556794856,774.9418394535253
1731016845.9031866,790.9235940033823,793.7838637791865,811.5704270860945,775.0192753729111
1731016845.906608,787.8482369800058,795.0868444297969,809.6849849248483,775.0960862974454
1731016845.9070845,787.2392614258445,797.1456754057775,807.9561897093325,775.1722250661525
1731016845.9077525,789.0311645680514,798.7131086325938,807.4047431453106,775.2476525141404
1731016845.9090002,792.3689228022589,798.9766072591455,808.2750576168933,775.322338323129
1731016845.9109826,795.8440792104317,798.0542667647724,809.8919590164987,775.3962563646758
1731016845.9148805,798.0079835964214,796.9282676369327,811.1119277624526,775.4693805949967
1731016845.9187784,798.0817677988034,796.8143343513052,811.072375101825,775.5416837604456
1731016845.922162,796.4153990091922,798.3412823136566,809.7426827408151,775.613138127938
1731016845.9226763,794.246102967619,801.0675532875988,807.9238470445209,775.683716636833
1731016845.9265742,792.8458131685711,803.6659477934593,806.7246011100002,775.7533935192085
1731016845.9266417,792.7105696249416,804.6765225435289,806.8815851515569,775.8221443105512
1731016845.930472,793.4095854495607,803.3488651218436,808.3487326165219,775.889945597744
1731016845.93437,794.1079309952778,800.0426352201812,810.3561843915203,775.9567748171224
1731016845.937716,794.2392172755017,795.9785979785573,811.8444883052218,776.0226102052852
1731016845.938268,793.8234354654938,792.579330168495,812.0130000661012,776.087430850895
1731016845.942166,793.347706697089,790.848502797678,810.713996330271,776.1512167616737
1731016845.944,793.4466040998019,791.0830756977573,808.5120341091165,776.2139488997791
1731016845.945531,794.5903510756879,792.917350942146,806.3730083732721,776.2756091847706
1731016845.946064,796.825152112496,795.5575105209219,805.1298383425672,776.3361804836557
1731016845.949962,799.6010588391558,798.1129861030438,805.0193658923945,776.3956466040661
1731016845.9532695,801.8432169693332,799.9667425274129,805.5818976389434,776.4539922951245
1731016845.9538598,802.4019842162616,801.0420645693423,806.007746240841,776.5112032527737
1731016845.9577577,800.7391346695725,801.7655371340279,805.7094988604376,776.5672661249997
1731016845.9616556,797.4046635856741,802.6799351067262,804.7227055625578,776.6221685146254
1731016845.9644196,793.8777085752046,803.9549597984309,803.6551277524994,776.6758989797679
1731016845.9655535,791.7620826523013,805.1823878222742,803.2392882466974,776.728447033107
1731016845.9688237,791.8403752890621,805.6420728655299,803.8251945346561,776.7798031410032
1731016845.9694514,793.6673685298167,804.8411244390103,805.1628935277278,776.8299587229425
1731016845.973349,796.0096107696874,802.9031436315105,806.586135537698,776.8789061511449
1731016845.9772477,797.7513172274093,800.5116029605556,807.4238041021671,776.9266387495073
1731016845.979,798.5141827870057,798.4720004597067,807.3436931623592,776.9731507906198
1731016845.9811454,798.593935510146,797.2469752542468,806.4374520419337,777.0184374900925
1731016845.9833086,798.4854119482558,796.8091337324419,805.0708867236465,777.0624949994979
1731016845.9843776,798.49966246867,796.870713915189,803.6597606031238,777.1053204021277
1731016845.9850433,798.6873393081698,797.2343329962534,802.5032558289871,777.1469117164833
1731016845.9889412,798.9597377362038,797.9346289383138,801.7101205650436,777.1872679070185
1731016845.992839,799.2250581721086,799.0687612247574,801.2139300449694,777.2263888898462
1731016845.996737,799.4479860430765,800.5313971997857,800.8784221438156,777.2642755115098
1731016845.999931,799.6397072974131,801.9718222382099,800.6453160687448,777.3009294883966
1731016846.000635,799.8244646105939,803.0693429386902,800.6016263225034,777.3363533344855
1731016846.0021975,800.0169927853462,803.8816740080766,800.8805831801501,777.370550358195
1731016846.0045328,800.2187507567156,804.8899154021803,801.4751537950485,777.4035248152009
1731016846.008431,800.42459413406,806.5948844261765,802.153548965553,777.435282192012
1731016846.0123289,800.6297683732943,808.9400308455276,802.5801043081931,777.4658293710139
1731016846.0140002,800.8326709427005,811.0788803597023,802.554677348168,777.4951742687513
1731016846.0154853,801.0340692461017,811.8102239266549,802.1861800605581,777.5233247629069
1731016846.0162268,801.2352838562316,810.4637364789342,801.8750283393526,777.5502875121263
1731016846.020125,801.4370621372738,807.5571046714489,802.1028109032477,777.5760682295141
1731016846.0210867,801.6394523331904,804.6054200702068,803.1238436388584,777.6006749274292
1731016846.0240226,801.8421863510031,803.0988539265385,804.7129672629583,777.6241233445365
1731016846.0279205,802.045042183236,803.3986019749643,806.1453497318182,777.6464395465807
1731016846.0310392,802.2479714228224,804.4660600695177,806.508613928048,777.6676521564189
1731016846.0318184,802.4510462835718,804.698081912232,805.2405621656318,777.6877717362869
1731016846.0357163,802.6543617083437,803.2016833719574,802.5625793380534,777.7067702356746
1731016846.0396142,802.85797815126,800.4587790393799,799.4615171289763,777.7245904524012
1731016846.0399756,803.0619163564999,797.8792765208281,797.1553526203035,777.7412115505704
1731016846.0435123,803.2661781685067,796.7078054806497,796.3672576509757,777.7567497369814
1731016846.046593,803.4707691679369,797.2326078178045,796.9011229809122,777.771494365061
1731016846.0474102,803.6757137631789,798.848144271188,797.8136595267756,777.7857413070077
1731016846.049,803.8810600052905,800.7077495863407,798.0719995319912,777.7993968710497
1731016846.0513082,804.0868679108097,802.2657690268312,797.261063164513,777.8116236476639
1731016846.055206,804.2931754120814,803.28950740409,795.8634951899926,777.8210987145893
1731016846.0588646,804.4999547453705,803.5431419765646,794.906295763137,777.8273211376179
1731016846.059104,804.70710474232,802.6604148957091,795.2051882443211,777.832459945227
1731016846.062147,804.9145366201242,800.4534011422094,796.7508534001832,777.8417730520108
1731016846.063002,805.1223538212226,797.3693356925291,798.703553234598,777.8600922116738
1731016846.0668998,805.3309907310422,794.5653063959023,800.0044419070656,777.8842645322917
1731016846.0707977,805.5410547242832,793.3709175072556,800.1269763351354,777.89717233699
1731016846.0746958,805.7527074702615,794.4717104848545,799.3929062108573,777.8741117339869
1731016846.0777009,805.9648732912614,797.444076864139,798.6452958110874,777.8086312393369
1731016846.0777538,806.1751956920577,801.0209537527643,798.5767469478552,777.7460206659766
1731016846.0785935,806.3817977506668,803.8783373693803,799.2355116087266,777.7857229633129
1731016846.0824916,806.5866805542074,805.3260117182068,800.0401056332344,778.0073442229333
1731016846.084,806.79799338044,805.4260184504998,800.2358290039789,778.3246438521699
1731016846.0863895,807.0263819338223,804.6099463897142,799.4423489947254,778.3786009258666
1731016846.0902874,807.2728770932101,803.285232042637,797.9353229434821,777.6595502933922
1731016846.0932548,807.5147379492581,801.8003454208629,796.5182263574849,775.9315163592418
1731016846.0941854,807.7072062788911,800.6379701206748,796.0934038215202,773.6686117381214
1731016846.0966427,807.82000901595,800.4050540818741,797.1841011685134,771.9884651802931
1731016846.0980833,807.9025010537956,801.4432322323419,799.6551199331199,771.9688763155614
1731016846.1019812,808.1233928707406,803.3982119214091,802.7728460581825,773.92233246728
1731016846.1058793,808.7017486390777,805.2522148733364,805.5812127519489,777.2699036799725
1731016846.1088085,809.7104056949752,805.9250620046663,807.3889120990741,781.0166165081827
1731016846.1097772,810.903615066506,805.0046091613754,808.0659584444941,784.3163142634717
1731016846.113675,811.8070250477126,803.0305637706736,807.9668562842876,786.7303804670543
1731016846.1155317,812.0901158571594,801.1263159010487,807.5909085290455,788.2069149783139
1731016846.117573,811.9026099766877,800.2729347411663,807.2755786732706,788.9814300479687
1731016846.119,811.8353065345278,800.7392191709657,807.1118205574742,789.4300737636175
1731016846.1214707,812.4997567937925,802.0199870730445,807.0388222505585,789.784036669412
1731016846.1243625,814.0281005966432,803.2654729994534,806.9721167114578,789.8166359237885
1731016846.1253688,815.8262472895091,803.8646407718879,806.8710086585045,788.8615987275982
1731016846.1292667,816.7446020144645,803.7717087710841,806.7394200954353,786.3385483874076
1731016846.1331646,815.6278917809351,803.3818937293697,806.5981199227665,782.4040604630424
1731016846.1344209,812.0322876902587,803.1117367612159,806.4621780624791,778.0591749448038
1731016846.1370623,806.7419549001626,803.0519204913966,806.3348086554819,774.4848901080478
1731016846.1399164,801.6680881897828,802.9694192631357,806.2121228702924,772.167079547872
1731016846.1409607,798.9725778491545,802.6256663924543,806.0896071492921,770.65210012557
1731016846.1448586,799.8246962023185,802.1119467596378,805.9652972025757,769.185869884081
1731016846.1487565,803.6353981739444,801.8972673486512,805.8395491455736,767.6105652364142
1731016846.1526544,808.3935346562695,802.5253366366312,805.713491152563,766.6208349359229
1731016846.1533098,811.9013724597925,804.1746842997227,805.5878754195934,767.0858868792257
1731016846.154,813.0010223796999,806.4008230852764,805.4628195452157,769.0322424900116
1731016846.15547,811.9630977088999,808.2692539723935,805.3380919608578,771.2340533972736
1731016846.1565523,809.9511635451911,808.853363522703,805.2134531407513,771.8821057947007
1731016846.1604502,808.1476722436561,807.8234939050287,805.0888077404196,769.9112506642373
1731016846.164348,807.1915160161103,805.7239810733049,804.9641800387433,765.9783401798239
1731016846.168246,807.1452682373971,803.6783278755091,804.8396277297434,762.2764305267294
1731016846.171024,807.763451172517,802.6752930075885,804.7151819735684,761.2236267785063
1731016846.172144,808.7123211054567,802.9564163136944,804.5908365489493,763.9178965373741
1731016846.1721988,809.5913676446654,803.9701883342594,804.4665681301437,769.430883174133
1731016846.176042,809.889137987543,804.8861134248918,804.3423625108436,775.4049277292429
1731016846.17994,809.1027771420805,805.2079447575613,804.2182292655905,779.5083787888914
1731016846.183838,807.0614194834325,805.0024111101044,804.0941943361493,780.7504620074221
1731016846.186578,804.2017494802936,804.6574924539642,803.9702676076782,779.8148798124524
1731016846.1877358,801.4754993792027,804.4938890548864,803.846400730246,778.3061398158816
1731016846.189,799.8433265760942,804.5807326287044,803.7224779115522,777.572431322439
1731016846.191088,799.6817166618556,804.8096329767467,803.5983916968635,777.9836082334505
1731016846.1916337,800.541992290581,805.0515915343748,803.4742046311479,779.0540899769096
1731016846.1955316,801.4498195458793,805.2454547715196,803.3502765621066,780.0750860496063
1731016846.1994295,801.5395915735003,805.3961847315513,803.2271283465732,780.6191857288853
1731016846.2021315,800.5926809665539,805.5336633064259,803.1048911890822,780.6098932254368
1731016846.2033274,799.1407803860989,805.6796934119401,802.982592460176,780.171660005974
1731016846.2072256,798.1044051109473,805.838953577934,802.8580990033088,779.603436559226
1731016846.209977,798.2201596312282,806.0058388582246,802.7296723868085,779.466373899325
1731016846.2111237,799.5950757439188,806.173835706371,802.5990138436945,780.4467676762575
1731016846.2150214,801.622577965654,806.3401217952566,802.4733498212739,782.8296707120031
1731016846.2176857,803.3101952541422,806.5052371675462,802.3622573557843,785.9552539781274
1731016846.2189193,803.8702118563375,806.6708417102717,802.2668773707227,788.2924072558769
1731016846.2228172,803.247803648252,806.8380510724443,802.1671324001891,788.3431952025043
1731016846.224,802.2138724224012,807.0070609270598,802.0229864766425,785.8017017376771
1731016846.226715,801.8630245566513,807.177559742576,801.8068613229472,781.9943343492396
1731016846.228866,802.7829826452709,807.3492225005575,801.5623945332947,779.088549282111
1731016846.230613,804.4923177407352,807.5219306027592,801.4420785887768,778.5604421348862
1731016846.2332397,805.6426138590751,807.6957365882355,801.65031465013,780.1091170493297
1731016846.234511,804.9354613763252,807.8707412780516,802.2776943561123,781.9419131821527
1731016846.2384088,802.1174373205889,808.0470103794208,803.1627387297136,782.2676977134031
1731016846.2423067,798.2989900391308,808.2245606188555,803.9683751361619,780.8098449025006
1731016846.2462049,795.3433165002709,808.403384495151,804.4348798672266,779.0938790502711
1731016846.2477553,794.7827751896637,808.5834752187122,804.5296578248862,779.2711660368102
1731016846.2487934,797.0308101725557,808.7648342043449,804.3531876040718,782.4419113693768
1731016846.2501028,801.3384600832906,808.9474649400457,803.9936567881952,787.7940237843732
1731016846.254001,806.3495377095217,809.1313666448955,803.5476056153617,793.133613085307
1731016846.2578986,810.7636022581062,809.3165385505182,803.2314462133194,796.2729166687622
1731016846.259,813.7137801026583,809.5029944948134,803.3403535356822,796.2095333983473
1731016846.2617965,814.8016878748261,809.6907728919931,803.9978448596628,793.3944593194525
1731016846.2643473,813.9913045683527,809.8799190100591,804.9367229472075,789.1700386979974
1731016846.2656944,811.5754790904623,810.070429799776,805.5804034867648,784.95555184549
1731016846.266644,808.2287038019075,810.2621938307591,805.4016403129594,781.6889136457085
1731016846.2695923,804.9543214264054,810.4550082735171,804.2543421893586,779.6692654970982
1731016846.2734904,802.7540388854461,810.648750472789,802.4156776469181,778.6819523996253
1731016846.2773883,802.117706203357,810.8436593121529,800.3678067854456,778.2405105352224
1731016846.2799013,802.6948961776502,811.040462606676,798.5516066253851,777.8284527002071
1731016846.2812862,803.4695837980086,811.2399609278635,797.258879829607,777.0742517777759
1731016846.285184,803.4022242216004,811.4419516869416,796.6458315034627,775.8501427559883
1731016846.285533,802.1280838532845,811.644181879467,796.7689093126378,774.3277799199388
1731016846.289082,800.2258674711909,811.842888106072,797.5865909062933,772.9950973381781
1731016846.29298,798.8582016202448,812.0362386898572,798.9321082340248,772.5730335107907
1731016846.294,799.0165695871268,812.2295061407056,800.4966788694459,773.7849629872616
1731016846.2954552,800.8695434388394,812.436691715129,801.8792017124839,777.0477175471901
1731016846.296878,803.6414932664601,812.6713665637043,802.7312706284188,782.2400948594953
1731016846.3007758,806.1002488418595,812.9252237927604,802.9431129111427,788.6596917064536
1731016846.304422,807.3326303178616,813.147633054956,802.7515536775413,795.1721626741179
1731016846.304674,807.2846346994489,813.2523721978745,802.6846865860837,800.5112566601157
1731016846.3085718,806.6849729158704,813.1627991381611,803.3532030901513,803.6805700333693
1731016846.3110087,806.4034980930144,812.8519492938699,805.1606864897934,804.3268797580453
1731016846.3124695,806.7352283894625,812.3015825858786,808.025808259828,802.8452922792134
1731016846.3163676,807.1842148766543,811.3907152801753,811.2457287849243,800.05800676349
1731016846.3202655,806.9247927045772,809.8713737282903,813.653479248823,796.64162052606
1731016846.323311,805.5377774882775,807.5718159172203,814.1131745927441,792.7554656081882
1731016846.3241634,803.3669299275597,804.7157737904332,812.1460498862327,788.1915518601734
1731016846.326563,801.1744084778891,802.0256847039271,808.2939468430145,782.9006094366508
1731016846.328061,799.4213317097292,800.3920015005572,803.930045871684,777.4099264668636
1731016846.329,797.8721000531781,800.2917965928473,800.5870353673496,772.7545145298956
1731016846.3319592,795.9428245988026,801.4352440868711,799.2019516851193,769.9471190430079
1731016846.3358572,793.496857629545,802.9728873359038,799.7126574557955,769.3466196288897
1731016846.3397553,791.295610317325,804.1059000513675,801.1871513522805,770.3476017171405
1731016846.3421168,790.5624588039732,804.5722599509606,802.3509146512756,771.6335011411177
1731016846.3422,791.9505061605245,804.6110052127309,802.213891826747,771.9081160913174
1731016846.3436532,794.8467114072982,804.5226050970969,800.5207616027486,770.6809752515071
1731016846.347551,797.7257229615815,804.3287205254171,797.855146513659,768.5632428200714
1731016846.351449,799.3206364485754,803.885401361158,795.3482480112133,766.81494733891
1731016846.355347,799.5820024562986,803.270621667747,794.0911735203881,766.428348958677
1731016846.3576703,799.5449547455582,802.9295460387499,794.5253243435981,767.3960518495285
1731016846.3592448,800.2263609987697,803.3131142999925,796.1703849180097,768.6798337572033
1731016846.361089,801.5943879125317,804.3378243269179,797.9047714750864,768.894027509059
1731016846.3631427,802.6010644914223,805.27211620967,798.6646344998416,767.2494873131961
1731016846.364,802.2693090311767,805.2723861978145,798.1136430621284,764.1632046446252
1731016846.3670406,800.810493511195,804.1183406610122,796.8251732753733,761.150459704534
1731016846.3709388,799.6772073370944,802.4433715911838,795.859266703007,760.0397135223756
1731016846.3732245,800.4161873354999,801.2147108816401,796.0592759709103,761.9697822121053
1731016846.3748367,803.3026212435642,800.9417363246722,797.5767392001942,766.7881448877919
1731016846.3787346,806.9734891969804,801.346638485142,799.9031876276279,773.2057200313159
1731016846.3799782,809.4082781692247,801.7640752677389,802.26238215455,779.5261288236261
1731016846.3826325,809.4354362586455,801.8272896114711,803.9957660340149,784.4047669032053
1731016846.3865304,807.537636660596,801.7601807063345,804.7287346825459,787.2290785512045
1731016846.3887784,805.3940881043543,802.0407195918139,804.3946246902115,788.1347813314324
1731016846.3904283,804.6444200898394,802.8465735900527,803.2636830060333,787.8640771086899
1731016846.3943262,805.8556808451923,803.8685728238838,801.9457819151775,787.4914237968699
1731016846.398224,808.3364212745943,804.6248247604625,801.2094293021428,787.9145742559673
1731016846.3988671,810.7375673766913,804.8736596382056,801.5961746762584,789.2680130260736
1731016846.3990002,811.9163649654733,804.717793224799,803.0577417970343,790.7517462556618
1731016846.402122,811.5246532938429,804.4117321173517,804.90390241068,791.2115452300425
1731016846.4043322,810.0490530558201,804.1448443965397,806.1387382426428,790.1378031306929
1731016846.4060202,808.3665048834029,803.969471664796,805.9777874977924,788.2300970063299
1731016846.409918,807.1589219600938,803.849359447132,804.2257782883042,786.9319823883611
1731016846.413816,806.5976010302547,803.7337872040222,801.3271003077685,787.24822494266
1731016846.417714,806.449165552927,803.5978056759649,798.13777707494,788.8724911628756
1731016846.417756,806.3922783232025,803.4432133102854,795.598303784839,790.4250295562582
1731016846.419886,806.2433259185872,803.2821931224429,794.4404820271643,790.5804093786792
1731016846.4216118,805.9844048309784,803.1237682265643,794.9664233508474,789.0532723974399
1731016846.4255097,805.6773476484201,802.9699473436302,796.9381494978579,786.6327577228886
1731016846.4294076,805.378748181549,802.8184487273185,799.6692003170443,784.4448440252969
1731016846.4333055,805.107296049091,802.6665512868468,802.3516544493414,783.280263773249
1731016846.434,804.8536105883292,802.5130244255877,804.4558392649457,783.4781754740624
1731016846.43544,804.6020690682521,802.3580264177625,805.9075250091165,785.0382484337842
1731016846.4366453,804.3441096305419,802.2021932103396,806.8859161664285,787.4350124900748
1731016846.4372036,804.0795441801708,802.0459487049353,807.4290052528787,789.2949400145677
1731016846.4411016,803.8118929193287,801.889341293565,807.2516998589166,788.7166734032154
1731016846.4449997,803.5440629757875,801.7322087148335,806.0123947458084,784.5650024648295
1731016846.4488974,803.2768746674097,801.5743808001334,803.8184871222408,777.8539558241392
1731016846.4509938,803.0097324865719,801.4157714633675,801.4696154890249,771.7693367271072
1731016846.4527953,802.741798571534,801.2563654717117,800.1194645862084,769.8462224166079
1731016846.4555342,802.4726486841206,801.0961688623596,800.5510092468971,773.5217232902492
1731016846.4566932,802.2022955832052,800.9351761827005,802.6252495497621,781.0400367885471
1731016846.4605913,801.9309258890835,800.7733667906914,805.3412209481088,788.6820056054439
1731016846.464489,801.6586789068589,800.610715107152,807.4576128935169,793.384987343691
1731016846.4665475,801.3855829697006,800.4471957206183,808.2074146798875,794.683141232239
1731016846.468387,801.1116000641578,800.2827762117261,807.6195598465276,794.5009860526259
1731016846.469,800.8366876238443,800.1174073411495,806.30961412589,795.1335560653929
1731016846.472285,800.5608244373728,799.9510308045976,804.9891672919829,797.1976375801663
1731016846.4744232,800.2839996956329,799.7836175328075,804.0671245633941,799.2282867953646
1731016846.4761827,800.0061940400044,799.6152181000447,803.5457806446462,799.0853660194869
1731016846.4800808,799.7273830985047,799.4459649911144,803.1655187495186,795.7992681318802
1731016846.4821017,799.447572527162,799.2759585494863,802.6371023835936,790.2708840134836
1731016846.4839787,799.1668369688159,799.10504859568,801.8397516130018,784.4428884182089
1731016846.487877,798.8853033817119,798.9326916246197,800.9305528438151,779.9446614059153
1731016846.4917746,798.6030305728417,798.7581919071845,800.3212814623006,777.4491460539604
1731016846.4933124,798.3198269750972,798.5814852915755,800.4816217588667,776.9843077158843
1731016846.4956725,798.0351927457314,798.4040460070324,801.6123091957509,778.4078223592862
1731016846.4976554,797.7486357863512,798.2287611950884,803.3766424713142,781.2975606483096
1731016846.4995704,797.4603973797964,798.0575859319273,804.9343714681721,784.4638679108858
1731016846.5034685,797.1720749844261,797.8874426436597,805.3644814446895,785.970578709783
1731016846.5040002,796.8861000087203,797.7079947501066,804.2644845510539,784.1272062912252
1731016846.5073664,796.60331088644,797.5070100549231,802.1202690565678,778.8064897864904
1731016846.5112643,796.3196229825654,797.2855631470862,800.1475930534087,771.8510470527924
1731016846.5122013,796.0254381410564,797.0739610715431,799.6552760324192,765.9687397633171
1731016846.513209,795.7122858999817,796.9259918208272,801.3065617953996,762.8540204779686
1731016846.5151622,795.3866334196246,796.8704586003282,804.7253837017378,762.0547113182324
1731016846.51906,795.0802931440279,796.8318159148671,808.6750559596943,761.5476205505295
1731016846.522958,794.8377698580919,796.588210814494,811.6830519745776,759.5384687671592
1731016846.526856,794.6683021877691,795.8588398625417,812.7306095961499,755.9538225723326
1731016846.5287633,794.4853345608996,794.5316628178132,811.640023445062,752.4024389041691
1731016846.530754,794.1042830275394,792.8904674033661,809.0398366051301,750.7598057852942
1731016846.5310905,793.3777814878123,791.6410619511292,806.0351625498112,751.6913836941196
1731016846.5346518,792.4498980971749,791.6567852527182,803.7676678764984,754.345607233328
1731016846.53855,791.921750189181,793.5493720633254,802.9823701610542,757.3040694015575
1731016846.539,792.6372222040704,797.2830114652969,803.7127012602871,759.795094473225
1731016846.5424478,795.0543614587167,802.0507971998114,805.2565711924926,762.0844133785658
1731016846.5443172,798.6428485706373,806.5224811784303,806.5546423546016,764.8058748224654
1731016846.5463457,801.9221379423523,809.3762520918852,806.8206495561975,767.957326045473
1731016846.5499792,803.3093290155253,809.8534574842172,806.0236231337738,770.5413874719146
1731016846.5502436,802.2238339696576,808.0524123582362,804.8642259524523,771.2169809939713
1731016846.5541415,799.5859584157898,804.827076173866,804.2432166882445,769.4091360465031
1731016846.5580394,797.273635307894,801.3697806630561,804.6069236533779,765.9003449305407
1731016846.559871,796.9093778107518,798.6981057428299,805.6500709237202,762.3666290893149
1731016846.561937,798.8568344891067,797.2763568941394,806.5799056633149,760.2366647768824
1731016846.5658352,802.1211899504997,796.9154245698174,806.7183301449818,759.8160885384773
1731016846.5688684,805.1524856596327,796.9739216054007,805.9789634355575,760.3288101301821
1731016846.5697334,806.9009465871304,796.7649750741909,804.8836080869793,760.6968115479455
1731016846.5736313,807.3549698519275,795.975979092777,804.1509712570755,760.3192062733524
1731016846.574,807.2635123622416,794.8760200884599,804.1874028480678,759.2905484846908
1731016846.575425,807.3970646139129,794.1733954513453,804.8242425244631,758.1049079293414
1731016846.5775292,807.9958636962764,794.5860307728907,805.4328076422014,757.25935801388
1731016846.581427,808.7790773848486,796.3860338695744,805.3101514021276,757.0385123003177
1731016846.585325,809.3473589245467,799.2212056823314,804.1071010898439,757.4645626915869
1731016846.587757,809.531357087406,802.3369196761399,802.0754558799413,758.3300235414846
1731016846.589223,809.4302839126417,805.0296634708507,800.0032795251329,759.3508652164003
1731016846.5909789,809.2391132445325,806.9880932192873,798.8538713831722,760.4658251994158
1731016846.5931208,809.0893106924673,808.2871838568848,799.2822217490975,762.0852928061959
1731016846.5970187,809.0084830103575,809.1196260118713,801.293701629342,764.9643401982147
1731016846.6009166,808.9641663714608,809.575328612016,804.2503887212844,769.6137789437753
1731016846.6048148,808.9189586653968,809.6755131059238,807.2166976762985,775.61831594897
1731016846.6065326,808.8569047637474,809.5409780944462,809.4025045799217,781.4528320661541
1731016846.6066463,808.781307577392,809.4012698309224,810.4095893092232,785.1119550795725
1731016846.608713,808.7017121633937,809.353284087899,810.1862894634526,785.2771164723459
1731016846.609,808.6243972381023,809.1345284505043,808.869231347397,782.2802386261721
1731016846.6126106,808.5503246793091,808.2551866830343,806.7603972468454,778.132954295995
1731016846.6165085,808.4775788659493,806.4901304779132,804.4633525477482,775.435114511576
1731016846.6204064,808.404212642154,804.3056142066545,802.9142382368029,775.783588632232
1731016846.6220863,808.3294900764772,802.7552781215962,803.0351830432542,778.8138031175666
1731016846.6243043,808.2536636275996,802.8140699741014,805.0991654063313,782.6554195487562
1731016846.6255355,808.1772605653979,804.628833001509,808.3024388665503,785.4155979466159
1731016846.6282022,808.100604393669,807.2779305689311,811.0327899298769,786.3814998578271
1731016846.6321,808.0237365580819,809.2585793887149,811.7962247569171,786.0471589286774
1731016846.6359982,807.9465594301463,809.386853913953,810.1647434506046,785.3131940773219
1731016846.6376405,807.8689850507496,807.5123969484927,807.0221584402109,784.7755218115551
1731016846.6398962,807.790992672365,804.591714645425,803.9310694417226,784.5538254791958
1731016846.643794,807.7126097752382,802.0970106471154,802.1298432551295,784.4971280163489
1731016846.644,807.6338711880062,801.157636750703,801.8975922975486,784.4353324442449
1731016846.6444244,807.5547959004275,801.9726817687091,802.6628930029635,784.2973572299707
1731016846.647692,807.4753908932795,803.8282090958467,803.6424694122431,784.0994188024722
1731016846.65159,807.3956697712106,805.6518770151996,804.4451275269478,783.8852450836797
1731016846.6531942,807.3156651078193,806.698243784778,805.1821396790816,783.6831219280293
1731016846.6554878,807.2354154899189,806.8950134951743,806.0766038437459,783.4970582043197
1731016846.6593857,807.154924244969,806.6484125985048,807.0093667870566,783.3181507236771
1731016846.6632836,807.0741185832856,806.3330014152527,807.4942644709721,783.1375350768743
1731016846.6633134,806.9928691306591,805.9447771466004,807.1445202403794,782.951927582375
1731016846.6671815,806.9111188817593,805.2360858133626,806.1525292627285,782.7625204504265
1731016846.668748,806.8290770890677,804.1892064990203,805.2261755366773,782.5717104604857
1731016846.6710796,806.7472817719799,803.3396354088596,804.9582308982458,782.3809403350158
1731016846.6749775,806.6662661504968,803.5662554381416,805.2272164016339,782.190366882825
1731016846.6788754,806.5857891245176,805.440256935985,805.251191131304,781.9995215072022
1731016846.679,806.504170455493,808.6400000821831,804.274567207195,781.8079848302538
1731016846.6822026,806.4188359988372,811.930043933504,802.2374831133154,781.6156467614724
1731016846.6827734,806.3288855191497,813.7852781543039,799.8229531431537,781.4226268754566
1731016846.684302,806.2386335111896,813.2590335416853,797.9075553674929,781.229098246279
1731016846.6866713,806.1582674460857,810.5113165402901,796.9610064146397,781.0351769625979
1731016846.6905692,806.096845771439,806.6537569479549,796.8693012848107,780.8409041046411
1731016846.6944673,806.047662165703,803.0533138170368,797.1933971964548,780.6462764217787
1731016846.698365,805.9771540704214,800.6078904075356,797.5378114174125,780.4512855925681
1731016846.6998558,805.8382685022754,799.4745202095733,797.7380348201316,780.2559547261678
1731016846.7010915,805.6215688659975,799.3267895791877,797.8220101986471,780.0603688318083
1731016846.702263,805.4206847619836,799.8026135824423,797.8787284260778,779.8646751808006
1731016846.706161,805.4385434041865,800.7382460405314,797.9650666585895,779.6690127967137
1731016846.7100587,805.8546321487705,802.0779270387712,798.0873237441332,779.4733671467435
1731016846.7139568,806.5860945860092,803.670264467491,798.2257169510161,779.2774521399956
1731016846.714,807.1760011365019,805.2103431714725,798.3614778475081,779.0808245145488
1731016846.7154098,807.0628381714465,806.3801290081598,798.4879528559613,778.8833746600316
1731016846.7178547,806.108589853868,807.0331861030169,798.6078334570273,778.6859824926713
1731016846.7199805,804.8503791208868,807.24955221747,798.7261360104563,778.4906051907545
1731016846.7217526,804.1045434042076,807.2208237629864,798.8457348495234,778.2989154074643
1731016846.7256503,804.2137745996331,807.0689968025953,798.9667818768621,778.1095459809884
1731016846.7295485,804.6556559807332,806.7524108491937,799.0881586735212,777.9160973564555
1731016846.7309637,804.4561618808997,806.1459923429834,799.2088946972822,777.7098157866153
1731016846.7334464,803.1208256226971,805.2392126227049,799.3286847076549,777.4892446685967
1731016846.7373445,801.2713444511918,804.2730509424418,799.447695706909,777.2720679823149
1731016846.7388697,800.3481609461069,803.6569864570222,799.5661891459857,777.0948334995201
1731016846.7412424,801.5028243723195,803.6913704192151,799.6842998053061,776.9848693816388
1731016846.7451403,804.525172146365,804.3239884223148,799.8020201746855,776.9082991428969
1731016846.7465174,807.7050246169181,805.1770551807226,799.9192828693616,776.7379168579479
1731016846.749,808.8379730842717,805.8333448314871,800.0360336127231,776.3136536729896
1731016846.7490382,806.6957489677831,806.1110093501895,800.1522545517519,775.6295961248321
1731016846.752936,801.9064952806868,806.0968093914397,800.2679518198923,775.0405949834764
1731016846.756834,796.6181994393859,805.9827275191362,800.3831358432572,775.2378968977274
1731016846.7577586,793.1971915747923,805.9049113189905,800.4978110948432,776.859707882491
1731016846.760732,792.8618339529912,805.8965864170609,800.6119760184006,780.0198816224434
1731016846.7620714,795.1153447266487,805.9279820290717,800.7256262185631,784.2344641499132
1731016846.7646298,798.2257608502501,805.9615066934397,800.8387555904993,788.8050840015493
1731016846.768528,800.3185154881322,805.9799124940401,800.9513557886592,793.1952230135702
1731016846.772426,800.3664525692117,805.9855467140007,801.0634186099923,797.022326200167
1731016846.7763238,798.572522062928,805.9877398319117,801.1749444792371,799.8274144281478
1731016846.7766476,796.0803547246995,805.9930058458283,801.2859524595906,801.062957133849
1731016846.777625,794.2904067667072,806.0025847082053,801.3964777938343,800.4560077958905
1731016846.7802217,794.1642104705305,806.0146794458086,801.5065429752375,798.4145600532238
1731016846.7840002,795.8263829411911,806.0273144183426,801.6161090876142,795.988411214505
1731016846.7841196,798.6157531877246,806.039674966217,801.7250522605434,794.2530049050445
1731016846.7880175,801.5221378982354,806.0519573592276,801.8332330962777,793.546264627679
1731016846.7919154,803.7305663453834,806.0646722070319,801.940681600402,793.2303379041654
1731016846.7931793,804.9363373973798,806.0781482250694,802.0477819605434,792.2815051126928
1731016846.7955368,805.2919997395712,806.0924322535477,802.1551882382589,790.2771488239038
1731016846.795813,805.1466423233398,806.1074221806965,802.2632364011477,787.9018427763108
1731016846.7997112,804.8427700876009,806.1230169720696,802.3710389054002,786.4369303536846
1731016846.8036094,804.6620135759684,806.139180147646,802.4761557550962,786.626947184898
1731016846.8075073,804.8006702534664,806.1559259713716,802.5760813197701,787.97344065768
1731016846.808733,805.2687596622003,806.1732806372531,802.6717830447919,789.164149061933
1731016846.8114052,805.7906090414373,806.1912571749999,802.7708354334118,789.2429507217985
1731016846.8144257,805.8706584529339,806.2098532980455,802.8849509728486,788.3646441820118
1731016846.815303,805.0503811529439,806.2290625205956,803.0177398163313,787.3873078830472
1731016846.819,803.1881243298423,806.2488847237192,803.1465307706346,786.7426407023286
1731016846.819201,800.5694607832901,806.2693263840769,803.21372848703,785.7643625029663
1731016846.823099,797.8066447931868,806.2903880605976,803.1434645983306,783.1970658809756
1731016846.8242867,795.620231747663,806.3120470945607,802.8751895777976,778.4422431723747
1731016846.8269968,794.5908672042489,806.3342546936028,802.3811704418146,772.3850751693694
1731016846.8308947,794.9147325340512,806.3569681602886,801.6532724009455,767.0347199251369
1731016846.833315,796.2296670933927,806.3802158240954,800.6903696518665,764.2781880901972
1731016846.8347929,797.6569591455138,806.4041429968842,799.5262819179471,764.7863307091947
1731016846.8386908,798.1536547888329,806.4289473936609,798.2928939596353,767.8872087149047
1731016846.839841,797.0553955457507,806.4546519055532,797.258291647201,772.3198861611389
1731016846.842589,794.499405390091,806.4808296279964,796.7664735187981,777.0818919540635
1731016846.8464866,791.4499023329441,806.5066175460977,797.0649182349831,781.6956374718729
1731016846.8503845,789.2861672047424,806.5313817679132,798.1155697091255,785.9041257049548
1731016846.8522036,789.1621269972494,806.5559314544989,799.5471413438933,789.3064326549141
1731016846.854,791.4480837392218,806.583244580443,800.8305690732112,791.3352934055594
1731016846.8542824,795.5157207402102,806.6170028391435,801.5775637970896,791.5440403628521
1731016846.8553946,799.9931804611983,806.6571589142789,801.7381853228691,789.9178374913572
1731016846.8581803,803.4198908257258,806.6950421213131,801.544759049376,786.9911710045646
1731016846.8620782,804.9925836801997,806.7145012910066,801.2649692304584,783.716980582494
1731016846.865976,804.9582225465745,806.7054207989918,800.9844474584681,781.1283754447942
1731016846.8698742,804.3697196999733,806.6863401800379,800.596904475307,779.9084932621628
1731016846.8709486,804.3483516687749,806.7152644641993,799.9903449594138,780.0747235674658
1731016846.8710928,805.359475103949,806.8569553894987,799.249048140391,780.9827957877117
1731016846.873772,806.9836268679022,807.0955086511289,798.6735401409919,781.6843577982894
1731016846.87767,808.2918329683707,807.2436043348062,798.5758474853594,781.4435931664491
1731016846.881568,808.540040855608,806.9625190460283,799.0284782169363,780.1252423042656
1731016846.885466,807.7385821038085,805.9714540645328,799.82656011992,778.2566064870794
1731016846.8865025,806.7420014645281,804.3499049543884,800.7288273171628,776.7399540510922
1731016846.8890002,806.7549716169079,802.6686002558127,801.7269643589354,776.3594925098511
1731016846.8893638,808.4925338576504,801.7412821235564,803.0125515730493,777.3538250430603
1731016846.8899815,811.5287277092436,802.0863197332818,804.6194885402259,779.3334364899922
1731016846.8932617,814.3598200832353,803.4795698092803,806.1168569978404,781.6109075557476
1731016846.8971596,815.2598928136603,804.9878612830299,806.7542769579328,783.6611735659543
1731016846.9010575,813.3889490285195,805.53714289359,806.0329776041877,785.2789718377973
1731016846.9020562,809.3718115633736,804.6378589431134,804.2138311712198,786.3033050670681
1731016846.9049556,804.9625826341028,802.7297936523905,802.2719968365568,786.2860663916323
1731016846.9088535,802.0885266498497,800.8774986583027,801.2930921247283,784.6106317877127
1731016846.9088707,801.9183729067439,800.0393195869436,801.799002563001,781.0962893066658
1731016846.9127514,804.4121647188689,800.4517662287254,803.5186717158492,776.535305184357
1731016846.916649,808.4110405512737,801.5649033623788,805.6982555220554,772.5467947797682
1731016846.9176102,812.1058730834334,802.5314427030456,807.6177913500223,770.681973757266
1731016846.9205472,813.7184978446261,802.8485999310749,808.9190430262599,771.3728841660358
1731016846.924,812.2264262836748,802.6821849207013,809.609590808066,773.5307059489159
1731016846.9244452,807.8643993423505,802.6745590356655,809.874415731974,775.198574498871
1731016846.92776,802.0919399593745,803.409410182928,809.8823318907429,774.8993798988706
1731016846.9283433,796.918388372685,804.9239883186846,809.6788475457511,772.7197470274673
1731016846.932241,793.8901026743484,806.6157458187043,809.1792941715174,770.2507054607997
1731016846.933164,793.3504664084097,807.6189071198777,808.2651911363296,769.3344396034338
1731016846.936139,794.4538035409213,807.3808835917737,806.9593582979098,770.5585279006318
1731016846.940037,795.8833792377538,805.9977209092793,805.5719692080509,772.7308160098936
1731016846.943935,796.7274325289513,804.0529816997722,804.665340587617,773.8016262605462
1731016846.9466488,796.9244967572747,802.1296366672317,804.7848005871604,772.4721685778879
1731016846.9478328,797.081284118168,800.445411781358,806.1005267726932,769.1455819361438
1731016846.9487178,797.9087253400414,798.9175099833946,808.2229138018639,765.5046962412192
1731016846.9517307,799.6911610900057,797.53249470214,810.3612343361674,763.2362773728329
1731016846.9556286,802.086712139386,796.6096464765311,811.7480960470131,763.0616770117501
1731016846.959,804.3284798814444,796.6722842862359,812.0515181158329,764.7245779001378
1731016846.9595263,805.698082776897,798.0313691708764,811.5070849944564,767.5824341666539
1731016846.9634244,806.016214471023,800.4479247212874,810.7049894246612,771.0284618286654
1731016846.9642718,805.8539321228776,803.148326362407,810.1900225196194,774.4403948564257
1731016846.9655378,806.2665021902693,805.1605416253819,810.1261753471981,777.0197631461552
1731016846.9673226,808.1228079708203,805.7331055769868,810.2204548906869,777.9737971585192
1731016846.9712205,811.4260091807834,804.6257943086142,809.9509822400821,776.9993723536033
1731016846.9751184,815.1232226474277,802.1915388055036,808.9637172614924,774.5933824887168
1731016846.9790163,817.6175765464678,799.2493253427045,807.374368806443,771.8236142314497
1731016846.9798255,817.7019770377448,796.7866369812774,805.7507076643755,769.7039803595995
1731016846.9829142,815.3180026138239,795.5936501908292,804.7739796437226,768.6891635192105
1731016846.984427,811.6336868711867,795.9841598266358,804.8162007520053,768.6730074611754
1731016846.986812,808.3465585431754,797.7208757543791,805.7125086318056,769.3847844891917
1731016846.99071,806.6097771624918,800.1552012729403,806.8432029605384,770.716619292723
1731016846.994,806.2839648623905,802.5055249305451,807.4490958599177,772.6402249030647
1731016846.994608,806.0888154356772,804.1648824162341,807.0187379089301,774.850605545809
1731016846.9953797,804.6204335425676,804.9129044638883,805.5750923777192,776.614726487472
1731016846.9985058,801.4974403701121,804.9151791405625,803.7009932517659,777.1398450703698
1731016847.002404,797.7313942752372,804.4904534376593,802.2332110692801,776.2373243294118
1731016847.003316,795.0308366158515,803.8032242337279,801.7660788363917,774.6569766319469
1731016847.006302,794.6335353986095,802.7387633052329,802.293629073463,773.6427884263604
1731016847.0101998,796.5978274166976,801.0857169783927,803.2567703991915,773.942932892886
1731016847.0109334,799.9878402370787,798.8648503262709,803.941977828493,775.0896451388195
1731016847.0140977,803.602299038611,796.4879582994217,803.8973404284135,775.6318030109699
1731016847.0179956,806.5831570311096,794.5908139631381,803.0768662051056,774.1998908055104
1731016847.0218935,808.5753688360718,793.6975982054621,801.724075771261,770.560188331661
1731016847.0222049,809.5993462060791,794.0053305606059,800.2148002884189,765.8576246921936
1731016847.0257914,809.9220552857759,795.4055585847026,798.9953369260047,761.946505245264
1731016847.0264874,809.9773779502159,797.6120299838859,798.539789994601,760.3584816730289
1731016847.029,810.1994202913587,800.2197610949768,799.1976461816412,761.5636211684663
1731016847.0296893,810.7618994199973,802.6927165229088,800.963869823147,764.8562736650595
1731016847.0335877,811.4615404719684,804.4245081695778,803.3684962257546,768.8152432268707
1731016847.0374854,811.92226171323,804.9567006081419,805.646966870901,772.0426416516163
1731016847.041094,811.9302979021819,804.2473159715707,807.1354390344648,773.7946231155422
1731016847.0413833,811.5605959723285,802.7752824407163,807.6341520702733,774.2011911756192
1731016847.0420413,811.0359081022405,801.3570563620078,807.4748796639384,774.0230457866516
1731016847.0452812,810.534071941662,800.7554821909175,807.2315066135716,774.1544987616638
1731016847.0491793,810.1124871272834,801.3111361195974,807.2767052588032,775.1617150882789
1731016847.053077,809.7441613029496,802.816567532593,807.5079346561178,777.04276910454
1731016847.056975,809.3837416060574,804.6921261493459,807.440562759565,779.2707276907754
1731016847.057595,809.0066560329233,806.3183179198294,806.5926204019445,781.1055148383804
1731016847.059983,808.61272110342,807.2880355169676,804.8799813475935,782.041179385894
1731016847.0608728,808.2123784939827,807.4444751342975,802.7364207824505,782.095061429213
1731016847.064,807.814115811355,806.7775581308344,800.8563217280932,781.7004490924845
1731016847.0647707,807.4202727624236,805.3608154707179,799.743260411998,781.3240313902161
1731016847.0686688,807.0290773824777,803.4112858102311,799.4324680878194,781.1792807015886
1731016847.0725667,806.6380895606824,801.3611544910908,799.5942999668316,781.2256495339285
1731016847.073149,806.2460984414553,799.7668145415604,799.8512641484817,781.3304421330822
1731016847.076465,805.8531699259356,799.032248032038,800.0010384006304,781.4015754452049
1731016847.078872,805.459869392615,799.13190629968,800.0299623105433,781.4210897411766
1731016847.0803626,805.066615471694,799.564014844281,800.0097591935671,781.4138303101546
1731016847.0842605,804.6734937832995,799.6069085837551,800.002656255212,781.4074328847951
1731016847.0881584,804.2803847731947,798.7439180552573,800.0274667804182,781.4134435754878
1731016847.088703,803.8871470698451,797.0259431793634,800.0724402737935,781.4292775137355
1731016847.0920565,803.4937108583105,795.1755316665485,800.119981294272,781.4478968892789
1731016847.0959542,803.1000746868332,794.3377683159212,800.1609582730899,781.4647553317948
1731016847.097761,802.7062619476148,795.5242913365438,800.1955756875076,781.4792267563598
1731016847.099,802.312284651521,798.9820549121703,800.2279188805697,781.4927702179486
1731016847.0998523,801.9181300752226,803.8690669941968,800.2611855422947,781.5068383082257
1731016847.1037502,801.5237661372579,808.5533848693665,800.2961911380919,781.5219821513637
1731016847.1042566,801.129159257031,811.4782266083262,800.3322151866062,781.5380299180703
1731016847.107648,800.7342997357542,812.0691660644397,800.3683248191397,781.5546151975193
1731016847.111546,800.3392213331216,811.0225929511478,800.4040764178274,781.5715255822589
1731016847.115444,799.9439879256474,809.7261779243825,800.4395114855439,781.5887561503745
1731016847.11665,799.5486244236236,809.2388858243461,800.4748517724903,781.6064026699786
1731016847.119342,799.1530157197583,809.6200760732928,800.5102557920284,781.6245526243093
1731016847.1198106,798.7568753660044,810.1020472792068,800.5457540915078,781.6432433741454
1731016847.1232398,798.3599209346938,809.882922250486,800.5813018672293,781.6624753024699
1731016847.1271377,797.9622756611963,808.8087945584208,800.6168487336824,781.682240362669
1731016847.1310358,797.5648134218175,807.3789946139467,800.652371362547,781.7025393942644
1731016847.134,797.1688708530869,806.1810431876213,800.6878690201751,781.7233837762984
1731016847.1349337,796.7749056671202,805.377243665944,800.7233466675968,781.7447893011426
1731016847.1353643,796.3806535604707,804.7272413209957,800.75880637178,781.7667705183763
1731016847.1355393,795.9807979028769,804.0313300014454,800.7942517842238,781.7893388014239
1731016847.1388316,795.5706396088975,803.4655092506907,800.8296959681614,781.8125032094521
1731016847.1427295,795.1537403412825,803.4471457342271,800.8651571670268,781.8362719998121
1731016847.1466274,794.7477039375009,804.1854492719879,800.9006346836065,781.8606534632208
1731016847.150525,794.3772372249781,805.382548211007,800.9360788163017,781.8856559346619
1731016847.1509182,794.0477503415893,806.3771246634785,800.971394048575,781.9112874323977
1731016847.1544232,793.7122031588236,806.5904996628462,801.0065154232498,781.9375553524525
1731016847.154428,793.2708784499749,805.8885069601666,801.0415430775606,781.9644663681293
1731016847.1583211,792.6494583507401,804.6067324240473,801.0768154534852,781.9920264712388
1731016847.162219,791.9499864019871,803.2997582593013,801.1127330186941,782.0202410397692
1731016847.1661172,791.5648977238712,802.44455721825,801.1492579468023,782.04911486647
1731016847.1664722,792.0780262785186,802.2575478534974,801.1853875201975,782.0786521452717
1731016847.169,793.8907263015602,802.6391782938022,801.2193321342999,782.1088564413513
1731016847.170015,796.7950600452658,803.2152834376416,801.2500740123699,782.1397306669
1731016847.1733172,799.8838840195632,803.486273572456,801.2798727989343,782.1712770688877
1731016847.173913,801.9813494685155,803.0854970440699,801.3153334161069,782.2034972238282
1731016847.177811,802.3484737795796,802.0386246816347,801.363581970239,782.2363920326004
1731016847.1817088,801.1797170084028,800.8297448898818,801.4226358975337,782.2699617128185
1731016847.182026,799.5587242801353,800.163252604014,801.4723163182704,782.3042057920084
1731016847.1856067,798.907475178567,800.538481818243,801.479788310916,782.3391231073805
1731016847.1895046,800.2404272415677,801.9280882931455,801.4315589703501,782.3747118140802
1731016847.192206,803.5996398159505,803.7979589228008,801.3819894930019,782.410969393488
1731016847.1934023,807.961599419104,805.4549468893529,801.4742419067536,782.4478926432292
1731016847.197301,811.7163943305954,806.466952536396,801.8805977582277,782.4854776349925
1731016847.19758,813.5187254185815,806.865437156908,802.6648612349826,782.5237196566718
1731016847.2011986,813.0254625709179,807.0261394676396,803.6560970722879,782.5626132016657
1731016847.204,811.0307449232258,807.354840850355,804.4475195657734,782.602152084296
1731016847.2050965,808.8859745876797,807.9951713588454,804.5694722692143,782.6423296829955
1731016847.2089944,807.59075591718,808.7046537557574,803.7703140584917,782.6831391307593
1731016847.211095,807.1676964823322,808.9385722552967,802.2189358523958,782.7245731110584
1731016847.2128923,806.7238476794016,808.1211496189615,800.4320041604068,782.7666230390935
1731016847.2131338,805.1296761098656,806.0179450141782,798.9355867882788,782.809278011342
1731016847.2167902,801.8493972227126,803.0077342145306,797.9498361499941,782.8525247527257
1731016847.220688,797.3851424450971,800.0050673217487,797.4086215442685,782.8963499727757
1731016847.224586,793.0729422964871,797.9756493124303,797.295221602465,782.940744914022
1731016847.228484,790.3896541784374,797.3496431474904,797.9153449969384,782.9857084030258
1731016847.2286878,790.2134975165447,797.8205802068683,799.7530328243278,783.0312419984122
1731016847.2299843,792.4557006378406,798.7401548767115,802.9742886827067,783.0773338230979
1731016847.232382,796.2024839664537,799.7670688709395,807.026879096146,783.1239395920416
1731016847.23628,800.1967532210667,801.150739106972,810.7385239513601,783.1709847158957
1731016847.239,803.3505497121108,803.3630562353073,812.8984777067607,783.2184124028304
1731016847.240178,805.054084801643,806.4353543432502,812.9217002983206,783.2662688754755
1731016847.2440758,805.224443217234,809.6574055577998,811.1524969829293,783.3147510839187
1731016847.2442417,804.1759857072883,811.9453613513355,808.6379747384676,783.3640978318392
1731016847.2479737,802.4339895390173,812.5621113319849,806.5432614864696,783.414274896074
1731016847.2488732,800.5796641428577,811.5970756774227,805.5737093791976,783.4646386344651
1731016847.2518716,799.1543131376325,809.880221239739,805.738235564683,783.5140385868714
1731016847.2557695,798.5908575946403,808.471578077334,806.5623845136741,783.5617922843185
1731016847.2596674,799.1188815585333,808.1092832625209,807.5537431731076,783.6092722168781
1731016847.2597954,800.6462715739482,808.919425377948,808.5369854214925,783.6606100031698
1731016847.2635655,802.7226080130804,810.4674770634325,809.5873110723156,783.7203228461733
1731016847.2674634,804.7054837815011,812.0496678648329,810.6507179375503,783.787229271164
1731016847.2677622,806.0969697981069,813.0503040671597,811.2460241783598,783.8485741116178
1731016847.2713614,806.8149040220827,813.2089354460751,810.6043731461964,783.8831736501743
1731016847.2740002,807.1560836734436,812.7006638581835,808.2240892225868,783.8809523448673
1731016847.2752593,807.4712661196863,811.9971764356078,804.4148734398766,783.8721468244925
1731016847.2753494,807.8647500829592,811.5499357230867,800.3294240927219,783.9363384632145
1731016847.2791572,808.2217498472334,811.4388697497967,797.3402341252868,784.1507828026125
1731016847.2830553,808.5126450384365,811.2171783047943,796.1644487996076,784.4706458180942
1731016847.2866514,808.9784520688213,810.1400094694258,796.414304152981,784.6188326702286
1731016847.286953,809.8776530226565,807.7255151482572,796.9638028606828,784.1395657650617
1731016847.2908509,810.9690360025768,804.2894857988791,796.861692918578,782.7100468096663
1731016847.290903,811.3195173771119,801.0034584614431,796.0529279195007,780.5527415391488
1731016847.2947488,809.8452875176777,799.3224031147902,795.3317625428836,778.5581638980682
1731016847.2986467,806.2886785616199,800.126526815191,795.611735599423,777.8586035998537
1731016847.3025448,801.7825625977247,803.183120707571,797.16854493711,779.0725289253131
1731016847.3055403,798.370207092752,807.2924821785713,799.483572145807,781.7895738300771
1731016847.3064427,797.6999350886653,810.9497903099925,801.7384733742512,784.7152033571084
1731016847.306457,799.8381829713094,813.0248023749937,803.4398305593833,786.3966897899644
1731016847.309,803.1098610769408,813.0882704154764,804.6132156564709,786.0463282860637
1731016847.3103406,805.13144484384,811.3768045948239,805.4900662147006,783.9430288215848
1731016847.3142383,804.3410204905176,808.5952959912797,806.1059121672391,781.190078283115
1731016847.3181365,800.9716676956107,805.6899073434729,806.2509449312759,779.0034910426397
1731016847.322011,796.8082337787052,803.5867371629005,805.7880377278981,777.9705541654133
1731016847.3220344,793.9437777930602,802.883513063794,804.9489501489743,777.7265248632455
1731016847.3244293,793.4708471540418,803.585812838454,804.2474488267179,777.2537707449458
1731016847.3259325,795.0393709698636,805.0498375476074,804.0573800958571,775.6322240998277
1731016847.3298304,797.4778133363793,806.2369310457962,804.2653623000282,772.7550658383822
1731016847.3337283,799.8167824456584,806.213515753425,804.3557397289671,769.4743776774988
1731016847.3375647,801.809371930028,804.6442045099327,803.8704347921313,766.9796245180803
1731016847.3376262,803.6109806934581,801.9736669241862,802.8192456180586,765.8115434951601
1731016847.341524,805.1129246238532,799.1580339778966,801.6614341977173,765.3316240487223
1731016847.3433185,805.7160662223945,797.1038010862803,800.8902289272021,764.2280697413315
1731016847.344,804.8181181807879,796.1908619925999,800.6193774063747,761.7705416037453
1731016847.345422,802.513443292313,796.1984131216661,800.5437198162401,758.7378451910333
1731016847.34932,799.7541763749088,796.6175980543733,800.2753805006499,757.0577930171471
1731016847.353119,797.7353964856949,797.0322254708561,799.7181242394829,758.2862557299829
1731016847.3532178,797.0288770391245,797.2856533052794,799.1440381284697,762.192852594054
1731016847.3571155,797.2568012981023,797.4175633021254,798.9389243919943,766.7844753085963
1731016847.3610137,797.6086295246547,797.5229635223553,799.2744967000162,769.8792963847658
1731016847.3622074,797.7212048617326,797.6598906587656,799.9893988164724,770.8975500467122
1731016847.3649118,798.1045556429596,797.8337740843237,800.7418850415296,771.2471666686798
1731016847.3686726,799.7162394604222,798.0238897969361,801.2644837292064,772.9070694246604
1731016847.3688097,803.059479800786,798.211171229394,801.5029514455225,776.4563762819154
1731016847.3727076,807.5917384401585,798.3891595219276,801.5679542656499,780.3304116453232
1731016847.3766055,811.942174174138,798.5608429906246,801.5991185098391,781.9921715617895
1731016847.379,814.7567870512025,798.7313992068202,801.6724916547508,779.9983813000782
1731016847.3805034,815.5229763838058,798.9037086279435,801.7929249418933,775.1864186570831
1731016847.3810964,814.804895535417,799.077862000036,801.9328247704287,770.0531995203681
1731016847.3842266,813.7858272557795,799.2526919251623,802.0682817574499,766.9732017331835
1731016847.384401,813.4627050012372,799.4272174004304,802.1920377852109,766.7526910821143
1731016847.3882992,814.0071087294812,799.601148327815,802.3085706766592,768.5098885713446
1731016847.3921971,814.6775058135227,799.7746707703004,802.4246208807045,770.6616885244553
1731016847.3960953,814.3401937519993,799.9480573156849,802.5436967923962,772.0243761417698
1731016847.3997805,812.2806003470547,800.1214458088255,802.6657294631514,772.2367553248164
1731016847.3999853,808.7747888320494,800.2948286811388,802.7891583465138,771.4902596546837
1731016847.3999932,805.0220308356627,800.4681392283364,802.9127593496028,770.1017004114789
1731016847.403891,802.46591748332,800.6413252719057,803.036220090038,768.3705833152582
1731016847.407789,801.9563223878217,800.8143712263177,803.1598172874903,766.6902444393862
1731016847.411687,803.3093030794131,800.9872848140087,803.2839098307236,765.5942318916465
1731016847.414,805.5267502091459,801.1600783767035,803.4086693994426,765.5611616494441
1731016847.4153342,807.4634502019333,801.3327609124777,803.5340815525593,766.7155195697038
1731016847.4155848,808.4358308961309,801.5053388018254,803.6600623997114,768.6768526507501
1731016847.4188745,808.380312923528,801.677814948536,803.7865519699744,770.669895866432
1731016847.4194827,807.5873114946809,801.8501807506884,803.913539041164,771.836711015396
1731016847.4233806,806.3818598687576,802.0224081724517,804.0410408401659,771.6319627627362
1731016847.4272785,805.0635630036388,802.1944597236185,804.1690761616336,770.1583555411966
1731016847.4308882,804.0263449532384,802.3663283480879,804.2976530569999,768.248309224913
1731016847.431177,803.7102981383491,802.5380884846542,804.4267712960547,767.144196247227
1731016847.4350746,804.250657002984,802.7098973668184,804.5564297641188,767.8787930895922
1731016847.4377637,805.1621568338135,802.8818776155404,804.6866296847844,770.7312177157875
1731016847.4389725,805.5274509930392,803.0538941422753,804.8173706073386,775.1192983533235
1731016847.4428704,804.6997669881167,803.2254097726372,804.9486432634089,779.9592712957575
1731016847.446442,802.9536521805037,803.3957342117773,805.080428777437,784.2069398337212
1731016847.4467683,801.4752856838816,803.5648263349652,805.212713041085,787.268928401053
1731016847.449,801.6380536357103,803.7342174723111,805.3455134535367,789.151045933343
1731016847.4506662,804.0928996930926,803.9068738881992,805.4788942626159,790.3395388003033
1731016847.454564,808.2930205861323,804.0847909863957,805.6129329060244,791.44414281762
1731016847.4566524,812.7020423652999,804.2648071721037,805.7476216954321,792.726894282852
1731016847.458462,815.5122449383736,804.4363598209629,805.8827624038473,793.8201446126977
1731016847.4619958,815.5025436467571,804.5870179651977,806.0179977330631,793.9513947284227
1731016847.46236,812.6575274623318,804.7180532442508,806.1531154454805,792.6391968680052
1731016847.466258,808.2401350118379,804.8606938166378,806.2885446539661,790.3284105586312
1731016847.470156,804.2019090917337,805.0702282121479,806.425577708515,788.3238217651914
1731016847.474054,802.1750113229335,805.3768066969443,806.5656312684639,787.9026545046256
1731016847.4755416,802.6245221159791,805.7059692311929,806.7083466709676,789.2358337345453
1731016847.4775498,804.7100963112653,805.8410440371555,806.8497528083747,791.0298987527125
1731016847.4779518,806.9351892732215,805.5276986782198,806.9832494197751,791.310550524888
1731016847.4818497,808.1010929693313,804.7267059675236,807.1057361792599,788.8600876201755
1731016847.484,807.894190672654,803.8068808713333,807.2268450863331,784.2095697530764
1731016847.4857476,806.7587923104793,803.3991148359718,807.37209860676,779.3255344569319
1731016847.4896455,805.2694560109838,803.9500755042163,807.5677351906153,776.1571599627924
1731016847.4931035,803.581417599515,805.3949635497307,807.8061429987853,775.2252493499442
1731016847.4935434,801.4332735864314,807.2599322093687,808.0154138985996,775.463129559436
1731016847.4944303,798.6713722637903,809.0308089348684,808.064098038778,775.3948281984746
1731016847.4974415,795.7540040255338,810.3950298874817,807.7941033697823,774.4721831298622
1731016847.5013394,793.6496910817067,811.1840470074444,807.0372899943286,773.2747131585982
1731016847.505237,793.1005851833083,811.1941258271246,805.6170652928085,772.4843778556316
1731016847.5086577,793.9104882673892,810.1794109329361,803.4227737606192,771.8570226795731
1731016847.5091352,795.007824510444,808.1037472777064,800.6105961923668,770.4243211262722
1731016847.5130332,795.326299849447,805.4179871410726,797.7970582091446,767.8120571472331
1731016847.5133195,794.7138896302251,803.0155423622288,795.98314907404,765.2602917428902
1731016847.5169313,794.0074093727411,801.7558235891183,796.0977111755599,765.0876343659855
1731016847.519,794.202617761224,801.8570882387753,798.4006046403763,768.8545762059508
1731016847.520829,795.511886658004,802.6770807233535,802.200000888893,775.8335204781458
1731016847.5242114,797.1939581921758,803.1707847036048,806.1641432133164,783.2295555878064
1731016847.5247269,798.3117103233162,802.7558784424856,809.0558622089679,788.0633980531197
1731016847.528625,798.7204589943569,801.8788020406804,810.3666772928044,789.1618073331198
1731016847.5322087,799.3563375934359,801.7030379993305,810.3869310172082,787.6261765534969
1731016847.532523,801.4680896048984,803.0486381463319,809.6956019645266,785.5084038382653
1731016847.5364208,805.3542164218669,805.4447078996329,808.5363551172311,783.9891818633893
1731016847.5397654,809.6821535805008,807.2020019573292,806.6482029107916,782.7178960547702
1731016847.5403187,812.096794455823,806.5976853264015,803.7109439929477,780.7976225260668
1731016847.5442166,810.7895118282235,803.256166063611,799.9778610271868,778.2901576249819
1731016847.5481143,805.8409105236433,798.5654324467185,796.4532502869705,776.6403925017112
1731016847.5510976,799.2618044830167,794.7687005886703,794.3731846474476,777.5405692549248
1731016847.5520124,793.6981506485495,793.4824040993366,794.3999216681597,781.3175636718582
1731016847.554,790.8247903999536,794.7951746075464,796.2081718668591,786.3677227910105
1731016847.5553193,790.6044514815986,797.5109304377308,798.7782556622674,790.1457635869693
1731016847.5559103,791.7868115702278,800.1497929579823,801.0990794779653,790.841725991593
1731016847.5598085,793.066360864825,801.84908820733,802.7016086811233,788.4219149903797
1731016847.5637064,793.9900725459224,802.5847452343962,803.6863494586026,784.3972025373264
1731016847.5676043,795.0843879956366,802.7759890049481,804.3703138833877,780.7278546837064
1731016847.5699866,797.2715510825266,802.767680568534,804.926965924021,778.7698821959041
1731016847.570873,801.0318626192324,802.6279424455668,805.2798151091076,778.8627474684154
1731016847.5715022,805.8523994047181,802.3163046854716,805.2354932939439,780.5206591430182
1731016847.5754,810.3429794767895,801.9486556215288,804.6794913963477,782.8427788046934
1731016847.579298,813.013177353675,801.862926041015,803.6915218458324,784.8757277851221
1731016847.583196,813.2222982566285,802.4240211576835,802.5522371071553,785.9139617086438
1731016847.586427,811.6103486323078,803.7460702739359,801.671576631589,785.7542785563899
1731016847.5870938,809.670247303924,805.5532528677884,801.4524443799583,784.7661773267745
1731016847.5888758,808.7861147455558,807.2637387966613,802.095373333471,783.6146781702602
1731016847.589,809.443885263386,808.2339296120709,803.4151066811575,782.7300850639507
1731016847.5909915,811.1133284252553,808.0555381386199,804.8247438447089,781.9330675762509
1731016847.59489,812.7733550438998,806.8081801761974,805.6079331451248,780.6149609057265
1731016847.5987878,813.6630541318518,805.14679077094,805.3869462651616,778.4339540476351
1731016847.6019807,813.7777099503938,804.0887757453539,804.4600194787433,775.9653634167101
1731016847.6026857,813.813656883358,804.4934453500771,803.6878290734306,774.6584029737119
