timestamps,eeg_1,eeg_2,eeg_3,eeg_4
1731140449.037702,809.034153469083,801.3690904548018,791.6068406125033,803.588295439453
1731140449.041596,827.4263526103052,805.7376989523591,788.8552518786375,793.2893165924428
1731140449.04549,839.3851343983399,808.5168467823136,787.3405848977848,785.6629753923435
1731140449.049384,842.588769521529,808.3212221498579,787.5787466394177,781.7618978665942
1731140449.053278,839.99660235489,804.6536770082233,789.1278938854114,780.9249145785185
1731140449.0571718,837.0493419310548,798.6426030083009,790.9689265817008,782.0753519540672
1731140449.061066,836.9521445663628,792.8572611786893,792.1618737609535,784.7846210930511
1731140449.0614705,838.0671012272369,789.9005090446625,792.2536017715258,788.8674360527127
1731140449.0649598,835.9721487251192,790.7234293044172,791.2424259867754,793.1355886592584
1731140449.068717,828.4856215126961,794.0487443376168,789.3903701588144,795.1388609864005
1731140449.068854,818.8399131569824,797.4137971893655,787.2108155344748,792.7725583813834
1731140449.0727477,813.6008147297581,798.9824460095697,785.5223982927928,786.4404491977975
1731140449.0766416,816.908773816768,798.6821283584021,785.2046039450811,779.4609666718992
1731140449.077059,826.4144306960353,797.8691479680275,786.6375844119821,775.8845938980965
1731140449.0805357,834.9632445235143,797.9686030116137,789.3058237932153,777.4614409079543
1731140449.0844295,836.6603260627506,799.2972495914845,791.992055344219,782.4690292477183
1731140449.087566,831.6688753415688,800.9844644405807,793.4301831497901,787.3928052253119
1731140449.0883236,825.2826210936666,801.8874842325253,792.9258570052826,789.7891059326113
1731140449.0922174,822.3632435646051,801.5598230942456,790.6523880693306,789.7640075382595
1731140449.0926478,822.6599801834224,800.4179236500098,787.6757681028583,789.1403122995949
1731140449.0961115,821.5236769190932,799.1506491516673,785.7539863704862,789.6509189501724
1731140449.1000054,815.2018083146797,798.1728539704912,786.7443089557999,792.0201521710967
1731140449.1038997,805.460408432223,797.6993150475907,791.583837575682,796.3357367778964
1731140449.1064155,798.8818700572065,798.1086957214899,799.3560456560524,802.5888500250695
1731140449.107793,801.1854355687284,799.8409887788398,807.2814039714917,810.3643147925303
1731140449.1082366,811.6789163668612,802.7138728234996,811.993154837009,818.0426549822125
1731140449.1116872,823.087233033952,805.4676954932908,811.44159848292,822.7939763558107
1731140449.1155813,827.2530676187122,806.3386036591572,806.1286040843912,822.0107329886764
1731140449.1194751,821.7900347576266,804.396718804161,798.7632367751046,815.27415949745
1731140449.1233692,811.7552016742476,800.449471548603,792.594737927246,805.1017869105842
1731140449.1238253,804.932270185483,796.6023236712763,789.6561686606433,795.566722590167
1731140449.1252646,805.1957246582522,794.8323535910606,790.1048546535588,789.741549415781
1731140449.1272633,810.0319823938555,795.8347940032199,792.840212640179,788.0412308982434
1731140449.1311572,814.1231891798454,799.0281779190841,796.5575151367776,788.7754003817818
1731140449.135051,815.0738606008657,803.412154803886,800.2741630329282,790.2199514698427
1731140449.138945,815.5088462101131,808.2418638150068,803.1348608882873,792.1683241218275
1731140449.139414,819.5623727547908,812.9137154991497,804.099007888372,795.550573916379
1731140449.142839,827.4336017025905,816.4762762187513,802.1518142932738,800.7293125019139
1731140449.1441138,833.701696905238,817.6294332140355,797.0163339821128,806.4650493365208
1731140449.146733,831.5185571992898,815.4811650346745,789.7180861834346,810.8128178765912
1731140449.150627,819.0467592388721,810.3836733433309,782.3949367135482,813.0593259981312
1731140449.1511312,802.083620029674,803.942533764029,777.3731539644613,814.5181435766991
1731140449.1545208,790.0739443193223,798.0689594910183,776.1139044303138,817.0650462318587
1731140449.1550028,788.68003781249,793.9092142384812,778.671088271414,820.7168456887049
1731140449.1584148,795.2627566734569,791.5936288316773,783.8770021109206,822.7785644134303
1731140449.1623087,801.1847566609517,790.8715700350285,790.023012908787,819.7193455290563
1731140449.162963,799.0531394978956,791.7840784764884,795.6018969168481,810.3043498692732
1731140449.1662028,788.9275734798979,794.564604844866,799.7293025738514,797.2228526125078
1731140449.1700966,778.4226445130914,798.8952345784761,802.1070276295541,785.697499037422
1731140449.1705916,776.5824925335679,803.4472751735312,802.7243615264524,780.0739022560988
1731140449.1739907,786.3927700809982,806.4247820324736,801.65864107688,780.963662591729
1731140449.1778846,801.9554926809282,806.8130103564024,799.1454156597401,785.0352449817478
1731140449.181779,812.7622365917415,805.2427279432799,795.7374201197499,787.6015025887489
1731140449.1818123,811.8852029210207,803.6026287769512,792.2610651913097,786.1951729782905
1731140449.1856723,801.6809637868265,803.5731443617351,789.5162666434202,782.6041686506528
1731140449.186,792.3955018719879,805.2010210576445,787.9500877411352,781.797159547874
1731140449.1861806,794.5025528568066,806.6963693277835,787.5615125260654,788.2822116739404
1731140449.1895664,810.4621691554999,805.7506818597763,788.0837024652476,802.3920544923311
1731140449.1934605,832.1590206573189,801.4852440735891,789.2771484722883,819.3015635894296
1731140449.1973543,846.1484131456644,795.5315583845864,791.1159000787025,831.7185527162476
1731140449.2006614,843.0355148308166,791.2630872793374,793.7469998319103,834.3841383509032
1731140449.2012484,824.1474284117601,791.5715009686601,797.2488948079155,827.1052076829599
1731140449.2017694,800.5809856829443,796.7783129798347,801.3226734220641,814.2986841347748
1731140449.2051425,785.3633236107736,804.2715118299845,805.095358537721,801.7826064927532
1731140449.2090364,784.5839195827238,810.1786668153206,807.2083926762995,793.3733057266502
1731140449.2129302,794.0211365166241,811.8518185328011,806.2885191345872,789.4990735142072
1731140449.2168243,803.4611529245192,809.3853463375871,801.7037718296585,788.2831080099485
1731140449.217358,804.9633702839469,805.1963978243533,794.2362299656917,787.885180077173
1731140449.2195106,798.4843419204257,802.1352579598115,786.1671646583691,788.2459542752988
1731140449.220718,790.7544862027106,801.5484933905728,780.4966739171867,790.9399491223471
1731140449.2208693,788.9153925241136,802.6075034362015,779.5721923280951,797.3002923056182
1731140449.224612,794.4738714000872,803.25408915633,783.8940615739749,806.4443058665825
1731140449.228506,802.4500617761504,801.9855764711887,791.8488864381352,815.0896432526209
1731140449.2324,806.046630249915,799.1290506428156,800.5188588270169,819.6148952790677
1731140449.2329469,802.6265007241689,796.6475878648935,807.0005246726621,818.7616665027665
1731140449.236294,795.8942514504286,796.652696096419,809.4529633972403,814.6127083423107
1731140449.2383597,792.4909334908373,799.8087621218289,807.494149542034,810.8701098886777
1731140449.240188,795.9223353071552,804.8574407858852,802.074571057886,809.8008668176847
1731140449.244082,803.0024209802058,809.5265271730109,795.0859184300476,810.3934691124011
1731140449.2479758,805.9890357652224,811.987165576682,788.786182494087,809.2801396645226
1731140449.2485356,798.9332213755758,811.7429039379393,785.0655859771673,803.7569771921745
1731140449.25187,783.2112275341909,809.5107730979599,784.7754782281606,794.6040926830103
1731140449.255738,767.6445148967541,806.5298950203968,787.4807742672282,786.5037224514253
1731140449.2557638,762.7282497534059,803.9778177358056,791.7924541434885,785.4647783793174
1731140449.2572093,773.0843702281439,802.7278806215795,796.0459361039559,794.6964708759815
1731140449.2596576,793.8105499317813,803.2075948853317,798.9114973347658,811.6157974475401
1731140449.2635517,813.6723759965566,805.1766448779956,799.7029510292796,828.2880935255528
1731140449.2641244,822.975208959754,807.6478942890259,798.4449557383251,835.5608005184912
1731140449.2674456,820.2548766788431,809.2872181808715,795.8483153402552,828.5716517986598
1731140449.2713397,812.6743304948048,809.1960162448535,793.1824645490271,810.0262648309019
1731140449.2752335,809.8927519191251,807.486747521106,791.8759637647952,788.8485217318306
1731140449.2760582,816.3499384345147,805.1407639704527,792.8013738927223,774.8931173559766
1731140449.2791276,828.0821062956817,803.2738579920426,795.6049335550188,773.189541312646
1731140449.2797132,836.3782894789516,802.4516367336666,798.7123584406169,781.539276106593
1731140449.2830217,835.0152858047435,802.5553381696113,800.2958673700242,792.8463679699521
1731140449.2869155,825.0597142417352,803.1138778989924,799.6129350128004,800.1371300267866
1731140449.290607,813.446160645653,803.6553711893163,797.5675716213784,800.5018673416774
1731140449.2908094,806.8069392222774,803.8151653479231,795.8797187619006,795.4986596229945
1731140449.2947032,805.9649378642317,803.3402267472406,795.5469496112039,788.6159760862163
1731140449.294907,805.8303236662191,802.2365841971119,796.0359277680478,782.4631732696585
1731140449.295302,800.720516398387,801.0199920986138,795.9693782257011,777.8628392546718
1731140449.298597,790.3521271751403,800.7291098893288,794.5986521554911,774.8656744302689
1731140449.3024912,781.0569421919475,802.4358417076528,792.58675955358,774.0660562113577
1731140449.3063853,780.8441432735655,806.4205063893373,791.3462974167508,776.7071062557682
1731140449.3102791,792.3032396717583,811.5817414952778,791.6039037273573,783.4343343568833
1731140449.310891,809.3471862602859,815.6426584316497,792.5521530738495,792.8596588091601
1731140449.3137565,820.7264364639059,816.2367852729487,792.3208884632302,801.3792149094965
1731140449.3141732,817.8096892971733,812.302696738506,789.3152662628368,804.8261841384482
1731140449.3180673,800.8304837112676,804.860103324994,783.361553026317,801.111881880053
1731140449.3219612,779.0503436240781,796.5528704153568,775.9309057516482,792.0089817433901
1731140449.325476,764.8124752613777,790.2254822142281,769.455078680829,782.5464907597218
1731140449.325855,765.7393519819377,787.5564417316999,766.2448591179307,778.1155522627108
1731140449.3264794,780.3610355484748,788.6601670199773,767.5525992996448,781.1493613827263
1731140449.3297489,799.7820527620233,792.6441838074588,773.0895960229668,789.6622815191677
1731140449.3326058,813.7525781702708,798.3170713776308,781.1013111080919,798.6161587783312
1731140449.333643,816.7434247811452,804.4000648632076,788.9954081658799,803.1027074274341
1731140449.3375368,810.1126177454275,809.4192534866522,794.3706394169677,801.2152102936137
1731140449.341431,799.6034884107614,811.9109669590376,796.0263596207318,794.9032610450818
1731140449.3420682,790.7640574980775,811.1330870502368,794.3606864227794,788.5418156987325
1731140449.3453248,785.8858851900429,807.7169765913693,790.8351569347577,786.3365218867174
1731140449.3492188,784.1468376321204,803.5434316063211,786.8716715268133,790.2149541305423
1731140449.351455,783.7477208999119,800.7664257702183,783.0748148507495,799.3170925727992
1731140449.3531127,783.6409503477475,800.6567752524131,779.4232748123385,811.0178375340324
1731140449.3570068,783.7074446284339,803.0618600772408,776.1424006139655,822.4279722471599
1731140449.357657,784.0830028229855,806.7342462802352,774.2354862706269,831.2861562720192
1731140449.360345,784.7240612809688,810.1495528516813,774.933532344149,836.0682413004733
1731140449.3609006,785.4535125564158,812.2475560046844,778.4484149517982,836.0458978718887
1731140449.3647947,786.1352128208338,812.7803703358932,783.2689481931457,831.8767195168
1731140449.3686886,786.7365505505212,812.2448786337601,786.8811434552113,826.204379880765
1731140449.370304,787.2900836328811,811.4849804046847,787.4857906142548,823.0406690465295
1731140449.3725824,787.8361472811825,811.111442441576,785.2939280215268,825.5126035580558
1731140449.3732457,788.3932677679543,811.0460194602737,782.2925582891819,833.3346250721654
1731140449.3764763,788.9590547465539,810.5646236747463,780.7037215306101,842.2675628218035
1731140449.3803704,789.5236496503957,808.9172321168501,781.4620325756113,846.6104938141016
1731140449.3842645,790.0801722996947,806.0775627628584,783.9182558453646,843.2000090733734
1731140449.3881583,790.627351254342,802.9631665773389,786.8058449403125,833.7585660441259
1731140449.3888345,791.1671514126155,800.8853659466315,789.411510477227,823.5238881954285
1731140449.3891532,791.7017337730337,800.6795444440871,791.8831978598992,817.2606080388955
1731140449.3920524,792.2320279396391,802.2426665818692,794.6087447994939,816.1548424537812
1731140449.3952138,792.7578900826514,804.8089186158503,797.5289247468498,818.2987817861905
1731140449.3959465,793.2788439932193,807.6382942314115,800.169969939269,822.030239561014
1731140449.3998404,793.7946096496149,810.4689144438645,802.264484560059,828.4935945006292
1731140449.4037342,794.3052092922599,813.3210959100103,804.1234366891688,840.3121146137887
1731140449.4044232,794.8108241492312,815.8356379903533,806.2022475136386,857.0353880852056
1731140449.407628,795.3116328317705,816.8457971647861,808.2621408930951,871.7552060399892
1731140449.4080026,795.807744991264,814.8553183060952,809.1117151599291,873.2569897724201
1731140449.4115222,796.2992230016491,809.3470218521704,807.4383962164089,853.6023026448122
1731140449.415416,796.7861334288889,801.874270546425,803.1251833801678,815.6693131122012
1731140449.41931,797.2685763488732,795.6848820997334,797.8273251366503,773.9894207874768
1731140449.420012,797.7466687896624,793.7071198505197,794.1445403876345,746.9890996478848
1731140449.423204,798.2204915178545,796.3067034107692,793.964727774198,745.7033812877077
1731140449.4268515,798.6900441725895,800.7506019696849,797.2729287864627,767.0650880153465
1731140449.427098,799.1552783557416,803.0516351126677,802.2630772438387,796.3581405718097
1731140449.4300828,799.616251597531,800.8343042761124,806.4968055610389,816.5651953128115
1731140449.430992,800.0733316108415,794.9497038398391,808.1879048444872,817.87966511266
1731140449.434886,800.5272202047564,788.6556470761076,806.9035630890115,801.6307932087474
1731140449.435601,800.9785255725157,785.2213308728952,803.5791612294834,777.5524712186618
1731140449.4387798,801.4269079594505,785.9218070913477,800.0605893768193,757.5289065344092
1731140449.4426737,801.8704754240038,789.7277558838822,798.338567054716,749.9374560908209
1731140449.445701,802.3066393672038,794.4645654191504,799.645802083298,756.9709954352072
1731140449.4465678,802.7351218928828,798.2682177883605,803.8213541831628,775.098501716713
1731140449.4504616,803.1615973114002,800.3615428505984,809.4280212399683,797.5812290217857
1731140449.4511898,803.5975153233029,800.9665288570563,814.6840228037158,817.6365637016385
1731140449.4543557,804.051297848402,800.7661195589885,818.6070009383441,830.9290797476533
1731140449.4582496,804.5122633624637,800.4091585816024,821.5085087307738,836.5041030485929
1731140449.4621437,804.9410000545686,800.2815301105559,824.416810742607,836.0975057417015
1731140449.46455,805.2887350840211,800.4840568654151,827.8253801494409,832.5772931828094
1731140449.4649518,805.5560019445394,800.8852677138127,830.7591547639275,828.5470420647713
1731140449.4660375,805.8574355701517,801.212818294548,831.0464039994308,825.7109317652657
1731140449.4667785,806.406581625023,801.2020797852551,826.8173282731419,824.8723691687754
1731140449.4699316,807.3365449148256,800.7440871303431,818.1621052381932,826.0565643709585
1731140449.4738257,808.3989610611505,799.9166331310462,807.5306014649387,828.5187961425054
1731140449.4777193,808.8160307542714,798.8882534058926,798.3845551549161,830.9306188703575
1731140449.4816134,807.699279614368,797.8396393894652,793.1361213542112,832.0841288991589
1731140449.4823673,805.164305127602,797.012799083327,792.0363912912882,831.8232403475338
1731140449.4833994,803.4018973729272,796.7832812016916,793.7102519576664,831.33056412977
1731140449.4855072,806.1381126563742,797.5515251724751,796.4847308182177,832.2349600609039
1731140449.489401,815.7036404728238,799.4496754435664,799.1743205799229,835.1247879062447
1731140449.4932952,829.7277851138308,802.134181355493,800.9344034512643,838.7876833597887
1731140449.4971893,841.1973719935496,804.9096701595879,800.9150226698455,840.9347793849199
1731140449.497956,843.0716920369797,807.0917697047355,798.4761105525307,839.7961564457744
1731140449.4998207,833.9424575858628,808.2670189034887,793.8325481807332,835.2314247737626
1731140449.5010831,819.6837082304827,808.262812798763,788.3510308241329,828.6217032935745
1731140449.5022483,809.3623431179738,807.0147558374787,784.002700431882,821.9905385523358
1731140449.5049772,808.5573774360523,804.6397478966501,782.277215615705,817.2171329949134
1731140449.5088713,815.3892768505262,801.7106076129202,783.3674513281576,815.6109231266644
1731140449.5127647,822.4091564870213,799.3374806474119,786.2352509960396,817.5151701125492
1731140449.5135448,822.8554376731346,798.697883481257,789.4632728601581,821.8551668543622
1731140449.516659,816.2783262323654,800.1918843271868,792.161659880899,826.2272705066157
1731140449.5205529,808.9672610250675,802.9247670123208,794.2095736902336,828.1049484811388
1731140449.5210977,808.7652753594033,805.1288613329401,795.8145949189415,826.6781576048692
1731140449.524447,818.4126942309084,805.3702659742439,797.0537917522738,823.7919732235406
1731140449.5283408,832.7882423628743,803.6020331699241,797.9349625527132,822.7766573117849
1731140449.5291336,842.3300824916159,801.1283149145394,798.7377213258607,825.7499720096057
1731140449.532235,840.0814742233943,799.4543765009021,799.9688281912103,831.638631758495
1731140449.5346897,827.0184285303403,799.01360043741,801.779959453669,836.8766091698152
1731140449.5361288,811.5768628427702,798.8945084121526,803.5048623055964,838.4032864550691
1731140449.539947,803.5649717070269,797.7825411567477,804.004837859516,836.3023607086003
1731140449.5400229,806.8709239591609,795.251693951281,802.6441828586001,833.5648672185814
1731140449.5439167,816.52465675587,792.2883485428794,799.9509655587328,833.1295230661689
1731140449.5447223,822.6278964583008,790.6429170488077,797.2689327315587,834.9974890619463
1731140449.5478108,818.2979930656444,791.5531474267405,795.7244208931587,836.1376837157279
1731140449.5517046,805.2239629484026,794.7984921575713,795.4948893832449,833.1445453511367
1731140449.5555985,792.0858298423418,798.7547546623659,795.963240268965,825.0181289322417
1731140449.5587962,787.0868703690144,801.4319090289447,796.4064749666371,813.5983810358175
1731140449.5594926,791.0439634561278,801.8139198828101,796.4908143121129,801.7041882512963
1731140449.5603113,796.9826512344924,800.5666236437288,796.2790353048018,791.1199413464993
1731140449.5633864,796.314999977801,799.5826932977458,795.977263053672,782.2035132974825
1731140449.5672803,785.9048547679632,800.6913204920716,795.7283653200442,774.8440584636438
1731140449.5695586,769.9706922071389,804.4976196104567,795.5600074448291,769.2317328812943
1731140449.5711744,755.8992074572949,810.1608252411314,795.4334404532941,765.639743179902
1731140449.5750685,748.4688328361777,816.1228180835463,795.3056872859476,763.8559764239706
1731140449.5758998,747.498724327839,821.0955448110074,795.158822082829,763.1409274035211
1731140449.5776453,749.7509053076594,824.5726798721125,794.99687247464,762.6979516072444
1731140449.5789623,752.1218167172497,826.6513808638072,794.8307611348919,762.0794376384524
1731140449.5828564,753.3000661595229,827.5066905027633,794.6675218804984,761.2255398106806
1731140449.5867505,753.5019195234366,827.0367290903556,794.5080933526308,760.2668978209954
1731140449.590644,753.4450779263645,824.9545212913522,794.3501788435176,759.3300396014354
1731140449.5914886,753.6079222903247,821.1923113361609,794.1914970143786,758.4593063383396
1731140449.5945382,754.0650921239618,816.2277104632769,794.0311695754289,757.63562284801
1731140449.5964944,754.6705269109111,811.0250139765175,793.8694411720169,756.824508688605
1731140449.598432,755.2745114316717,806.6180826692474,793.7068574725954,756.0064451004902
1731140449.6023262,755.8194033807744,803.638646589955,793.5437239660597,755.180614399694
1731140449.6044278,756.3232991292004,802.0920155947723,793.3800236038811,754.354835165455
1731140449.60622,756.8257052934081,801.4686797596573,793.215583152304,753.5358455100106
1731140449.6070774,757.3508147217769,801.0812464402503,793.0502425313342,752.7258048453605
1731140449.610114,757.901292041162,800.4413240638169,792.8839196563297,751.9236535019778
1731140449.614008,758.4690547339083,799.4921009174861,792.7165898760553,751.1277106529484
1731140449.6153438,759.0466225080886,798.5632346714626,792.5482415768704,750.3371813691133
1731140449.617902,759.6316192869299,798.0655656297524,792.3788493091031,749.5522533615506
1731140449.621796,760.2255188986129,798.1495644726951,792.208371262732,748.7735270073769
1731140449.622666,760.8307001643541,798.6065046009844,792.0367588122836,748.00151418322
1731140449.6256895,761.4486152883452,799.0744421021182,791.8639653110782,747.2364785289064
1731140449.6295838,762.0795811876133,799.3232401346494,791.6899490932457,746.4785215651154
1731140449.6334777,762.7233988447041,799.3576406277188,791.5146721354331,745.7277222786697
1731140449.6341927,763.3799416182184,799.3108545249372,791.3380977140283,744.9842170429193
1731140449.6373718,764.049362407778,799.2951672786172,791.160189118989,744.2482086939178
1731140449.638255,764.7320068965064,799.341323080481,790.980909649229,743.5199376183673
1731140449.6392968,765.4282537582798,799.4239424624164,790.8002231842858,742.799639940517
1731140449.6412656,766.1384229580477,799.5087701196717,790.6180946678676,742.0875030861338
1731140449.6451595,766.8627718768219,799.5789370625795,790.4344902726633,741.3836384373369
1731140449.6490536,767.6015346072338,799.6355179101101,790.2493773482338,740.6881143659797
1731140449.6529477,768.3549577392439,799.6866019290867,790.0627243340838,740.0010839392951
1731140449.653042,769.1233097475745,799.7382266938724,789.8745007381743,739.3229570648023
1731140449.6538436,769.9068624262284,799.7917678414942,789.6846771761353,738.654432534421
1731140449.6568415,770.7058574547345,799.8457317145792,789.4932254167336,737.9961585379133
1731140449.6607354,771.5204851527726,799.8983193811395,789.3001183943555,737.3480199807445
1731140449.6646297,772.350910809264,799.9487198081898,789.1053302025824,736.7085910258567
1731140449.6685233,773.1973645682548,799.9970486704307,788.908836132772,736.0757665654885
1731140449.6694326,774.0602461527609,800.0437432175729,788.7106128180947,735.449218320918
1731140449.6718912,774.9401135189478,800.0891014507978,788.5106384492608,734.8335256832942
1731140449.6724174,775.837420040129,800.1331713024107,788.3088928708005,734.2383249716064
1731140449.6741655,776.75204938505,800.1758595567543,788.1053572879404,733.6713045653364
1731140449.6763113,777.6830552599926,800.2170671850539,787.9000135252795,733.1247381993808
1731140449.680205,778.6292550380039,800.2567513847265,787.6928433527892,732.5665609662252
1731140449.6840992,779.5909461428581,800.2949171449144,787.4838289785185,731.9549880731414
1731140449.6850214,780.5717389139295,800.3315836163113,787.2729555662561,731.2866605646819
1731140449.6879933,781.5779956738786,800.3667608221908,787.0602148278781,730.6528205679191
1731140449.6907406,782.6135155674534,800.4004460733402,786.8456059145631,730.2325594466505
1731140449.6918871,783.6708845510617,800.4326320553212,786.6291287465933,730.1496449799571
1731140449.695781,784.7276402321816,800.4633150422659,786.4107694638012,730.2206016896255
1731140449.699675,785.7592118159093,800.4924961008664,786.1904887085898,729.8175778710856
1731140449.7006102,786.7720723169313,800.5201745357072,785.9682335427508,728.2024669965581
1731140449.7035687,787.8357082534694,800.5463391137632,785.7439870336447,725.4866299348545
1731140449.707463,789.0653223742718,800.5709675263736,785.517833401314,723.696861813854
1731140449.7090347,790.5149329012811,800.5940436121709,785.2899646666923,726.680170567278
1731140449.7095895,792.0170180786238,800.6155888274905,785.0605415345809,737.8798681931245
1731140449.7113569,793.12970540026,800.6356804155645,784.8294173781093,757.1525970526772
1731140449.715251,793.4072511483516,800.6544125291451,784.5959449586662,779.8948486010826
1731140449.7161987,793.0181312613098,800.6717816988477,784.3592565921196,800.2548291278265
1731140449.7191448,793.2384620648722,800.6875630909392,784.1192385148497,815.7394988572805
1731140449.723039,795.9735874421599,800.7013452286017,783.8777038848162,828.6346806545237
1731140449.7269328,802.1586285025699,800.7128827821477,783.6383227163834,842.9573197341068
1731140449.7284389,810.5816595962939,800.7226763995857,783.4037616305195,860.1794820980499
1731140449.7308266,818.9972500894911,800.7322378240589,783.1704901129754,877.7969790442546
1731140449.7317877,826.8501693781784,800.743237443341,782.9257081155447,891.6257661687512
1731140449.7347207,836.4242973723038,800.75529103211,782.6536759911903,899.1995447649065
1731140449.7386146,850.5483384305871,800.7637980259389,782.3547195110561,901.2414989834222
1731140449.7425086,868.9448402132488,800.7610424458692,782.0661027071928,900.6361771842317
1731140449.7439036,887.1292217455738,800.7432849415416,781.8569229716305,900.5444727091282
1731140449.7464025,899.2859192678352,800.7214863962793,781.7700488021251,903.1706526416434
1731140449.747288,902.592553068027,800.7248999218399,781.7254392100726,909.1979169385596
1731140449.7473764,899.1879060783605,800.7828747280122,781.4747264649011,917.3495172383534
1731140449.7502966,894.3108506297624,800.8824991384489,780.7428297263392,924.3987413714502
1731140449.7541904,892.4089701558611,800.9318477352878,779.6041994273581,926.5190552904335
1731140449.7580843,894.29798363929,800.790435863098,778.8744827157658,921.7925858311378
1731140449.7619784,897.2398552380045,800.4140448426232,780.0194290717254,912.0691264396606
1731140449.7629652,897.6073783146894,800.0621232985243,784.2291047575296,902.3818727286075
1731140449.7658725,894.1803873650226,800.3708723601507,791.153169714508,898.110946058601
1731140449.7661374,889.7476652695526,802.0740333365771,798.5750882837468,901.9735718964846
1731140449.7697663,889.6749420261051,805.4294939193755,803.6878418151646,912.8319166604468
1731140449.7736602,898.1067107783099,809.7959947154808,804.9593987284112,926.6596775169621
1731140449.7775545,914.3610198653481,813.7894962544298,802.9072886579462,938.5867787824743
1731140449.778554,932.3209646183511,815.9558703363002,799.2459086825157,944.7651783598702
1731140449.7787726,943.7027013012414,815.5020831051177,795.3971916340302,943.469254847894
1731140449.781448,943.2493676964066,812.6966752500732,791.7376338010571,935.4620130493172
1731140449.7849865,932.2776153993316,808.8160944282756,788.070659407031,923.7679423288924
1731140449.7853422,917.9020236446556,805.6657870861133,784.6231546120503,912.8071003763813
1731140449.789236,908.2526929704445,804.7943383230987,782.4379229614123,906.8640315708498
1731140449.7931302,907.0627937985457,806.69088911656,782.6894690292123,908.282546968687
1731140449.7941427,911.7022897623742,810.4070748167665,785.54179428462,916.2373151565118
1731140449.797024,916.1438400539508,813.9182172711958,789.6766156179067,926.9119587565651
1731140449.800918,916.3077662182496,815.1088771062765,793.064853268957,935.2440041487616
1731140449.8038356,913.1998522752968,812.8508071466589,794.4219944347276,937.4131603148971
1731140449.804812,911.1918926711912,807.5756111371963,794.1180657609725,932.6114305713518
1731140449.8087058,913.1279896040628,801.0652944674372,793.7468431846295,922.9686150705356
1731140449.8097315,916.8423835038358,795.6275803892834,794.719084608728,911.8114373963309
1731140449.8126,916.5089234469766,793.0858669377415,797.0734244824326,901.7242871676234
1731140449.8136415,907.9279228144403,794.0071458803129,799.4692225593316,893.8967734374951
1731140449.8164935,893.1202875771494,797.4571177411434,800.3049419297436,888.8481687526944
1731140449.8203878,879.8162805327546,801.4297604467431,799.0189275788994,887.1928073327716
1731140449.8226848,875.6666564558104,803.8636045263032,796.5672326562407,889.190825614323
1731140449.8242817,881.7694771169689,803.7662298907522,794.7693773737176,893.3961186596873
1731140449.8253202,891.1575192861571,801.7100936094412,795.0528484205807,896.1015121389042
1731140449.8281758,893.9690532717334,799.2686306203353,797.4993331116615,892.8868197153791
1731140449.8320696,885.274458460586,797.7775162444225,800.8010232072376,881.6073195158616
1731140449.8359635,869.0432114855054,797.4278512892914,803.0674603202214,864.5440087942808
1731140449.8398576,854.9314175221086,797.4553831307613,802.9172027483357,847.8317828504919
1731140449.840909,850.6793899904349,797.2158119564504,800.2627041109843,838.3197455173142
1731140449.841534,856.4412040443782,797.1063721729225,796.4855672735666,839.8230674600429
1731140449.8437514,865.381578270516,798.3963023979887,793.9342948024762,850.9890312181748
1731140449.8476455,869.5285192241358,802.0148645497511,794.8053681834529,865.9486551869342
1731140449.8485105,865.8641823430958,807.3415850481057,799.7552093228344,877.4005023605532
1731140449.8515394,857.8856128262076,812.1173659041126,807.0353749056534,880.3713979796787
1731140449.8554337,851.6966091479038,813.6486013662029,813.0109384210381,874.3067768322009
1731140449.8564978,850.0621929190817,810.3982645993383,814.1484934059935,862.1761171450897
1731140449.8593273,849.5649935685153,802.8464474692518,809.3374180892157,847.6346537818764
1731140449.8603833,843.5900540398396,793.2255821149065,800.8457148158103,832.9191962811695
1731140449.8632214,828.8565477220371,784.5486673641602,793.0467767343205,819.1745852597779
1731140449.8671153,809.6650146750154,779.5420954966396,789.7543256283977,808.1189557811897
1731140449.871009,795.4969526174417,779.8069789742141,792.1093527509936,802.4516213393482
1731140449.8720863,793.423501877795,785.3166731504346,798.447628535817,803.9936059265929
1731140449.8749032,801.7949431684833,794.3800079351566,805.8966550298143,811.415204457412
1731140449.8787973,810.9579435817932,804.1795905703676,812.1554350458798,820.2126038841973
1731140449.8792324,810.7314155194613,811.7589273940163,816.1243023784231,825.4511373064419
1731140449.8826911,798.5809386316547,815.0746060665015,817.3975177371351,825.092821084905
1731140449.8833797,781.9131937188733,813.6983976474993,815.6876338357054,821.187233703352
1731140449.886585,772.6968004249283,808.9276158896132,811.0197090411823,818.0624304475144
1731140449.8876753,778.4902849315013,803.2619829833887,804.4005078230299,819.0021775021174
1731140449.890479,796.5438238829953,799.3828212663636,797.9363406068599,823.8869355629495
1731140449.8943727,815.3826833356369,798.9869667904048,793.8726013928223,829.4264225379458
1731140449.8980815,822.8252975648209,801.998299557523,793.2205191299638,831.6469016218899
1731140449.898267,814.4797824010013,806.5807023940382,795.1969299160593,828.581935113443
1731140449.902161,796.1940131858846,809.9815425672743,797.9883782038523,821.0243378950298
1731140449.903264,778.6722327260339,809.8264584955568,800.117709231809,811.023421394424
1731140449.906055,768.9597723179633,805.3104436812312,801.2246058753286,799.9882204684188
1731140449.9099488,766.0099188393539,797.7538998597657,801.7642479637376,788.4900933519996
1731140449.913843,763.6050635237526,790.1477317305074,802.1583927441557,777.7141532089043
1731140449.916931,757.189555651982,785.7164100417187,802.2805308775656,770.338101803206
1731140449.9177368,748.0577443739853,786.1777901599414,801.6491465116278,769.0530688701349
1731140449.9182484,741.4441694345481,790.804281834885,799.9913184221358,773.6993695456196
1731140449.918853,740.9137384505578,797.0084265824763,797.5932698545362,780.0014966531875
1731140449.9216306,744.4887950117994,802.0593028363697,795.1678259847483,781.7598733861239
1731140449.9255247,745.9383429841787,804.621157766157,793.4312298924668,775.0897615443694
1731140449.9294186,739.9913204916896,805.0427285503689,792.7561648077944,761.2007582588726
1731140449.933313,727.0236161124656,804.5064628513051,793.0768615570986,745.4008296229938
1731140449.9344418,713.3220733594104,804.0074796946267,793.9509004836888,733.294598806346
1731140449.93578,706.5832087938627,803.9139438438556,794.6375746104136,727.3758452632215
1731140449.9372065,710.0429176872334,804.1190019405915,794.2324856499614,726.4799040215437
1731140449.9411006,719.7853039195994,804.3863674544609,792.0194994951702,727.8700401681031
1731140449.9449944,727.4598378042408,804.5743628622054,788.0414433550577,729.6830298706157
1731140449.9488883,726.4928195430948,804.6713571511408,783.5534884795378,731.6708571000032
1731140449.9500306,717.072791543558,804.7291727329658,780.8564387973231,734.0698113930291
1731140449.9527824,706.035634504076,804.794629821732,782.2766635001738,736.1247131122606
1731140449.9531174,701.6945704224112,804.883188065428,788.6774558374957,735.888386031561
1731140449.9546292,707.5293754525751,804.9871926058182,798.4231451780805,731.5547806463755
1731140449.9566762,719.479252369536,805.0938546650223,807.6953579680122,723.131305081085
1731140449.9605703,728.8864720466548,805.1961856475172,812.3310746111074,712.9771155476807
1731140449.9644642,728.9572046479007,805.2940719022428,810.2795033366668,704.7168367419189
1731140449.965619,719.8868135466946,805.3904406978446,803.0906855094081,701.2713083127246
1731140449.9683585,708.5881879256417,805.4877122137592,795.2051126457103,703.2095775711078
1731140449.972252,703.032564371187,805.5865915115722,791.2319571455779,708.2554061824396
1731140449.9734786,705.690210677452,805.6866208904013,792.9934279024667,712.2227303475441
1731140449.9761462,711.6433046641232,805.7871431372413,798.5218964887858,711.2038586958076
1731140449.98004,713.2051658816162,805.8878388454225,803.7903065514959,704.1775539859854
1731140449.981208,707.1810920089,805.9887451261609,805.7311486221937,694.4199210908353
1731140449.9839342,698.3387127266552,806.0900416608248,804.0540838232225,688.2008868054157
1731140449.987828,695.8065411648302,806.1918735891749,800.561650667281,690.9519519000445
1731140449.9879863,705.3311983595288,806.2943022819773,796.9733949319549,703.3513339009601
1731140449.991722,724.028098670068,806.3973370835205,793.4735352623826,720.3961131750498
1731140449.9923277,742.1659472533584,806.5009698821343,789.2264722506657,734.4984875545247
1731140449.995616,750.5338501119443,806.6051776173533,784.0552127228324,740.443868611418
1731140449.9967968,747.2678699386682,806.7099158084762,779.3915063360029,738.4697628008347
1731140449.9995098,738.6080466444976,806.8151513612568,777.4460293307784,733.2768802825956
1731140450.003404,733.2912658572678,806.9209501519517,779.3727506120572,730.1634907011696
1731140450.0072978,735.5532672688074,807.0275518358254,784.1846286226947,731.6133500679199
1731140450.0111768,742.4967223260792,807.1352910350535,789.4084936164257,736.70037683899
1731140450.0111918,747.5063160332089,807.2442690382208,792.8162219315122,742.8755073105059
1731140450.0123856,746.3469540230209,807.3539234590431,793.7131331102191,748.0069113921121
1731140450.0150857,740.829912517059,807.4629898651549,792.9015103262708,751.2196947849114
1731140450.0189798,737.374290928801,807.5704336657006,791.6962900154346,752.6723030764822
1731140450.0228553,741.9101358130923,807.6772850644205,790.9784015129935,753.039365910755
1731140450.0228736,755.1506317539927,807.7879067356658,790.9039018277542,753.0672157128078
1731140450.0267675,771.7549398882596,807.9080978617538,791.1830222072318,753.2268512246674
1731140450.0279744,783.9627820358922,808.0385929199023,791.4880518223492,753.6062082493432
1731140450.030026,787.0100130362468,808.1672946593189,791.6684797159876,754.1885964125835
1731140450.0306616,782.2991583268763,808.2698458126114,791.7403456692713,755.2640442001301
1731140450.0345554,775.9367619220433,808.328747434194,791.7800663066294,757.4524073389564
1731140450.0384495,773.8028531971721,808.3677643790302,791.8418762136521,761.1885910534605
1731140450.0423434,777.105245539311,808.4716662980828,791.9364629062993,766.1790742910212
1731140450.0435631,782.0233351763998,808.7424908923466,792.0490777935808,771.4800771663854
1731140450.0462377,783.6412323365208,809.169664413652,792.1632413021314,776.2414801343342
1731140450.048875,780.6951204528382,809.4822391297494,792.2720221783225,780.4375036561316
1731140450.050131,776.9077077648416,809.1550260844208,792.3769221633098,784.8175457443698
1731140450.0540254,777.5869470169102,807.704480633596,792.4821280883671,789.960672972367
1731140450.0577242,784.3192097991349,805.1255950436412,792.5903636042691,795.1600583098107
1731140450.0579193,792.4865173496123,802.0379108779605,792.7020202188767,798.2192522253608
1731140450.059152,794.2493514665841,799.295571941358,792.8162407402434,796.7263467137707
1731140450.061813,785.0371230104009,797.3750848781847,792.9321649504566,790.1632911082763
1731140450.0657072,768.2046057008816,796.0811800204028,793.0494667491673,781.1642401918401
1731140450.0677245,753.4729386132851,794.7619226594027,793.168251212986,774.4603114576835
1731140450.0696013,749.7686910139383,792.8107271481774,793.288740823476,773.7954186994896
1731140450.0734951,758.0762568751563,790.1400735896434,793.4110668817834,779.0744659342056
1731140450.0747406,770.3925095211855,787.3970512969854,793.535236071026,786.2489199160701
1731140450.077389,775.9963115046997,785.7671071932922,793.6611930350809,790.3343941938235
1731140450.081283,770.0482435637259,786.3633885893578,793.7888857505355,789.2069362764613
1731140450.0851767,757.4709317581998,789.497095634733,793.9182927960557,785.0424674724648
1731140450.0865736,749.0032523572008,794.3382972202543,794.0494186474614,782.2854000649639
1731140450.089071,752.7781254206122,799.2966326640776,794.1822772828167,783.9650775169077
1731140450.0903294,768.1563349820439,802.9174730019197,794.3168759958943,789.3390115817962
1731140450.0925932,786.30825554183,804.6437381529817,794.4532020942792,794.4590213537406
1731140450.092965,796.5718193112384,804.8946851542793,794.5912171040429,794.9186925415629
1731140450.0968587,793.5547288610453,804.5207336705363,794.7308710237616,788.7349611660005
1731140450.1007528,780.0785647715852,804.1858724486333,794.8721457757621,777.6360964463234
1731140450.1046467,764.6057553113947,804.1216342697727,795.0151085695006,766.2446548312004
1731140450.1054227,755.6724022725248,804.2493387027786,795.1599134939902,759.7939215589428
1731140450.1059182,757.3117501118071,804.4127410860992,795.3066803473816,761.58150071751
1731140450.1085408,767.9858999927908,804.5220336001537,795.4552628247479,771.3139413013993
1731140450.1124346,782.8090620267237,804.5727780583549,795.6050953389635,785.0670846030744
1731140450.1163287,796.9339376084877,804.6002303776393,795.7554452177251,796.9813870836917
1731140450.1202226,807.8224835308571,804.6347525689448,795.9062416312671,802.078114987022
1731140450.1215067,815.3403474983714,804.6856556218687,796.0590416263163,798.8662284194229
1731140450.124117,820.2030732234957,804.7473917753148,796.2169111137205,790.1940139170246
1731140450.124272,822.3250653525108,804.8114948848919,796.3819549154825,781.5814238294903
1731140450.127462,820.5437890421828,804.8735342747214,796.550969149744,777.876406490165
1731140450.1280105,814.0522716438887,804.9335814131306,796.7130494836871,780.4444615686059
1731140450.1319044,804.351917381714,804.9935970222791,796.8552397241447,786.9465516386348
1731140450.1357985,795.7473284735822,805.0551272884995,796.9787154609371,793.7983987434852
1731140450.1370957,793.225788302759,805.1185725218775,797.1160755904998,799.0548910168678
1731140450.1396923,798.7589025253158,805.1835887245605,797.3264554876592,803.0185369545327
1731140450.1431212,808.996977876364,805.249725144066,797.6473165240394,806.1922743650501
1731140450.1435864,816.9823487920478,805.3167646622715,798.0191274779932,807.1756402252819
1731140450.1474802,817.4131772114786,805.3847234683589,798.2675508129861,803.3626783393039
1731140450.1513743,811.3806630406337,805.4537044688105,798.2459683975956,794.0996616602537
1731140450.1526845,805.9734224767046,805.5237800935348,798.0647701680488,782.6972277580388
1731140450.1552682,808.1418587527521,805.5949622659415,798.0679239637492,774.3859190155264
1731140450.1591623,817.7389143928822,805.667229487761,798.3629800472443,771.694465617509
1731140450.1619704,826.3492929524739,805.7405601837384,798.3693849149689,772.0384423873817
1731140450.162331,823.9387249530048,805.8149432880853,797.1408756174714,770.4931056317715
1731140450.163056,808.0640968905642,805.8903669766363,794.4378136681328,765.3055085966807
1731140450.1669502,787.2365427310475,805.9668055663518,791.4453004813251,760.4431822539774
1731140450.1682734,774.6699950245239,806.0442274916188,790.0947783719782,762.172202187796
1731140450.170844,777.3981823829894,806.122631771877,791.3619185764246,772.7694622896423
1731140450.174738,790.4166874669313,806.202087850699,794.1850753023317,787.6076421895986
1731140450.178632,801.267901967688,806.2827212501375,796.2179928394273,798.6305496562846
1731140450.1808195,801.041267475304,806.364594970524,795.7958102576266,801.0070013543492
1731140450.182526,791.9949705455696,806.4475232940727,793.2306668039637,796.8737269592423
1731140450.1838622,785.2199228820948,806.5310006475679,790.2723103905132,793.1230155589724
1731140450.18642,790.6975553061085,806.6145018103629,788.4567629513186,795.7006085999203
1731140450.1903138,808.5227760325035,806.6982091520555,788.0485907446839,805.5133825274384
1731140450.194208,828.6199572335261,806.7836756646532,788.4160278633831,818.8835072021533
1731140450.1972,838.8303492799806,806.8733745081912,789.0933087710922,831.1912060301565
1731140450.1981018,834.4621237694132,806.9683126078004,790.2298130686073,840.0355547688087
1731140450.199451,821.6754841624128,807.0646085404705,792.0249889996156,845.5980142018874
1731140450.199669,812.3839903910355,807.1526327842046,793.9556319865948,848.9899391936837
1731140450.2019958,815.0075807804657,807.2233505206905,794.8211680804799,850.9330038425522
1731140450.2058897,828.310539432704,807.2821741099258,793.7314948677364,851.9184271677706
1731140450.2097836,842.8800962669388,807.3600673015444,791.1338705865187,852.8504235444569
1731140450.2136776,848.8419205817734,807.5018595400718,788.8595719192491,854.7072414096159
1731140450.2150395,843.6973106621444,807.717745194552,789.0553175763071,857.3236606638246
1731140450.2175715,834.2207255130166,807.9172338280879,792.8376897349464,858.8791599159312
1731140450.218518,831.0451354700383,807.8836965728628,799.622589974449,857.1090565423615
1731140450.2214656,840.1919478238889,807.3302280674474,807.3734774198475,851.2471625253648
1731140450.2253594,858.0731404962975,806.0004837521324,813.3840059105501,842.6875382055285
1731140450.2292535,873.8144924853572,803.7604805227705,815.2471233552166,833.6497994543471
1731140450.2306285,877.2207372384262,800.706383886916,811.9257289485597,825.3442401966486
1731140450.232069,866.4053732582703,797.3094931595459,804.6219282009127,817.6972236898154
1731140450.2331474,849.2239133927416,794.4565298731736,796.6403802935371,810.8796231892155
1731140450.2370417,837.2648325220683,793.1799378822541,791.6612039853048,806.7148672354039
1731140450.2373672,836.9996318992463,794.1287733080763,791.1770472214288,808.0403525446407
1731140450.240935,845.1990102985852,797.1719216384513,793.1500869643309,816.3257549658671
1731140450.2448292,852.4441901920408,801.4997032801305,793.4838051441045,829.8313196789851
1731140450.2462173,851.727910428892,806.1316997455626,789.5126124431721,844.1499242523121
1731140450.2487233,844.5677022502869,810.3305882503361,782.5291496640941,854.6994168528466
1731140450.2526171,839.1731535427763,813.5574196465623,776.8663662449798,859.1016763729888
1731140450.2562163,842.4001648997966,815.1746350678479,776.1671600238884,857.8651440532404
1731140450.2565112,852.8536403487553,814.4594420154309,780.2355807894158,853.4350746503858
1731140450.2604053,861.3472697759398,811.1600878781993,785.3790407794471,848.685804681235
1731140450.261806,858.301408371319,806.1071994034293,787.8143770652435,845.75337194849
1731140450.2642992,841.7531735990973,801.0992229504866,786.8817434627807,845.5306743340673
1731140450.266938,819.4106566754506,797.8625872235689,785.2306309667224,847.8277212257401
1731140450.268193,803.2316329733751,796.8474749972859,786.1410680730212,851.9828631728496
1731140450.272087,800.8646646492512,796.9562576708644,790.6203914444859,857.3942078628646
1731140450.2750657,810.4818355804802,796.5539281026087,796.6843703771772,863.4174917023554
1731140450.2759807,822.7377375160411,794.9179011450469,800.9772268564741,868.7363648208207
1731140450.2773948,828.1137735625024,792.815021361228,801.0132127052115,871.1341813958827
1731140450.2798748,823.871876441092,791.6694790471553,796.3637708555775,868.4946407761913
1731140450.283769,815.3154011341737,792.1071836791851,788.4818041953658,860.5951228407288
1731140450.2876627,810.7292589925933,793.2607135873376,779.9035003369364,850.0902744956153
1731140450.2915568,814.5090535015744,793.5126635187975,773.4606446882576,841.4788357360335
1731140450.2929835,824.2521538163422,792.0196375028715,771.4774194908389,838.6109372298174
1731140450.2939148,833.8603122595136,789.6355541221621,774.7725017391354,842.5993825358019
1731140450.2954507,839.3557838129445,788.363591474745,781.8638619055267,851.5116539942651
1731140450.2993448,841.9752040258144,789.7223769822259,789.2625141496311,861.64258888652
1731140450.3018067,845.944127883278,793.3398793545514,793.2501112730608,869.204538822524
1731140450.3032386,853.321287786388,796.9424242401543,792.215443668655,871.5475476642482
1731140450.3071327,860.8924174946114,797.822118550788,787.7552654552362,867.7416615734397
1731140450.3085723,862.2033620116874,794.7176216626164,783.4748852414186,858.7004161483809
1731140450.3110266,853.3019802263517,788.7383179492207,782.3523683822947,846.9987740275052
1731140450.312764,837.4036089848485,782.7130504318435,784.8420127848254,836.4076356672876
1731140450.3149204,824.1738998393727,779.513595982628,789.2074652299935,830.9841496450143
1731140450.3188145,823.4021104819645,780.5490125901368,793.5064778715306,833.5294195353406
1731140450.3227084,837.5442147076616,785.3027445763554,797.2289246447936,843.7782996526118
1731140450.3241613,859.1403949478823,791.9108856754447,801.1586497505298,857.6039939540292
1731140450.3266025,875.7516696611116,798.1935654358812,805.9037526513575,868.6093218393935
1731140450.3304963,879.1010413881306,802.5846398873795,810.7885935976215,871.9055368060232
1731140450.3316133,871.3931296070962,804.6408613580838,814.2443675366934,867.6835397751889
1731140450.3343904,863.6379181062287,804.9466261068653,815.194575911499,861.612909476532
1731140450.336676,866.9693178145794,804.5064021131179,813.9718325073778,861.2043060632328
1731140450.3382845,883.5616673399533,804.0912043697105,811.9149367156731,870.5007443347422
1731140450.3397498,904.3069922154539,803.9758484047093,810.1469945599995,887.0206883974989
1731140450.3421783,915.3378949397745,804.0780805537189,808.6770084724494,903.3004125403987
1731140450.3460722,908.5783094794544,804.2226418749716,806.4681555814991,911.8852214906732
1731140450.349966,888.1834386611445,804.3067558412854,802.2737485784261,910.0438530838131
1731140450.3504624,867.7771568088023,804.3239783744824,795.6668544218296,900.8950863245874
1731140450.35386,860.5120162319852,804.3136104179996,787.7419274739831,890.5853803537282
1731140450.3553386,869.492076698362,804.3101610490064,781.0584975304874,884.1039383193685
1731140450.357754,885.7061718121213,804.3245513887185,778.5965690910267,882.9075364907862
1731140450.361648,894.8386099501427,804.3507520152513,782.0864617689093,885.5697104746897
1731140450.365542,887.7454459436442,804.3792200239789,790.7569306288049,890.1104862235325
1731140450.3693116,866.9056004410436,804.4048676919739,801.5137545533869,895.6920933971614
1731140450.369436,844.4154487409046,804.4277031849682,810.5744999624453,902.5169331301263
1731140450.370927,833.4301171102637,804.4499216958175,815.4607648177406,910.6450011386166
1731140450.3715448,839.5182618503734,804.4732885931246,816.0200937787173,919.2346822836021
1731140450.37333,857.9307526560164,804.4982832122831,813.9549518271723,926.902793766333
1731140450.377224,877.9992517821282,804.524534399829,811.3904674064743,932.599174664714
1731140450.3811178,890.636149711408,804.5515391307367,809.5112295591566,935.9706906938322
1731140450.385012,893.1694597413245,804.5790537670454,808.073988191196,936.9134964606118
1731140450.386516,888.6226159497143,804.6071001229299,805.9755150655084,934.9801040105656
1731140450.3881607,881.3751434602282,804.6358021585796,802.3918269803182,929.4982869835079
1731140450.3889058,873.6591068207921,804.6652518972146,797.6219596119367,920.4940359943272
1731140450.3927996,865.5940266051017,804.6954716665352,792.9675272429002,909.553723809256
1731140450.3966937,857.5932997450673,804.7264413200381,789.7645216726258,899.6049974963089
1731140450.4005876,851.8973586277453,804.7581363643491,788.4533362268016,893.5159571812524
1731140450.402105,851.3861954548372,804.7905469362215,788.5272018763562,892.570161089861
1731140450.4044816,856.8506687471822,804.8236766763212,789.3004075835537,896.0493680715878
1731140450.4064138,865.4958209691969,804.8575336516805,790.6294938588563,902.0857707759699
1731140450.4070098,872.3237698870371,804.8921235185699,792.8741818501759,908.7752391983483
1731140450.4083755,873.4497780428952,804.9274479068857,796.2530623860391,914.5761495409162
1731140450.4122696,868.6539316244074,804.9635060451731,800.3147622864361,918.112749216418
1731140450.4161634,861.0495334268206,805.000296750341,803.9801275292615,918.2067342158465
1731140450.417694,854.267502391674,805.0378193183998,806.0088197461663,914.4098399991608
1731140450.4200575,849.7952355011073,805.0760733741281,805.537393070255,907.3911352743825
1731140450.4239514,846.707000568703,805.1150583554174,802.5325388663349,898.5809291365306
1731140450.4258592,843.3621271317573,805.1547731513728,798.05516557621,889.3430393107996
1731140450.4278452,838.9433999723225,805.1952160215831,794.0299166326879,880.3998113863888
1731140450.431739,833.6571850414405,805.2363846760205,792.3262120613941,871.8334249871173
1731140450.4332826,828.0974887381512,805.2782763637741,793.6195259674607,863.4275882937617
1731140450.4356332,822.6785432073267,805.3208879002481,796.967903804669,854.9817700335708
1731140450.4395273,817.4863905056119,805.3642156414214,800.5172502567714,846.4302009448951
1731140450.441283,812.4146768434501,805.4082554423455,802.6833335977459,837.8068032734213
1731140450.4434211,807.3414577476018,805.4530026261026,802.8117847585029,829.1671747372249
1731140450.4447083,802.2143598499277,805.4984519683678,801.0793871346744,820.5413043951417
1731140450.4473152,797.0435314988401,805.5445976904581,798.2256624870677,811.9291870396906
1731140450.4488714,791.8594908440865,805.5914334529646,795.5314321723577,803.3176639323964
1731140450.4512093,786.6822655009844,805.6389523466922,794.6514025486688,794.6958801719449
1731140450.4551032,781.5146818815524,805.6871468816495,796.7375172260745,786.0604946470067
1731140450.458997,776.3502323499355,805.7360089760105,801.1942353337687,777.4132321571
1731140450.4628909,771.1822943241809,805.785529946161,805.3045408619261,768.7566743903467
1731140450.4635575,766.008170782732,805.8357004979036,805.56612424435,760.0919241002858
1731140450.46446,760.8283806208699,805.8865107186712,800.0382735997573,751.4185339127359
1731140450.466785,755.6443510356944,805.9379500711167,789.8666087012803,742.7354532870547
1731140450.4706788,750.4568654219017,805.9900073887895,778.6618568547534,734.0418226289944
1731140450.474573,745.2658064131003,806.0426708737692,770.1616543315357,725.3372077361892
1731140450.476152,740.0706166049367,806.0959280940306,766.0035230730856,716.6214490748699
1731140450.4784667,734.870779709751,806.1497659766759,765.2546029920735,707.8944385725642
1731140450.480049,729.6660088979608,806.2041707951238,765.80982548038,699.155998798362
1731140450.4823608,724.4561905870556,806.2591281558099,766.2782265311189,690.405873622723
1731140450.4824069,719.2412589265106,806.3146229993022,766.7933898638377,681.6437718721699
1731140450.4862547,714.0211229132235,806.3706396308037,768.3421150558124,672.8694241889953
1731140450.4901488,708.7956678810599,806.427161773416,771.5393583304376,664.082645395981
1731140450.4940426,703.5647906871332,806.4841725968962,776.0527430682695,655.2833857039556
1731140450.4956377,698.3284182244273,806.5416546488466,780.9889979241083,646.4717109083292
1731140450.4979365,693.0864841146308,806.5995896614731,785.573187195252,637.6476415117331
1731140450.501256,687.8388803504031,806.6579583536296,789.4061282375667,628.8108814512086
1731140450.5018306,682.5854418075294,806.7167405148626,792.2996471961624,619.9606737099672
1731140450.5057244,677.3260302566885,806.7759156299265,794.1446231163782,611.0961596329755
1731140450.5096183,672.0607193765642,806.8354638608079,794.9964099664861,602.2173914611726
1731140450.511021,666.7899390127583,806.8953664422808,795.145910664179,593.3263964274721
1731140450.5112264,661.514313183151,806.9556041487602,794.9919657364503,584.426815531148
1731140450.5135124,656.2340227000535,807.0161535148734,794.8349578308607,575.5207511637526
1731140450.5174065,650.9479904915903,807.0769833377597,794.7854297331868,566.6037029180454
1731140450.5201051,645.6538397943051,807.1380569345212,794.8163085192293,557.6624170710554
1731140450.5213003,640.3497111991348,807.1993445242114,794.8625255070348,548.6826419503985
1731140450.5251944,635.037762460744,807.2608411834233,794.884711570081,539.6686590418442
1731140450.5268152,629.7264952494133,807.3225716868114,794.879586192824,530.6618284606728
1731140450.5290885,624.426970204571,807.3845578195577,794.8615714394505,521.729912366384
1731140450.532982,619.1403051358411,807.4467459199982,794.843730225507,512.9040268871572
1731140450.5368762,613.8430673360082,807.5089472515698,794.8303909570096,504.08569295110897
1731140450.5389545,608.4890029331239,807.5708949295667,794.8194251969553,495.0203352371072
1731140450.54077,603.046265598455,807.6324892903825,794.8072582862301,485.4666522118897
1731140450.542404,597.5631315315186,807.6941250167182,794.7919261316166,475.583944944675
1731140450.544664,592.2045061657248,807.7567329632984,794.77338294549,466.2895353664477
1731140450.54589,587.1675524324737,807.8210974580497,794.7524353267038,459.10718493029265
1731140450.548558,582.4391895391958,807.886480452082,794.7297519988683,455.2982749744692
1731140450.552452,577.5395990378058,807.9496331629018,794.7055248282577,455.0321967704219
1731140450.556346,571.6102821312061,808.0061461412992,794.6796215811784,457.9033498788277
1731140450.5578036,564.188770999546,808.0552775311407,794.6518545945448,464.702993983217
1731140450.5579927,556.4948256730725,808.1058556622062,794.6221314047993,478.15850383992387
1731140450.56024,552.160412338314,808.1761035700894,794.590460535705,500.7322194526939
1731140450.564134,555.9844697658291,808.2795869489321,794.5568914064764,530.9297112418417
1731140450.568028,570.634995930273,808.3993333188686,794.5214634147366,561.9910910352427
1731140450.5719218,593.6303668355515,808.4721404314274,794.4841906786673,585.1770777189676
1731140450.5735817,617.5957076157274,808.4196671121215,794.4450715735583,595.5927527613906
1731140450.5758157,634.3090952861492,808.2439868834825,794.4041030618027,595.8848812687779
1731140450.5766528,639.7792705071614,808.1367283138502,794.361288450654,594.7186630276569
1731140450.5797098,636.6475387387346,808.468913327805,794.3166378474933,601.1408065111129
1731140450.5807588,632.1981985985025,809.5418317955018,794.2701651257945,619.0107835622089
1731140450.5836036,633.4660947701485,811.1819328845843,794.2218842921272,645.263088436772
1731140450.5874977,642.9265543938108,812.5305697420512,794.1718061449344,672.6206694820147
1731140450.5891702,657.6527600699937,812.3759520686527,794.1199362272472,694.2815802546955
1731140450.5913916,672.2373215578048,809.9651432179749,794.0662768855674,707.3560874729727
1731140450.5952857,683.168367978273,805.742098114881,794.0108361872642,713.5381907857428
1731140450.595502,691.5015839965425,801.3514260028342,793.953640868409,717.7076670937863
1731140450.5991795,702.0057561006936,798.7112194283474,793.8947405314913,725.8774763842812
1731140450.6030736,719.4508127887227,798.7201504026849,793.8341854857481,743.0909785237109
1731140450.604759,744.667080916032,800.6007318772022,793.7719752513824,771.2411515775133
1731140450.6069674,773.1848130149291,802.4914844930761,793.7080134320006,807.4245124294206
1731140450.6108613,797.5674495827201,802.8766071791757,793.6421428980008,844.2978918479592
1731140450.614351,812.0397458491578,801.6635024385185,793.5743166753231,873.1983294736589
1731140450.6147554,816.3120245782792,799.9838435003769,793.5048361752573,888.608888683913
1731140450.6156278,815.8738572811387,798.9563388942521,793.4343997984856,891.0737785572207
1731140450.6186492,818.4246063037722,798.6313586628589,793.3636396977957,886.5790616933771
1731140450.6203475,828.9345654865285,798.1536904166974,793.292141099815,882.9743327787704
1731140450.622543,846.9370616634234,796.959614996656,793.2176833648447,885.9606011750243
1731140450.6264372,867.9800579141041,795.7416879380689,793.1371001969958,897.0609399325161
1731140450.6303313,887.8176126410557,796.064535774222,793.0496564478175,914.2402675027848
1731140450.6332004,905.6195378908786,798.8340655172043,792.9613712718458,934.0180824134679
1731140450.6342251,923.4036803557417,803.068947665068,792.8852592603737,953.3658111587928
1731140450.6359365,942.4626285756639,806.3014344432538,792.831726579734,970.5009097128802
1731140450.6381192,960.5106667741846,806.4196304397908,792.7900312028441,984.8004650850585
1731140450.6420133,972.677922253398,803.3043674147589,792.7159284521612,996.4051870561726
1731140450.6459067,975.7632516256675,798.7542337956861,792.5517399469204,1005.7583561039808
1731140450.649801,971.8644049743148,794.8639639177327,792.2929087019548,1013.1351849952138
1731140450.6504967,967.7852372067321,792.4860210759914,792.0666507187918,1018.4066915947449
1731140450.6515255,970.2246493318063,791.1359320987382,792.1265540370553,1021.2996867236684
1731140450.6520495,980.476951306129,790.090519293383,792.6660608753934,1021.9713987268093
1731140450.6536949,993.0770602075929,789.2900733629369,793.5019658380315,1021.3249290978747
1731140450.657589,999.8914535573608,789.1588813519463,793.9357675622554,1020.7097258870238
1731140450.6614828,996.7510637534692,789.8494599568357,793.1430376087019,1021.2734257178492
1731140450.665377,987.2899069325902,790.9552909181035,790.9592495518352,1023.5445270380912
1731140450.6671145,980.5068619154547,791.914815903023,788.3132084416717,1027.5057024063108
1731140450.6692708,983.6890239958412,792.471027044955,786.7009684748051,1032.905758284447
1731140450.670899,996.5085315764102,792.7189601955719,787.0842967282035,1039.46265616658
1731140450.6731648,1011.3770457573727,792.8763816319077,789.3019646850356,1046.9156915715507
1731140450.6770587,1019.8036426236613,793.0877490552925,792.5496457484315,1055.0509656312918
1731140450.6809523,1019.2540061035121,793.3789975316243,796.2748548003312,1063.633943030009
1731140450.682703,1014.6456404394778,793.7099659182363,800.3924077656376,1072.0742140974621
1731140450.6848466,1013.4300808973503,794.0375164642645,804.59478072249,1078.9965425028274
1731140450.6853657,1018.7648128824158,794.344293411743,807.6738567232887,1082.3117537994967
1731140450.6887405,1026.6638314927957,794.6348997931337,807.839960522167,1080.1477580871165
1731140450.6897478,1029.3327267278773,794.920509574766,803.9550441374057,1072.126435209275
1731140450.6926346,1021.65384734336,795.2081404154046,796.6032780327356,1059.910970984879
1731140450.6965284,1005.4168998944617,795.4986377909455,788.0452973905668,1046.4685165456362
1731140450.6982918,987.9958282828588,795.7896648498156,781.1045035308277,1034.6040089965354
1731140450.7004223,976.6922287996463,796.0789763167314,777.8330335533348,1025.8023209405073
1731140450.7043164,973.2589605859379,796.3657690384014,778.7476702357579,1019.8740011268862
1731140450.7082105,972.8251638627015,796.6503619104052,782.8427784900996,1015.209140202972
1731140450.7085972,967.98994169429,796.9333575275821,788.157825113532,1009.4220540245561
1731140450.7121043,954.8942463492133,797.2151047525771,792.6125266076357,1000.4407642723495
1731140450.7138803,936.565968452268,797.4956266580105,794.8552838575104,987.8334871368531
1731140450.7159982,920.9229036510834,797.7747942879449,794.8055822007876,973.5313607304209
1731140450.7198925,914.9683768540177,798.0524984143631,793.5588437278432,961.1349228464162
1731140450.7202346,919.709358006218,798.3287130267244,792.5973690979762,954.048004853442
1731140450.723786,929.757083377734,798.6034703372164,792.7557941583743,953.7714139319032
1731140450.7274463,937.8279989599416,798.8768092978745,793.7086078427395,959.5980563000028
1731140450.7276802,940.3996103224446,799.1487425651612,794.4539618767942,969.6942654122943
1731140450.7294693,939.7980558501297,799.4192571281634,794.4329746973104,982.3434093311582
1731140450.731574,940.940616780279,799.6883439751314,794.2535512897567,996.0995334072861
1731140450.735468,945.5862022341182,799.9560378651638,795.234769839277,1008.7551595877644
1731140450.739362,949.3515723224685,800.2224320379746,798.0802205165219,1016.3349598447606
1731140450.743256,944.5805136861143,800.4876268191911,801.9078216731704,1013.6293978518829
1731140450.745058,927.0113350452394,800.75160609314,804.6349853927983,996.7023951202102
1731140450.7462957,900.5611872470139,801.0141252673947,804.4983341971123,966.0434562923886
1731140450.74715,875.7894810137095,801.2747856264086,801.4465131660929,927.9578312345889
1731140450.7510438,862.7999627381785,801.533431748442,797.2455424857131,892.5194447706112
1731140450.754938,864.0671627719998,801.7907221780049,794.219826514627,868.7763528961314
1731140450.7551036,872.8717074581609,802.0482741400516,793.6342602910338,860.1478375023421
1731140450.7588315,878.5247100655403,802.3076075749982,794.9550760323169,863.0666546043212
1731140450.7606468,874.1810087249632,802.5678311305497,796.5116574686532,869.6310574459574
1731140450.7627258,861.2236866046087,802.8237651316965,797.007100800837,872.254118322871
1731140450.7651446,847.1953222927805,803.0678098285352,796.6892146107022,867.2601840710204
1731140450.7666197,839.3580751901111,803.297811802689,797.2539202437822,855.5907155651314
1731140450.7705138,839.1235315750224,803.5274519169435,800.5041763110565,840.9557069264815
1731140450.7744076,841.5720060507686,803.7874050466162,806.715185851931,827.2244942205378
1731140450.7762356,840.0657722642992,804.103363278068,813.9027038222656,816.7647559212728
1731140450.7783017,831.8860936859487,804.4522375010745,818.6272310342683,810.1959086482974
1731140450.7821956,820.147292840363,804.7314406361156,817.9746647810824,806.8225036247388
1731140450.783994,810.5474394065791,804.8038150616935,811.5106077915706,804.9016807167283
1731140450.7860897,806.0064962180031,804.6549504203916,801.8402198411943,801.7929011418979
1731140450.7899723,804.0158110611766,804.5885571896625,793.177302310751,794.7463984847233
1731140450.7899835,799.0639070585381,805.2425697155737,788.7085998960121,782.5869590414023
1731140450.7918243,788.0288695675267,807.2146119719673,788.581028131292,767.2488237547904
1731140450.7938774,773.8068490337539,810.4083138275258,790.0865498214482,753.5544523808588
1731140450.7977717,763.8385667493832,813.6538823999125,790.0239292795343,746.7527465742629
1731140450.8016653,764.3871151483987,815.158586850888,787.4305411869198,749.258906719164
1731140450.802843,774.9842718607395,813.6910245751413,784.4416132590763,758.8808555095318
1731140450.8055594,787.5736922159064,809.6498398355243,784.4975494344492,769.7621930696646
1731140450.807413,791.4640751027514,805.076643220248,789.3515323243914,775.4050943907665
1731140450.8094532,780.8210387602518,802.4517980783761,797.3818474129627,772.0277624109812
1731140450.813347,759.2851300186899,803.1420613672091,804.6115035541658,760.5554533324912
1731140450.8172412,738.0716716794047,806.6638975406836,807.5552847407873,746.1868702283567
1731140450.8211353,728.5184253988803,811.1682664217067,805.5722874317886,735.457634856373
1731140450.8216922,734.2161986760955,814.5513261542472,800.9654397543705,732.1285079815502
1731140450.823002,748.4040271848793,815.3566260584064,796.9710151771624,734.4624369511032
1731140450.8248415,758.7031192096294,813.1757884151187,795.3423560055943,736.1898596102769
1731140450.8250291,756.0456614216718,808.7350455872908,795.331459978599,731.1296011830422
1731140450.828923,741.4682468539547,803.7511183542274,794.6750749716797,718.4202153948866
1731140450.8328173,725.5962545091905,800.3463589639049,791.7015406958677,704.1696644786289
1731140450.8367107,720.7009652750908,799.9745187636535,786.9104639010149,697.5244335842692
1731140450.8385906,730.8994956569925,802.3974774445612,782.8130993174128,703.474835674115
1731140450.8405414,748.0587208667706,805.5763019220442,782.1463711351563,717.8314237318627
1731140450.840605,757.1338259579755,806.8657831111609,785.8375412804899,728.8647342940992
1731140450.8444989,747.4156555241552,804.8859764502802,792.3202537051461,725.2366651433038
1731140450.848393,721.125503730124,800.7281284254442,798.737445753759,704.601604771435
1731140450.8522868,692.4155935125193,797.4262223213583,803.0051404716334,676.0868515670192
1731140450.8541794,677.25626741262,797.8302135789803,804.9770411134997,654.3164995005635
1731140450.856181,681.9835628738806,802.3179564157872,805.7809995922286,649.3770512633689
1731140450.8593907,699.35480293471,808.1354989031213,806.1219681000371,660.4127293666148
1731140450.8597105,714.9207476934093,811.1073621718958,805.3289730674337,677.4963689545725
1731140450.8600748,718.3675130360806,808.6309798602828,802.1427236255124,689.720002193035
1731140450.8639686,710.7571619461796,801.6775289299673,796.4233666665765,692.780842442202
1731140450.8678627,702.1765150494301,794.118008261219,789.9528050864827,690.3699801236129
1731140450.869768,702.2640774451665,789.8215670298989,785.3878371528002,689.1687888113174
1731140450.8717566,711.8999562081356,789.8819744997179,784.3001453189825,692.4236056809424
1731140450.8756506,723.0706290933871,792.236170330414,786.1412577932272,697.6584063298114
1731140450.87824,726.6173161107439,793.8318168109164,788.9691164673284,699.9472022480443
1731140450.8795445,720.7114537780926,793.3065149909069,791.0390874903625,697.2134508274944
1731140450.8834386,712.5585253853991,791.8814273362229,791.7808648788656,692.5944933814371
1731140450.8853571,712.0726086007478,791.9624528031859,791.6236816292792,691.9209120426889
1731140450.8873324,723.2639976053824,794.9596789996579,791.2556467272788,698.7870279043184
1731140450.8912263,740.7448946098554,800.2367935239065,791.0855790439227,711.5836296543918
1731140450.8945794,754.0831004107173,805.7972292246023,791.159615222984,724.8626728202042
1731140450.8951204,756.1136145066284,809.788727510301,791.3433393186912,733.596566089715
1731140450.897089,748.291524586343,811.5227825792142,791.5100722122222,736.6614992323974
1731140450.8990142,738.8995229678868,811.4629190191043,791.6160553618895,736.8975962448677
1731140450.900946,735.9004785983303,810.5576930059635,791.6806581343106,738.1628387651128
1731140450.9029083,740.543166123946,809.600451617076,791.7383294427445,742.1454795992237
1731140450.9068022,747.0181715205108,808.9928524353674,791.8084917021822,747.4987651350331
1731140450.9106965,748.2144753894553,808.8434559603778,791.8919792203973,751.6050958550044
1731140450.91459,742.3813021228882,809.1348397167484,791.9811183174354,753.0874554663865
1731140450.9159384,734.8053686777146,809.8024559106378,792.069374846449,752.8501546920108
1731140450.916535,733.0759115958364,810.7679065090397,792.1547884248016,752.9600347834976
1731140450.9184842,740.1339650686957,811.9934620283781,792.2385904678994,754.5607973051979
1731140450.922378,751.1483373451301,813.4611844734135,792.3226156843162,756.6928213870117
1731140450.9262722,756.9042517548708,814.9295200996619,792.4078123817729,757.0104636122353
1731140450.9294484,750.9341207454876,815.6064239042271,792.4941558889209,753.8186521615223
1731140450.930166,734.6673299357709,814.222631112764,792.5812191729275,747.8156356912483
1731140450.9321234,716.6079895606038,809.8288791317038,792.668669399521,742.1245848271866
1731140450.93406,706.2872440864502,802.8927732389326,792.7564223980145,740.4430670730761
1731140450.9347875,707.6967612402398,795.6609492351604,792.844553573923,744.5696641802173
1731140450.937954,717.1837510610216,791.1129240082761,792.9331598042502,753.141411627414
1731140450.9418478,727.2527164179762,791.0629107192402,793.0222865586728,762.5909767137259
1731140450.945742,733.0377337395811,794.9177609666709,793.1119285956594,769.6126523602582
1731140450.9477122,736.0666533935189,800.2047395754898,793.2020618499134,773.2068733508609
1731140450.9496355,742.2230239668427,804.4656238476226,793.2926688040376,774.7770565624547
1731140450.9535298,755.7309675516581,806.8903922209068,793.3837452080659,776.4233207393045
1731140450.9536366,774.3580423361309,808.33050289008,793.4752945848328,778.964635625656
1731140450.9574237,790.017961670301,809.8418974506683,793.5673209204629,781.2191664755636
1731140450.9613178,794.541154262287,811.2370230199649,793.6598251441484,780.989608830644
1731140450.9633007,786.2007188591499,811.0640803893513,793.7528054380954,777.0144905445193
1731140450.964317,771.7896670261712,808.0680222182923,793.8462590006276,770.4631290082891
1731140450.9652116,762.1979746323556,802.7600550718893,793.940183330682,764.6383806045271
1731140450.9691055,764.3898626312002,797.5289644063859,794.0345765015783,762.6594123361726
1731140450.9724858,775.8920619221516,795.0160754452874,794.1294368300642,764.6950983052585
1731140450.9729996,786.5871621988846,796.1418562899639,794.2247625008703,767.3155231360967
1731140450.9768934,787.0417681988157,799.6140611288636,794.3205514226589,766.1877364678189
1731140450.9788897,776.8364163295973,803.3837637778494,794.4168012846594,760.2335477157568
1731140450.9807875,765.6006670365092,806.582652603036,794.5135096496418,753.4223841712625
1731140450.9846814,765.2400122340817,809.9640378448698,794.6106739525981,752.0216916837671
1731140450.9885757,779.6367307659451,814.4059667443012,794.7082913980453,759.2788242872168
1731140450.9913352,800.7795439174338,819.0675434177232,794.8063588845828,772.2015776648893
1731140450.9924693,814.9553188400151,821.2151195077645,794.9048731459558,783.5287844636287
1731140450.9944785,813.9002467919984,818.1409336331479,795.0038311785984,787.4562047458891
1731140450.9963634,801.4908001185146,809.587142569319,795.1032306876223,784.3516262293299
1731140450.9991865,790.3879406689193,798.540512913055,795.2030699133244,780.5025712097688
1731140451.0002573,791.5097770839392,789.5901347769201,795.3033462709786,783.0714534079648
1731140451.004151,805.0609390089732,786.0362058838039,795.4040542173653,794.3332973755663
1731140451.0080452,820.40391701692,787.9422111073295,795.5051844296639,809.7939379425155
1731140451.0100672,824.741663650734,792.5531218028996,795.6067272377059,821.62075197338
1731140451.0101843,813.4587804096536,796.622554225771,795.7086809664169,824.5682688681529
1731140451.011939,793.7876166226552,798.7504358890277,795.8110595785106,819.6727239984328
1731140451.0158331,779.0509760250948,799.9716544344985,795.9138875840865,812.9372618097963
1731140451.019727,778.3719366532832,802.3476818256169,796.0171727323141,810.3567458772172
1731140451.023621,790.1337764154742,806.8795706729273,796.1208667167241,813.4400367646987
1731140451.025656,804.0289047170035,812.4314261146219,796.2248551210691,818.6128716274666
1731140451.0275147,809.4660275209185,816.3822106143597,796.3290300088403,820.4933105772943
1731140451.0290334,803.4043659102508,816.3631452255644,796.4334492427153,816.1291766820423
1731140451.031409,791.8270792828727,811.7784575705124,796.5384659017246,807.0622622398532
1731140451.0340552,784.4392928137574,804.1595141746706,796.6445997290394,798.1085921526659
1731140451.0353029,787.1990031518152,796.2735439004338,796.7519944358875,794.0730732782852
1731140451.039197,798.4059144823601,790.6447325209796,796.8596977778562,796.7572554646098
1731140451.0412447,810.9525847245876,788.3990650029476,796.9655677648387,804.1973180028217
1731140451.0430908,818.502341015167,789.0637581690687,797.067747025641,812.4811590149484
1731140451.046985,820.3877925399081,791.2967291727687,797.1675656098103,818.6902769283556
1731140451.0478826,821.2579550099928,793.8965921445138,797.2713114720865,822.7464293360084
1731140451.0508788,826.0696454364422,796.3395462902506,797.3860672856893,826.8713940863971
1731140451.0547726,835.0718747298907,798.6107149331779,797.5055622972055,833.2656253988791
1731140451.0568335,843.313393749068,800.7373085062412,797.5864943326,841.907088353732
1731140451.0586667,844.9986836550275,802.5634440643507,797.5220113003784,850.1132420401957
1731140451.0625606,838.6606856976189,803.893811485934,797.1300496782143,854.1139808328834
1731140451.0664546,828.5914491440021,804.7229449701797,796.194100137064,851.5080608990531
1731140451.066732,821.4924144173993,805.281370961702,794.6018125415644,842.979378711027
1731140451.0689242,821.4163965857756,805.9157802862129,792.5729024951798,832.1743334668512
1731140451.0703485,827.2057972664019,806.9721306302937,790.8338625557336,823.7837295629466
1731140451.0724225,834.2299838765618,808.7440791036391,790.4920535371629,820.9752828459276
1731140451.0742426,838.6412161001883,811.3973620803735,792.4887852107851,823.7450519034301
1731140451.0781364,840.4723464673195,814.7948103554961,796.889575781722,829.1877683713134
1731140451.0820303,842.9762071352181,818.3036486026512,802.5535453514043,833.4223233759769
1731140451.0855813,848.758626238838,820.7892217962747,807.5369593328508,833.8086749075635
1731140451.0859244,856.0720896967397,820.9551316994325,810.0318514789284,830.0105162132368
1731140451.088011,858.7748106326477,817.9796245345618,809.2358674346726,823.4617428862196
1731140451.0898182,850.541987433816,812.1293335056312,805.6336468393554,816.004387821466
1731140451.0937123,830.2151192792285,804.896378298855,800.5963038199649,808.8776864712441
1731140451.0976062,803.9230307407835,798.4088072507651,795.6170956693654,802.6747630036281
1731140451.1015005,782.0223668853608,794.3857767467024,791.6677957128645,797.9916795359185
1731140451.1035998,772.913526705842,793.3360863792079,789.0146566496601,795.9737436200378
1731140451.1037931,778.0353318202003,794.5572424449188,787.4632629844983,798.0771878256069
1731140451.1044302,791.3361076177363,796.8360111361176,786.7021897261726,805.0139838119987
1731140451.105394,803.4550542946916,799.2129492970993,786.4683529726138,815.6577597049293
1731140451.1092882,807.8618275071469,801.2700934655991,786.5464757366457,826.9887924944042
1731140451.113182,804.8583293463312,802.9453598538778,786.7559479174239,835.4550402155903
1731140451.117076,800.5266713752357,804.2459556305731,786.976328571658,838.8792596056325
1731140451.1191883,801.2397827613498,805.1211556655186,787.1618845283236,837.4755590555335
1731140451.12097,808.0528498320219,805.4552349911812,787.3189843181083,833.3004310966185
1731140451.123279,815.8297131958705,805.0685164140332,787.4696208916977,828.7800518081834
1731140451.124864,818.1124416016431,803.7623958113485,787.627853645721,825.5257224351734
1731140451.128758,813.4981137399373,801.4856942226993,787.7952520380367,824.0889147912164
1731140451.1326518,807.5370968092191,798.519665749355,787.966940294912,824.3614203047588
1731140451.1347775,807.9406217098109,795.4559847814437,788.1382874702056,825.9186391731381
1731140451.136546,817.0536473390162,792.9266960446938,788.3076510614989,827.9952441844441
1731140451.138662,828.4976460933614,791.3513222550004,788.4756958624022,829.4567734898727
1731140451.1404395,831.6692448697213,790.975312921495,788.643661788648,829.2980384118448
1731140451.1421287,820.9163550587289,792.1019401702144,788.8122608250177,827.5775547489727
1731140451.1443338,801.6254970489778,795.0921711095632,788.9815331722893,825.9170432882664
1731140451.1482277,787.3964708971725,799.8816064162323,789.1512053814236,826.7258623017099
1731140451.1503663,789.7570825882992,805.3588598158142,789.3210402673764,831.355377524517
1731140451.1521215,808.5008919512918,809.3516806093475,789.4909644019265,838.5183268177027
1731140451.1560156,830.8177192846844,809.6384305118358,789.6610202834654,844.3678818909882
1731140451.1599095,840.4141141116711,805.4904352960461,789.8312734817828,844.4559473060095
1731140451.1609778,829.5684689801234,798.5620949606931,790.0017594209271,836.3788345217782
1731140451.1638036,804.6678591518934,792.2262961299734,790.1724812327318,821.4101901745482
1731140451.1659553,781.20403689293,789.6124443514357,790.3434301078158,804.0822042385466
1731140451.1676974,772.5811450985738,791.6913328421323,790.5145992956266,789.9261789309218
1731140451.1715915,781.410262321052,796.7906079746883,790.6859822887683,782.6786730889246
1731140451.1735313,799.2773140310176,801.8412203812682,790.8575649088068,782.6428923267257
1731140451.1754854,814.1430787010893,804.3666698574308,791.0293289939655,787.2153712853362
1731140451.1793797,819.1075715841085,803.8016268721836,791.2012771570055,793.0530916651111
1731140451.179827,816.0154982440815,801.4158680194505,791.3734639793682,798.0809765682025
1731140451.1815438,811.9455398637479,799.2058511256686,791.545991763387,801.8000452517641
1731140451.1832733,812.2440581931858,798.683151987284,791.718928752646,804.0883418219917
1731140451.1871674,816.1203523438014,800.2587544352671,791.8921670230292,804.1855037546932
1731140451.1910613,818.2343937918455,803.3279891569907,792.0653480717589,801.2016958106337
1731140451.194955,814.439606236046,806.7564526342459,792.2380547573491,795.6527389605428
1731140451.1971326,806.3553392047754,809.4281764083258,792.41034379971,790.2138706631669
1731140451.198676,800.6634986721472,810.6644022976245,792.5832961421554,788.5230227507233
1731140451.1988492,803.7426504751147,810.4360768328079,792.7588085508855,792.7457381595613
1731140451.2027433,816.2442531739749,809.3254230083174,792.9379228338345,801.8255588645472
1731140451.2066371,832.1196134471747,808.2293046347671,793.118181696765,811.8266996438817
1731140451.2084,842.8022425914452,807.9092431044998,793.2925640469717,818.1682569162026
1731140451.210531,843.1558642847612,808.6190913033062,793.4536432221614,818.2669432931319
1731140451.212721,834.6723469126048,810.0347600365826,793.603853340701,812.9945523497803
1731140451.214425,823.7812032336645,811.5118698867402,793.765047225367,806.2174513908714
1731140451.2175255,816.86785364985,812.4525637867956,793.9725271485919,802.776935750371
1731140451.2183187,815.8770506045527,812.5107445404531,794.2416756332516,806.0100590083061
1731140451.222213,817.7077927356798,811.5698530814025,794.51949286336,816.0827059958131
1731140451.226107,817.5915785763151,809.6667478085416,794.671914439569,829.9749530636826
1731140451.22831,813.5353360879891,807.0350886341201,794.5741811546972,843.0665500728311
1731140451.2300007,808.13380291879,804.2129683293986,794.3138127948472,851.3945644036277
1731140451.2338948,806.3110665647592,802.00098840847,794.3734792173049,853.3654469307123
1731140451.2363746,810.978747540564,801.1798089879806,795.5411994122944,850.1174009839224
1731140451.237789,820.2848871100239,802.1493623458414,798.4018218145848,844.4660140352042
1731140451.2416828,828.7393549736036,804.7257494131724,802.653560500615,839.0614850753828
1731140451.243269,831.3556225087851,808.1718548062718,806.8411548217023,834.8649930044005
1731140451.2438989,827.6061609040388,811.3919776465464,808.9528033475976,831.0102132261366
1731140451.2455766,822.1094106639264,813.252519312411,807.6762789089483,826.2295573353737
1731140451.2494707,821.3361238404443,813.0301952545204,803.4677518530067,820.6739299758635
1731140451.2533646,828.5850524850816,810.8276168611986,798.5372144077973,816.362760719687
1731140451.2552238,840.9972383275707,807.6035228388204,795.5545455302029,815.5768428393967
1731140451.257259,851.1919607522404,804.6320400079871,795.8805486684649,818.5436194047927
1731140451.2594876,852.6930085108847,802.7267792634618,798.6197027903078,822.7477643831362
1731140451.2611525,845.0553708201815,801.8784354778264,801.2591767561744,824.8345492596495
1731140451.2650464,834.3680208970835,801.6048637985723,801.4365086372177,823.474151807183
1731140451.2689404,828.3700942689,801.6029952838609,798.4842366021517,820.4082892211319
1731140451.2728343,830.0736295734637,801.9928519741303,793.638364168433,818.5886676034528
1731140451.274073,835.3342785786581,802.897389765108,788.9532785676291,819.2033978948047
1731140451.2750764,836.5705124338896,803.8331865871419,785.9608083936961,820.4894406701153
1731140451.2767284,829.523941602672,803.641199608342,785.0694454287625,819.456145440268
1731140451.2781382,817.2535096774593,801.2070390082334,785.8227814546874,814.8563096710474
1731140451.2806222,807.8369268873583,796.4567345736779,787.4169572785371,808.6318926282787
1731140451.2845163,807.5968591012806,790.7724059117373,788.9812027311314,804.5074570448564
1731140451.2884102,815.5624422952708,786.381920133471,789.7197217532639,804.9334086141258
1731140451.2906651,823.9527115116988,785.0987110250768,789.2577926802506,808.9729147255349
1731140451.2923045,824.4110752181607,787.3070517113463,788.1164219345762,812.9177996865377
1731140451.2929225,814.8394019579192,791.8697371995452,787.7420468243181,813.180277906892
1731140451.296198,801.1889894396501,796.9190115366434,789.7021464084473,809.1614723881393
1731140451.300092,792.8160485623687,800.9010427130048,794.4792821107065,803.7829733985578
1731140451.303986,795.2760088026278,803.1798395481517,800.8628449849158,801.1955247902392
1731140451.306254,806.323689575767,803.9065226084814,806.5455021178623,803.4334901495463
1731140451.30788,818.0538381445156,803.4078259395973,809.521667305748,808.6723218357164
1731140451.3117714,823.0864499100559,801.6973198135747,809.2409430636121,812.5090611104159
1731140451.311774,819.6158083144294,798.6007451539966,806.7210887460735,811.2763778023697
1731140451.313007,811.5052428906922,794.4235932915386,803.646887345292,804.7808978587038
1731140451.315668,804.1961258408185,790.4980627348319,801.2044884921168,796.3830116911583
1731140451.319562,800.6385967973304,788.8920498005463,799.551982451933,790.5602581603173
1731140451.321843,800.4146314580466,791.2015020438698,798.2885113402193,790.0866611518527
1731140451.3234558,801.5214202481066,797.2052793370804,797.395873948155,794.9950410075735
1731140451.32735,802.3536438676844,804.5042693849995,797.6392035439081,803.6554450694221
1731140451.3306203,802.4237017908464,809.7046946880163,799.8880148818245,814.4171346093482
1731140451.3312438,802.0107861210054,810.547712138045,803.9139747157716,826.1019534625545
1731140451.3351376,801.5432431414052,807.5018864885234,807.8759772658735,837.202386380859
1731140451.3374314,801.243902616675,803.534919383855,809.2077068210787,845.1879215295511
1731140451.3390317,801.1073442954852,802.0778411082432,806.3774119989479,847.1955654727977
1731140451.3429255,801.0331652381819,804.6110583046477,800.1233601609938,841.7549410828428
1731140451.3468196,800.9427448275096,809.6378591334577,793.0911363409876,829.9146449455466
1731140451.347876,800.8158653076252,813.760983847738,788.0807680181464,814.6470485238831
1731140451.34947,800.6699723771529,814.0275515997664,786.2680326528314,799.1272733534158
1731140451.3507135,800.527729988743,809.8821112389364,786.7883095687189,785.4874349216608
1731140451.3530202,800.3998136946151,803.4708558909277,787.9255391970923,774.9150470987759
1731140451.3546076,800.2850047990597,798.2166272625813,788.8045538034263,768.4365136679461
1731140451.3585014,800.1776621885624,796.669985361935,790.0866253275813,767.0894889732385
1731140451.3623955,800.0736960547416,798.996793937244,793.0698493200128,771.0207964484883
1731140451.3662894,799.9721630662805,802.9751383701255,798.0330226760008,778.3861505175975
1731140451.368319,799.873980206166,805.423355485987,803.3540861716681,785.3884490148472
1731140451.3686092,799.7802037052389,804.1469079589796,806.2471560515779,787.9081712517045
1731140451.3701832,799.6912024522951,799.2139654956528,804.5542051756285,783.7776604768582
1731140451.374077,799.6067439158425,792.7916761552145,798.1995100463727,774.1261717317102
1731140451.3779712,799.5264263292736,787.7115794641221,789.3106214664631,762.909923621629
1731140451.3818653,799.4499773438674,785.8164763161755,781.0970216519469,755.0378297232103
1731140451.382745,799.3772677219166,787.2467713741562,776.3434434998602,754.2357336964699
1731140451.384198,799.3081460570177,790.958953744052,776.3276070353695,761.5478246696043
1731140451.385759,799.2423054574775,795.7029995492946,780.4526441727437,774.8151698228634
1731140451.3871682,799.1793694149566,800.4825651411261,786.5240131211899,789.3219656943464
1731140451.3896532,799.119234024477,804.3410789321222,791.5855502022441,799.7977233038707
1731140451.3935473,799.0624266332921,806.1866187785932,793.1963927228521,803.2940673994638
1731140451.3974411,799.00997038419,805.2888944652836,790.696135410228,801.2513340607718
1731140451.3997867,798.962322854534,802.1521432255518,785.6837561782012,798.8072889277508
1731140451.401335,798.917729775972,798.7600385908657,781.1970274717025,801.1714769653272
1731140451.405229,798.8716209120659,797.570340919141,779.955340429761,809.5547334219365
1731140451.4060173,798.8193054287631,799.8297612857234,782.8126161308834,820.0399239621548
1731140451.4091227,798.7624185897188,804.601152576307,788.4933405573187,826.5931149017784
1731140451.4130168,798.7147205069583,809.4347353522604,794.7222181254973,825.8851136894007
1731140451.4153757,798.6979574453492,812.1938288935943,799.7856026312585,819.9443990935371
1731140451.416911,798.7206206969929,812.4850125857524,803.2936015100463,814.4450546813897
1731140451.417614,798.7477935524721,811.4935674975189,805.6795455591106,814.0883428530344
1731140451.4208047,798.6940918064988,810.4960513963882,807.0971386983472,818.903430805344
1731140451.4246988,798.4805745423827,809.5239983332518,806.853626733252,824.4182448243876
1731140451.424867,798.1576917586974,807.4473881974122,803.9472953256417,825.3805544221553
1731140451.4285927,798.0029526621593,803.3469420819824,798.2149684152845,819.8534162962335
1731140451.4309642,798.417222428678,797.7980529076151,791.0100834185441,810.4168043869483
1731140451.4324868,799.5014938458336,792.7859110363996,784.7265680003622,801.8096655654047
1731140451.4363806,800.5000404802641,790.3073802692485,781.4821555321614,797.3088791953767
1731140451.4402747,799.7253382136802,790.9766562323231,781.9823391665286,796.9379202562658
1731140451.4437158,795.6611478912232,793.8873454262666,785.385543138245,798.6842391506843
1731140451.4441686,789.0436393654118,797.6839674791033,790.1050944063759,801.1262015674952
1731140451.446553,784.018516271916,801.6337060520149,794.7658315487811,804.7691238607975
1731140451.4480624,786.0353309592064,805.6629665662756,798.6120021209333,810.8859230365987
1731140451.4519565,797.0069480752679,809.5567741720606,801.3278320490043,819.222631695576
1731140451.4524827,812.112781870316,812.4127048216632,802.7327852516706,827.0654072596469
1731140451.4558504,822.2455910884365,813.0661621407095,802.7107422096395,830.8111734262967
1731140451.4597445,820.863862333567,811.0775353538905,801.3034358721291,828.7087774861278
1731140451.4621418,809.417978680713,807.261373759124,798.7046156988064,822.2706297538111
1731140451.4625647,796.400903511528,803.2266775220131,795.1086339665015,815.1020909978707
1731140451.4636383,790.5690665843092,800.3635770841915,790.6508265369247,810.2928597223091
1731140451.4675324,793.9770610103849,799.1445169057733,785.6245071308069,808.7173479418929
1731140451.4714262,800.7220887714994,799.1875926718087,780.7967986133859,809.4987771015196
1731140451.4753203,802.4550611679464,799.8119949606257,777.407149375246,811.7046062081401
1731140451.4777305,795.9034611888936,800.517765884303,776.6564518685324,815.3032974099939
1731140451.4792142,785.9140500326531,801.0987735847513,778.9970195068787,820.4921363285764
1731140451.481414,781.414768408749,801.5173766509594,783.7836499821192,826.4172828859719
1731140451.483108,787.7822043547591,801.7874327838553,789.5684543970868,830.9536443101224
1731140451.487002,802.0563218932158,801.944253216957,794.798126474824,831.9787672804247
1731140451.487352,814.8847138636337,802.0396139415051,798.4048005148361,828.9240203711704
1731140451.490896,817.4916225372899,802.1212347606995,799.9770188628918,823.1376350912209
1731140451.4933193,808.1290019002971,802.2141245751828,799.6145059962747,816.8960532411578
1731140451.49479,793.2038941380298,802.3207872319691,797.7885772744938,812.1807126510848
1731140451.498684,782.5126833067656,802.4334323377594,795.3492561093947,810.2023160879168
1731140451.5002637,782.2752943473766,802.5450253711927,793.4694606899217,811.4725745118459
1731140451.502578,790.9984279524379,802.6533599400669,793.2407651948993,815.5793394940065
1731140451.506472,800.9850112987262,802.7597246397447,794.9953499002428,820.5477112255345
1731140451.508908,804.2346651989385,802.8661245060562,797.8611332026563,822.8115050919207
1731140451.510366,798.3518482513232,802.9736319320048,800.0446416821906,818.7606375908226
1731140451.5142598,788.1155231779297,803.0822581553836,799.8022575063409,807.287429100739
1731140451.5181537,781.6276561679241,803.1915600808078,796.4805545257226,791.29472387715
1731140451.5191126,784.0492276538621,803.3011844544249,790.9179704156708,776.5128122514355
1731140451.5220478,793.7046002761558,803.4110453523803,784.9779923039662,768.1385034960545
1731140451.5222208,803.4443824217534,803.5212335028073,780.6028231109456,767.7796526154916
1731140451.5244968,806.1343148233883,803.6318673342905,779.025309741028,773.0494282690087
1731140451.5259416,800.0587733685735,803.743011956109,780.5083067190658,779.9772819259028
1731140451.5298357,790.1413740094995,803.8546770416685,784.5055429744598,786.1296956411953
1731140451.5337296,784.0771250116068,803.9668484403979,789.9090749658052,791.9123030270744
1731140451.5376236,786.377280183673,804.0795138439732,795.233526298865,799.2138285438647
1731140451.5379615,794.9688044603988,804.1926720692816,798.9160038413426,808.8340494680463
1731140451.5400856,803.0137736700132,804.3063352374425,799.935214996075,819.0905545540663
1731140451.5415175,804.4953783830696,804.4205321376072,798.5352531946828,826.8761094795539
1731140451.5454116,799.1037722478995,804.5353071286804,796.406295427365,830.2401678913966
1731140451.5493054,792.4830391993107,804.6506994008577,795.847654420965,830.1917844603311
1731140451.5531993,791.6031990373422,804.7666989471326,798.2709642599385,830.0519282369141
1731140451.5556743,798.9570610560669,804.8832107802278,803.1317089164445,832.767750221916
1731140451.5568109,810.2708581199936,805.0000924069261,808.1866436889028,838.3479718715977
1731140451.5570898,817.6357685688266,805.1173095889297,810.9325792960495,843.5375652417259
1731140451.5570934,815.617322142269,805.2351418575041,810.1266147944236,844.096664084645
1731140451.5609872,805.4435666507089,805.3542048151037,806.2781596585609,837.9998482213687
1731140451.564881,793.8442269870735,805.4750131684697,800.9200066628395,827.1212677446338
1731140451.5687752,787.4821884848868,805.5971100795639,795.4748775844807,816.1244147254936
1731140451.5712633,787.6701212751022,805.7184531305917,790.7340611642792,809.4648249522024
1731140451.5726693,789.8971252604613,805.83629003298,787.2023080670048,808.8519678750544
1731140451.5756602,788.5113141717934,805.9502273440685,785.6205575883498,812.9590838009833
1731140451.5765631,782.2985577266711,806.0659402415237,786.8365490301636,819.150853477289
1731140451.5804572,775.8659437360105,806.1949804757911,790.9986802897042,825.4268914807117
1731140451.5843513,775.5300379630975,806.3457845918067,796.9146035746271,831.0466406465655
1731140451.5868518,783.3853197055046,806.5072769896232,802.3806822605454,835.887028937117
1731140451.5882452,794.8584046079687,806.6390698023868,805.3800236571445,839.7285191146392
1731140451.5919588,801.9656180666431,806.6912232109839,805.2254786069993,842.3227827289257
1731140451.592139,799.5807355246916,806.6639501336491,802.7889926843691,843.9257271316249
1731140451.5945094,789.5551999726742,806.673141973882,799.7430196990249,845.3906725382736
1731140451.5960329,779.3800382878824,806.9332028190368,797.4499915966315,847.4628023385613
1731140451.5999267,776.4812607645405,807.5694376097837,796.2439804482768,849.8697512773413
1731140451.6024406,782.6276446258588,808.2973463598258,795.4644733330781,851.1252168321597
1731140451.6038208,792.7541634731518,808.2299442564472,794.1258628365428,849.3799020847417
1731140451.607715,799.0078378851983,806.1752553611191,791.7862044884296,843.7523735154125
1731140451.6116087,796.7524692510905,801.4783753347007,789.064431084869,835.1143663737175
1731140451.6133585,787.8147202325756,794.8763719885402,787.3977393738343,825.6445368020663
1731140451.6155028,778.5697644969629,788.6055479650856,788.0918175287401,817.3932111302022
1731140451.6180296,774.6518396945725,785.4600227994874,791.3047327133373,810.9422148137727
1731140451.6193967,776.6825635420169,787.2396292866529,795.8019537254728,805.2392077538337
1731140451.6232908,780.3573460004465,793.509750692655,799.7576100744413,798.7094699081267
1731140451.6268277,780.5414981221976,801.5537648074492,801.945708813081,790.6512429124269
1731140451.6271846,775.814385339576,807.742605997832,802.3251980283528,781.7644414756677
1731140451.6310785,769.6844622990794,809.5780462937731,801.6810781472643,773.5288081771419
1731140451.6322076,767.5025965354184,807.1010123392587,800.8610132152389,767.075911484648
1731140451.6336184,771.657310449115,802.7098334123683,800.2957617642371,762.3857715641575
1731140451.6349726,779.1708177087219,799.4956150769046,799.9970687005576,758.2564978235745
1731140451.6388664,784.0143228766872,799.215475757578,799.7987686220217,753.1054936464909
1731140451.6427605,782.5078483950894,801.2883684541121,799.5651443995135,746.315768527381
1731140451.6466544,777.202730159657,803.511997584451,799.2593670575079,739.335342332655
1731140451.649207,775.4803060426115,803.9689501339199,798.9104441872806,735.4637174087827
1731140451.6505485,783.520267489465,802.6607931781393,798.5576557021133,737.9627444311212
1731140451.651057,800.6050845291999,801.558671540901,798.2201806761508,747.6117302919685
1731140451.6544423,818.8567710159158,803.0029875851136,797.8965785525112,761.6486273918644
1731140451.6583364,828.9954428358586,807.7549463328431,797.5774424055104,775.1008424289091
1731140451.661697,827.4686921244493,814.2910787953423,797.2558128373381,783.54640555392
1731140451.6622305,819.0367852591505,819.8465774189466,796.9301240783404,785.250299411972
1731140451.664796,812.7299843950124,822.2400172116728,796.6020999682596,781.3648323269715
1731140451.666124,814.5914082965354,820.9881178990994,796.2737940865542,774.5689641117827
1731140451.669906,823.0833806125033,817.0331073440391,795.9461114677182,767.5022861463004
1731140451.6700182,830.6577190477043,811.6790141485899,795.6188908406886,761.9459379905045
1731140451.673912,830.0235413174507,805.8635441844457,795.2916063198642,758.7004512805433
1731140451.677806,820.0902808500321,800.3028856965708,794.9638970588603,757.701460137362
1731140451.6803846,806.9693125247381,796.0334630613365,794.6356921032487,758.2497256329319
1731140451.6817,799.2967597190636,794.4567775818454,794.3070830739381,759.4402842450968
1731140451.685594,801.558349677621,796.5586721949018,793.9781675057401,760.6152823771824
1731140451.6887553,810.7241995608157,801.9378466241977,793.6489768977422,761.5414084100046
1731140451.689488,818.953913208097,808.6394977316256,793.3194862669955,762.283495270866
1731140451.693382,820.2048968562585,814.128108600163,792.9896543338867,762.9842551158721
1731140451.6959734,815.2025195812959,816.6833966451733,792.6594543944173,763.7275616103968
1731140451.6965656,810.4306894165155,816.1260920032508,792.3288831810736,764.5186039684245
1731140451.697276,811.8840768657495,813.4343075141405,791.9979510147359,765.3252243811642
1731140451.7011695,819.0513776982341,809.7914247553309,791.6666601425172,766.1192528271606
1731140451.7050638,824.6851749410979,805.9524526560424,791.3349815840633,766.8918601041746
1731140451.7076044,820.9604881539352,802.3151085096562,791.0028502703011,767.6481003665309
1731140451.7089577,806.8224923753781,799.3535420481128,790.6702025986124,768.3959025934525
1731140451.7115622,789.9279825928193,797.8101091756904,790.3370573929697,769.1395492306754
1731140451.7128518,781.1010046508461,798.3724933507646,790.0035827076575,769.8791564718433
1731140451.7167456,785.7784284250353,801.0988135617763,789.6700349358066,770.6130583057846
1731140451.7206397,799.6232741175003,805.1208198937231,789.3364901489607,771.3399489357049
1731140451.7245336,811.8744826775257,808.947576049976,789.0024822435415,772.0595828730437
1731140451.7264538,813.4146308676328,811.1797509861633,788.6669496698667,772.7724178585854
1731140451.727151,802.9007671913978,811.0791929245162,788.3289772101691,773.4790263065105
1731140451.7284276,786.5272512491372,808.6014618098455,787.989309247091,774.179774040968
1731140451.7314346,772.5792508423432,804.0752857482745,787.6514585896343,774.8748132198953
1731140451.7323215,765.7980996404596,798.0850082771565,787.3202636383563,775.5642141856326
1731140451.7362154,765.6974087847512,791.7854370856419,786.9966097715038,776.2480768868197
1731140451.7401094,768.8482448282206,787.1424635198981,786.6709102010758,776.9265692563146
1731140451.7427397,772.0978323786024,786.3492215289515,786.3232085176985,777.5999149256418
1731140451.7440033,774.1450523770962,790.4112620863133,785.9386331928962,778.2683630906622
1731140451.745303,775.2206866820304,797.969184977862,785.5363965173744,778.9321514314353
1731140451.7478974,776.0448188854651,805.6010041546718,785.1890530873111,779.5914639081186
1731140451.7517912,777.0898781785563,809.7193213200576,784.9938803777018,780.2464073133245
1731140451.755685,778.424116462381,808.7639629655247,784.9830242475637,780.8970591422298
1731140451.7583284,779.8986600142814,804.0745220194042,785.048104373045,781.5436196809354
1731140451.7595792,781.3641557928557,798.8850967407709,785.0479370513519,782.1865944209036
1731140451.7634733,782.7643785505956,796.2802539439472,785.157881317206,782.8267855116176
1731140451.764152,784.1183364732368,797.521117431578,786.129303219044,783.4648502951791
1731140451.7663035,785.4655902762885,801.6660563605077,788.9302735461627,784.1004917998814
1731140451.7673671,786.8299135474784,806.4771425193302,793.7847100763202,784.7319679392875
1731140451.771261,788.2135386722643,809.8866829736743,799.4860766933472,785.3570551427732
1731140451.7739172,789.6081433775469,811.0963104319188,803.8868230475155,785.975995110116
1731140451.7751553,791.0061674476157,810.7062510555473,805.3698766428676,786.5947718290901
1731140451.7790487,792.4051991441315,809.9406658069544,804.0322904854105,787.2243929296898
1731140451.782943,793.8066403450513,809.6323093113458,801.4887257570806,787.8719189214179
1731140451.7830014,795.2127457845558,809.7048871110734,799.4893812605425,788.5253327068746
1731140451.7868369,796.6248156699431,809.3997809080777,798.6113545019315,789.1460693432696
1731140451.789506,798.0430193693488,807.9141098682184,798.1145720397634,789.69021558151
1731140451.790731,799.4670362714564,804.9490712688421,796.9467167569996,790.1655584118118
1731140451.7946248,800.8966444965653,800.9095112719375,794.9314094993481,790.689000731597
1731140451.798519,802.3318999161488,796.7724141718282,793.1324021907318,791.4610417669495
1731140451.8011725,803.7729976264961,793.7273545010916,793.1238240480488,792.5834055795964
1731140451.8018506,805.2200731858916,792.6911881743246,795.7386528370469,793.7737914284389
1731140451.8024127,806.6731516209063,793.8627360848342,800.2219631838336,794.2464996062018
1731140451.8050947,808.1323083372976,796.5592528795626,804.417414611957,793.1234646107852
1731140451.8063068,809.5979236345204,799.5070261862093,805.9103741222007,790.3924445477719
1731140451.8102007,811.0707402560972,801.50604794755,803.407937510404,787.6386038028464
1731140451.8140943,812.5514140558224,802.1043744290473,797.4895156814629,787.4520374072556
1731140451.8179886,814.0395859150453,801.8228183802963,790.306176440115,791.5268175338504
1731140451.8206837,815.5332119536599,801.6932286626852,784.4808390242774,799.0593577928546
1731140451.8206997,817.029466394626,802.3435664652765,781.8657815287877,807.0018069662895
1731140451.8218825,818.5279792354714,803.2898809420885,782.7754491539633,811.9686884947034
1731140451.8257766,820.0347907557638,803.0900833489541,786.0157653107069,812.2216240314876
1731140451.8296704,821.5622229025105,800.4172520497364,789.6630005319772,808.393077194404
1731140451.8335643,823.1194393502604,795.3022261343605,792.1648928388057,802.7680380142427
1731140451.8360417,824.6950652540555,789.5114769038412,793.1007322181298,797.866455688794
1731140451.8362722,826.2465928992299,785.634751169449,793.1220091893194,795.2677298746074
1731140451.8374584,827.7209532969654,785.4840747047411,793.205770646302,795.2454330970186
1731140451.8395488,829.1176222172928,788.9628245493897,793.9014142156669,797.2181412464626
1731140451.8413525,830.5587353833986,794.2084842838674,795.1820438723327,800.583925812156
1731140451.8452463,832.2729344232495,798.8621007826974,796.8524811928,805.3376701145902
1731140451.8491402,834.3999874370696,801.4861009156333,798.8974943872907,812.01117696187
1731140451.8518612,836.6563043568607,802.1021460535015,801.2977484873451,820.9167912349023
1731140451.8530345,838.1441285848377,801.6519986505756,803.5364517807053,831.2550899181872
1731140451.856928,837.7141423984542,801.0853829779634,804.4702757673463,840.9476798630579
1731140451.8583982,834.9093553886371,800.8435738466715,802.9238680766092,847.6492979274042
1731140451.8608222,830.6639533447919,800.900086062259,798.6313903025665,850.3910776951953
1731140451.864716,826.780391330251,801.052543858428,792.7558303722707,850.5356197681297
1731140451.86745,824.5496327087146,801.1522198788534,787.4995029946678,851.0378395399634
1731140451.86861,823.9801776075723,801.1672851249185,784.9584283584207,854.3275180687683
1731140451.8709104,824.2394440592116,801.1363393110987,785.8831878192501,860.3651139086426
1731140451.872504,824.5207963783076,801.1042316179248,789.1333691515873,866.4457900831425
1731140451.876398,824.4896068235098,801.090505502023,792.2835588451479,869.0315049033113
1731140451.877247,824.2091827466453,801.0916266117409,793.1246597566594,866.291334006304
1731140451.880292,823.8697508671165,801.0963536634157,791.0880319365492,859.4122497917623
1731140451.8830388,823.5957394198199,801.09715892836,787.5347118573542,851.6444465231785
1731140451.8841858,823.4050535267025,801.0928164303124,784.6691445188488,845.8203586896861
1731140451.88808,823.2584517026503,801.0855771383835,783.9541643372419,842.3401870285068
1731140451.8919735,823.116578485636,801.0777825994144,785.283455219564,839.2742974779047
1731140451.8958678,822.9645806413931,801.0703528879371,787.4270126470363,834.4968392257698
1731140451.8960965,822.8073856514865,801.0630247142913,789.1444484242224,828.0581960140778
1731140451.8986275,822.6553125195895,801.0551931544451,789.9502584848739,822.756044443102
1731140451.8997617,822.5145154997781,801.0464877446209,790.0840037567226,822.2622053326327
1731140451.9036558,822.3854758582767,801.0368757107055,790.022123351402,828.0904716313267
1731140451.9057794,822.2658960078287,801.0264978394055,790.0765351935875,837.7245054595702
1731140451.9075496,822.1536782689479,801.0154897453872,790.3037462108687,845.6031719827928
1731140451.9114437,822.048077971534,801.0039034215556,790.6184973407622,846.6886737542953
1731140451.9142165,821.9493480057886,800.9917165258657,790.9289552065285,840.2806299519862
1731140451.9149456,821.8579526546836,800.9788772572608,791.1982018389962,831.1442338046921
1731140451.9153376,821.7740870644622,800.9653535715624,791.4361152689456,826.646991379968
1731140451.9192314,821.6976377663552,800.9511769278639,791.6665631642205,831.5670346289129
1731140451.9231255,821.6283761924725,800.9364604478027,791.904535720592,844.3443633388904
1731140451.9270194,821.5661446496642,800.9213479106977,792.1518556068805,857.8472253741057
1731140451.929805,821.5109040431818,800.9058676548324,792.4035587528573,864.3502173670652
1731140451.9309134,821.4626264215726,800.8897636987439,792.6548765187638,860.9523990166734
1731140451.933795,821.4211082891372,800.8725117162867,792.9041142639675,851.1829446576505
1731140451.9348073,821.3858707621021,800.8537416704932,793.1519678173913,841.7161226265667
1731140451.9387014,821.3563528353538,800.8339952901877,793.3997362803979,837.2294854024695
1731140451.9406483,821.3324622626001,800.815163998223,793.6481772559313,837.7486416635759
1731140451.9425952,821.3151460380035,800.7995474793518,793.8973530694356,840.1944486686243
1731140451.9453938,821.3061865727732,800.7870710605489,794.1469979931525,841.9312761041044
1731140451.946489,821.3065053546618,800.7722636230078,794.3968790145128,842.6892164459604
1731140451.9503832,821.3134663966189,800.7450705874761,794.6469290447391,843.43266732478
1731140451.952644,821.3197722903351,800.6994056919052,794.8972024536886,844.0692072972822
1731140451.954277,821.3176674541774,800.6472702997189,795.147786842281,842.901222463907
1731140451.9581711,821.3093764118603,800.6252837499729,795.3987523123751,838.5443717469815
1731140451.9609826,821.316873500865,800.6740124210191,795.6501395297561,832.124836165578
1731140451.962065,821.3758950397179,800.7839026581205,795.9019522656477,827.0768178931344
1731140451.9659593,821.5019942889298,800.841619414449,796.1541406924197,826.3354174724524
1731140451.9698527,821.6408928053671,800.653816513393,796.4066072084901,829.5286779953868
1731140451.9714932,821.654451261533,800.1118254245675,796.6592852164891,832.9546148377876
1731140451.973747,821.4098439935784,799.4304098389445,796.9122879571349,832.5335194959064
1731140451.9755173,820.9790225773772,799.2073793895169,797.1660034449834,827.2046159965493
1731140451.976571,820.8042408605563,800.0831272730304,797.4209191857366,819.9281183494933
1731140451.9776409,821.5422415988539,802.1900231493818,797.6770677588212,815.5832700452211
1731140451.981535,823.3819387643655,804.9342300095748,797.9333949606455,817.5338376548905
1731140451.9854288,825.1124238823081,807.3779238546367,798.1878674982041,825.4382518150474
1731140451.989323,823.9137773707312,808.8531349983316,798.4391462286835,835.6549926931496
1731140451.9903424,816.9138092000962,809.2436027204938,798.6894699904684,843.6045476432469
1731140451.99216,804.0380934767533,808.8036864457832,798.9461635184801,846.3135011451158
1731140451.9932168,789.4915626435888,807.8479705776766,799.2177515082199,843.6891770917287
1731140451.9971106,779.4793459555465,806.6351256204889,799.5031714391932,838.1785045222922
1731140452.0010047,777.4511592908042,805.4268975266765,799.7806086965232,833.3408070840476
1731140452.0048983,781.231022214349,804.4978212730439,800.0116743569672,832.1346309359219
1731140452.0077488,784.9485888229073,803.997335562815,800.1751774553162,835.6189544947266
1731140452.0087926,784.1757443035025,803.8039924339296,800.3205703985882,842.5468676588101
1731140452.0091918,779.7350464582016,803.5694317463692,800.5892100865233,850.0024246510646
1731140452.0103862,776.863401093131,802.9758793188432,801.1290301620113,854.7915705403115
1731140452.0126865,780.413409482886,802.0113906978344,801.8827980828638,854.9017061609646
1731140452.0165806,790.1168887686339,801.020953479163,802.382464817463,850.2734547685534
1731140452.0204744,800.0101346136422,800.4748014557722,801.8332389366237,842.5479326581981
1731140452.0233376,802.8458186869209,800.649923361608,799.6775023179661,834.1124681156094
1731140452.0243683,796.1164866196749,801.5099538642199,796.3299383559405,827.0929536678061
1731140452.028041,784.5988971433698,802.8949631092886,793.2763631887357,822.6877736212994
1731140452.0282624,776.9134948779669,804.8368654249576,792.0644910175594,820.876131875765
1731140452.0321562,778.7049783414242,807.6609063552274,792.8993310644463,820.5702640683717
1731140452.0360503,788.2349272044304,811.6816711853586,794.2706357640402,820.4025209698249
1731140452.0389264,798.2425391486845,816.6657984175528,794.2280707466965,819.8770417521127
1731140452.0399442,802.3583716611114,821.5116139313102,792.2787488773366,819.8504340744489
1731140452.0438385,800.2735130201053,824.5123101483213,790.1075693536303,821.4546969470539
1731140452.0452552,797.118248204799,824.150676681905,790.2707047986625,824.0815223504035
1731140452.04689,797.8787417621685,819.9598803900653,793.875298316032,824.4946326088942
1731140452.047732,802.1706145819339,812.9066791660305,799.3225734628479,818.6205167828839
1731140452.0516262,804.2843469260725,805.034804523351,803.3909233422802,805.087938489515
1731140452.0545151,798.6168959751643,798.5269041356854,803.8615406194971,787.4886711030312
1731140452.05552,785.6999412959676,794.6835486197664,801.3961565186287,772.969379793551
1731140452.059414,773.2920633938518,793.4252226909801,798.9451985436447,767.8332050184426
1731140452.063308,771.0806742513587,793.664488888193,799.1755175990503,773.4496433975313
1731140452.0657392,782.9968686072184,794.300052414384,802.1805252197294,785.4642071595781
1731140452.067202,803.3780606618036,795.0572556310892,805.3962237463282,796.5759047321161
1731140452.070104,820.3398193531432,796.4946220168802,805.6454457830342,800.7090602128428
1731140452.071096,824.0659042178522,799.259175009114,801.5447673126143,796.0673170089807
1731140452.0749898,813.8053954333936,803.3815102413035,794.4962421525485,785.7743463655975
1731140452.078884,798.2622427673471,808.2740280635195,787.7681552703276,776.1101743135998
1731140452.080124,789.069398536343,813.258423772363,784.470915204378,773.185261207419
1731140452.0827775,792.2456685248363,817.8792784908429,785.7509335427094,779.5046589059004
1731140452.0845883,803.9574605623042,821.6348441649789,790.2500953453016,792.2113279567543
1731140452.0856926,813.6340200156671,823.6014811035016,795.1062740380906,804.3236334045904
1731140452.0866718,812.0966864669068,822.6826704636514,797.8252767294589,808.7481282774919
1731140452.0905657,798.7006406712061,818.5109394162236,797.7365813260291,802.8981902753173
1731140452.0944598,782.068522369478,812.1541157459139,796.0165162430408,790.7734035535858
1731140452.0983536,773.609610277761,805.7705925525142,794.4138494909221,780.5766419881637
1731140452.1012816,778.6099697358236,801.3354264423491,793.8892596824451,779.0845541776889
1731140452.1022477,791.9379888873807,799.5093585174666,794.2702153306622,786.7806409662164
1731140452.1034377,802.060151509865,799.5790215712577,794.8700382665304,797.5758295170165
1731140452.1061416,800.3666352245363,800.3185628462221,795.2018822914318,803.4470533712745
1731140452.1100354,788.2503574794055,800.8664887716277,795.199130341566,800.3175607585528
1731140452.1139295,776.0296413636777,800.9973277127744,795.0343092478507,790.543352797839
1731140452.114993,774.5031940791786,800.8830247143133,794.8804209276977,780.3600833994653
1731140452.1168704,786.0684159386223,800.7534330820057,794.8043510883948,774.8593653082862
1731140452.1178234,802.6897390870853,800.7178979154,794.7861527943604,774.7465440997543
1731140452.1217177,812.2966772858251,800.7650668681662,794.7811987544433,777.0633061451905
1731140452.1222868,808.2701985303705,800.8386146828688,794.7621893726789,778.4796884074536
1731140452.1256113,794.2832403649384,800.898018609614,794.7263403336826,777.939509415273
1731140452.1295054,780.7539951712107,800.9348482411385,794.6831404430095,776.6288074315725
1731140452.1324592,776.1249597761297,800.9597281298684,794.6414164872368,775.9173227616601
1731140452.1333992,780.3154973240846,800.9848319990432,794.6041854880432,775.5960353378892
1731140452.137293,785.6642382643688,801.0153915734401,794.5700716111065,774.141244781951
1731140452.141136,784.2945736771368,801.0503847188561,794.5366597123667,770.6623060824307
1731140452.1411872,775.4822930406106,801.0867387962861,794.502586005298,766.5408938878205
1731140452.145081,766.6988994010645,801.1224184582832,794.4677796394626,764.9589139840788
1731140452.148048,767.3718191227786,801.1571045749752,794.4327585711752,768.3826871598295
1731140452.1489751,780.5209367340566,801.1914135544968,794.3979589224401,776.0251263123657
1731140452.1498623,799.2609840508547,801.2259770899,794.3634977832542,783.591303098067
1731140452.152869,811.2695347529525,801.2610369260019,794.3292705374929,785.8512686312304
1731140452.1567633,807.9058993045269,801.2965142056111,794.2951311730134,780.2231886360713
1731140452.1599853,790.8649354536693,801.3322394803818,794.260995607083,768.636703980332
1731140452.1606567,771.092409478694,801.3681080696405,794.2268473711705,756.2858301661811
1731140452.1636367,760.7561276755076,801.4041062672301,794.1926977856903,748.3164389894529
1731140452.164551,764.5414536708907,801.4402656690604,794.1585514678345,746.9712944965377
1731140452.1684449,776.9820508596127,801.4766151508048,794.1243956938368,751.0831210444748
1731140452.1723387,787.5798365488679,801.513161849197,794.0902066715938,757.7463760803853
1731140452.1762328,789.2563519456638,801.5498965007937,794.0559591727658,764.3738731690239
1731140452.1788344,783.3450292442697,801.5868059216444,794.0216316006782,769.5187714965955
1731140452.1792254,777.5374636400411,801.6238807657012,793.9872059399771,772.4148976971544
1731140452.180127,778.9248422937962,801.6611164131226,793.952665547899,772.4283078613032
1731140452.1840208,787.8698546058105,801.6985103573189,793.9179934081642,769.3137356667712
1731140452.1847312,797.4801772676728,801.7360597262608,793.8831716853891,763.911928828766
1731140452.1879146,799.027878129475,801.7737604166084,793.8481821278563,758.2599932911957
1731140452.1918087,789.0703197991998,801.8116074682379,793.8130065938361,754.6931429400378
1731140452.1948142,772.6154838815837,801.8495957438515,793.7776273112609,754.5740051665438
1731140452.1957026,759.6831060821708,801.8877203208539,793.7420268677312,757.6302311654077
1731140452.1976836,757.92355240155,801.92597652036,793.7061880977853,762.3038228655781
1731140452.1995966,767.2399381930022,801.9643597677255,793.6700940072529,766.7417573835526
1731140452.2034905,780.6580544465493,802.0028654733502,793.6337277794067,769.7602157398757
1731140452.2073846,790.3651982889987,802.0414890019804,793.5970728364958,771.3151610988874
1731140452.210403,793.6100149896462,802.0802257040269,793.5601129027184,772.3637697010547
1731140452.2112784,793.7124478380886,802.1190709581774,793.5228320167543,774.2622862776527
1731140452.2151723,795.956368388359,802.1580201963015,793.4852144694638,777.9610595340719
1731140452.2165327,802.348561231787,802.1970689101851,793.4472447046049,783.283190391439
1731140452.2190664,809.6978834672681,802.2362126531362,793.4089073029623,788.640406618938
1731140452.2196002,812.4216766559662,802.2754470464635,793.3701871974172,791.6176260188781
1731140452.2229602,807.7029457089316,802.3147677897456,793.3310701264139,790.5524289579417
1731140452.2259915,798.7660823923579,802.3541706647669,793.2915430012613,786.3083383292212
1731140452.2268543,793.2747061234329,802.3936515243429,793.2515935609998,782.6246767816522
1731140452.2307482,797.57631704509,802.4332062728441,793.2112088941608,784.0270290745522
1731140452.2346425,811.2447166965314,802.4728308680242,793.1703734947149,792.4258888617794
1731140452.235382,826.8163424582875,802.5125213810553,793.1290690803862,805.285009038531
1731140452.238536,835.5970971995016,802.552274114352,793.0872787944363,817.3811925435069
1731140452.2415805,834.940732303263,802.5920856911969,793.0449955164671,824.9642884189986
1731140452.2424302,830.5931287993548,802.6319529579208,793.002227670362,828.6104772573624
1731140452.246324,831.7267204006478,802.6718726008205,792.9589907847817,832.023761657965
1731140452.250218,842.7212336032591,802.7118406650839,792.9152781930894,837.8159373554877
1731140452.254112,858.6747468728503,802.7518525538391,792.8710258114189,844.2281499431404
1731140452.2542312,868.4758465306779,802.7919041542398,792.8261143583755,845.9640832076324
1731140452.2544692,863.0593030225307,802.831993957122,792.7804554738624,838.5937447893149
1731140452.2571692,842.4955585587757,802.8721244152714,792.7341478579011,822.8248366049337
1731140452.258006,816.5867011984005,802.9122995641005,792.687569351083,804.9838474006926
1731140452.2619,798.4121223739982,802.9525174137939,792.6411861393927,793.0596185908369
1731140452.2657938,795.3499899945463,802.9927612448676,792.5949812112008,791.1916248737026
1731140452.269688,804.1064066475162,803.0330010143537,792.5478278526272,796.84716296111
1731140452.272758,813.5753548630742,803.07321624882,792.4976460284682,802.9747516807737
1731140452.2730803,813.4828250992656,803.1134356561192,792.443152845707,803.5083242733099
1731140452.2735815,802.1525608230282,803.1537580588191,792.3867770479034,797.882973368856
1731140452.2774758,787.3351116784694,803.1942994494464,792.336044799588,791.0725849020602
1731140452.2813697,779.6343733839205,803.2350451393398,792.2993940770771,789.3714032202953
1731140452.2852635,784.0406938087118,803.2756960428173,792.2751106906504,795.4862265772024
1731140452.2883468,796.4050898105737,803.3157247797786,792.2403423145204,806.7127492430585
1731140452.2891576,807.3601221283341,803.3548383763269,792.1562554081759,817.1883625664216
1731140452.289338,810.0527415956719,803.3937142998609,792.0032253721051,822.0900039645846
1731140452.2919295,805.2511559238033,803.4343024134664,791.8346607527894,820.6425437750542
1731140452.2930515,799.9127975509236,803.4786779562332,791.7956791082286,816.1452310376767
1731140452.2969456,800.7216069780222,803.5261904580805,792.0320688105859,813.3663231373511
1731140452.3008394,808.0510526446985,803.5707914642162,792.4739047268838,815.143008637027
1731140452.3039355,815.3973884318683,803.6026591408875,792.6346098483032,820.3723828054551
1731140452.3047335,814.9342249264864,803.6174463517381,791.7150184217506,824.7942000697924
1731140452.3086274,804.7365427311958,803.6297851447896,789.1948913707165,824.2189869031002
1731140452.3107789,791.4658807581162,803.6769518120183,785.588276006172,817.9717230351546
1731140452.3125217,785.7158093592246,803.7939716487273,782.5703736523802,809.8108156298908
1731140452.3164153,793.4128927465877,803.9574192294617,782.023441418076,805.3201332963495
1731140452.3195243,810.450592154262,804.0348608553212,784.6014777439569,807.6553960909984
1731140452.3203092,825.4425329041833,803.8102182747441,789.0347837513198,815.0562314278952
1731140452.3242033,828.6630871321369,803.1231879091388,792.8639360576244,822.1669734461856
1731140452.3242073,819.7589991508371,802.0458868276464,794.1127454649488,824.0430761345142
1731140452.328097,807.6661797412908,800.9219872715236,792.6174752881976,819.5683717938839
1731140452.329628,802.7695103325971,800.1581497987622,789.9897038055227,811.7006854575866
1731140452.3319912,807.9556504062142,799.8865217639493,788.3058587407343,804.7015841429519
1731140452.335113,816.1315830593087,799.8067934954279,788.6352502133429,800.843268615448
1731140452.335885,816.326906216285,799.4340541962151,790.5481309206639,799.2228201023166
1731140452.3397791,803.3174627763551,798.6164435845504,792.7974301177073,797.3963929088115
1731140452.343673,782.7283935907489,797.8440712222746,794.3563441449286,794.2097403117886
1731140452.347567,767.2073374481805,797.9349976152771,794.857356149327,791.253698041294
1731140452.3484771,766.5429686925341,799.2271832743212,794.2656286311302,791.5653652464802
