timestamps,eeg_1,eeg_2,eeg_3,eeg_4
1731142634.0150914,817.0252594465671,800.9927290598121,704.3485031420278,818.0555306005127
1731142634.0339546,815.1080247370572,801.1658323449358,751.1919288693673,817.7340107836192
1731142634.039808,812.9365319801908,801.4649027347424,771.8072047959691,817.2631524743623
1731142634.0528176,811.6822355027895,801.7841103241315,748.2559769610577,816.9376906785918
1731142634.0553834,813.825381739514,801.7421237131713,682.1692940540254,817.4350118275984
1731142634.057438,821.3378997350566,800.9108910917099,600.9727811130224,819.1995317650646
1731142634.0613337,833.6289935902613,799.2092452789896,545.5635609177198,821.8057646983916
1731142634.0652292,847.1468045056794,797.1823069105191,539.319493038304,824.0072856621205
1731142634.0691247,857.2498657526071,795.8887197121122,561.0674643272016,824.6530246078752
1731142634.070959,860.9908151999304,796.3569571838208,551.4257220427562,823.7545423263274
1731142634.0716808,858.6124453984087,798.9158143029377,458.17901779449744,822.5907515161774
1731142634.0730207,852.7140449814349,802.8769571894097,288.1891019047471,822.4759960939238
1731142634.0769165,846.1057462483943,806.8507752566355,117.70426952275284,823.2153988428736
1731142634.080812,840.3136765147113,809.5083154878928,42.4878279590057,822.8906107369221
1731142634.0847075,835.7142430303057,810.2406010540653,103.76755546098559,819.5301040756171
1731142634.0865345,832.5481451539047,809.2552419698111,253.99998751281635,813.294581539007
1731142634.086754,831.3954374742824,807.1374895446861,395.0530037126588,807.0588819804941
1731142634.0886035,832.5883827731783,804.3453336681623,456.0814673505431,804.6467874655993
1731142634.090544,835.3621980141799,801.096005426164,441.97118638299247,808.1884270090208
1731142634.092499,837.885248514675,797.6674648475198,412.02910797514,816.9085171924219
1731142634.0963948,838.4173072189055,794.7143740204386,414.57303742306146,828.2767090060762
1731142634.1002903,836.689442816527,793.184679353433,442.3132582836837,840.2018513651209
1731142634.10211,834.2842623811104,793.8167171324311,449.32561478227296,852.0183194207711
1731142634.104186,833.5591778945012,796.6053694067043,408.3493205668818,863.3395560389675
1731142634.1080818,835.8231630314292,800.6576698420018,348.1646183868598,872.1847878672477
1731142634.1094072,840.1247429935386,804.5218029122642,331.60327810736135,874.7562871429909
1731142634.1119776,843.641360629893,806.7472601931585,393.4069944777606,867.7138086770897
1731142634.115873,843.5134751088324,806.4077168016412,497.0201696487542,851.1712210263041
1731142634.1176856,838.8680357061344,803.4682972947345,553.896936951696,829.6226422022158
1731142634.1197689,831.5867675312256,798.9139202501766,493.11917790174084,809.752121396381
1731142634.121667,825.2757794664939,794.4796825134055,323.06924291175176,796.8705072727163
1731142634.1236646,823.1579913683029,791.928964558698,131.03284546509235,792.7320194291474
1731142634.1275604,826.2517360090466,792.1944333718384,18.429486323521473,795.8443579314825
1731142634.12827,832.8770445837961,794.9601283629813,25.319113864001793,803.078127345204
1731142634.131456,839.6961386466902,799.0178928875962,108.42471343335433,810.8989515934807
1731142634.1332612,843.7199031812191,803.1171033151961,189.91565244681544,816.0340575033465
1731142634.1353517,844.2056524023218,806.6429441669709,230.0523806693452,816.575469008446
1731142634.1392474,843.2262890602595,809.6849677621253,255.92696263840537,813.6028301141077
1731142634.1431432,844.2077470155359,812.6228898897535,322.8909386187574,811.4931681847526
1731142634.1470387,849.0356365392838,815.6832331358978,451.45939295002336,815.1190782485444
1731142634.1471334,855.7143386264463,818.7749691899644,603.2497177563031,825.1147600917164
1731142634.1488366,858.7014129732775,821.5739077878752,715.7327304513974,835.3985872601786
1731142634.1509345,852.2977529091695,823.6738142958224,756.6149931256627,836.2629058275627
1731142634.1548302,834.9299941767589,824.7177394950926,745.272256738232,821.5017154993204
1731142634.1565793,811.0043654277565,824.5349434118779,727.5224269027674,793.8238579829664
1731142634.1587255,788.5570255308047,823.2608822009621,734.9061003528021,763.7093819302795
1731142634.1626215,774.1715706279664,821.3099526608371,766.9968073915562,742.3932548666128
1731142634.164412,768.9173901142838,819.1268829919181,805.6482990611639,734.6667713757431
1731142634.1659966,768.3688146236994,816.8789144260294,838.2746993750794,737.1027026994352
1731142634.1665173,766.5677261088035,814.3960442591533,863.566000573547,742.460515410378
1731142634.170413,760.7158819258573,811.4811660331828,876.9904701964512,745.9660038483856
1731142634.1743083,752.9660167246591,808.3247470744417,858.5235405155887,748.2172717281414
1731142634.1782043,748.1927397678535,805.5760174999624,784.7779116661402,752.9972394331644
1731142634.1799877,749.8639997742866,803.894118347048,660.3922083131463,762.7475953481729
1731142634.1821,757.4042580201008,803.3284863079862,536.0636447377491,775.9344980419702
1731142634.1848595,766.8979949477264,803.1524676142503,484.9960480718806,788.1725020490788
1731142634.1859956,774.1885176886067,802.4449270180982,548.5800438308263,795.466947070803
1731142634.189891,777.7391692682062,800.9860457000577,698.9481366344203,796.6002712495354
1731142634.191492,779.1614673623204,799.6033313128297,857.795948727742,793.229398009645
1731142634.193787,781.3312006982957,799.5147260974732,958.40828863724,788.5221699945233
1731142634.1955633,785.8160824407382,801.1828915918661,993.2182988209483,785.8070801657602
1731142634.1976826,791.6429616752773,803.7535069991941,1002.2459677316524,787.6742822007379
1731142634.2015784,796.1823129020084,805.6554061931845,1018.0494869047305,795.0415757440264
1731142634.2037227,797.221849366248,805.8371922404407,1027.3549598698164,806.1288860632122
1731142634.205474,794.5135621854288,804.518558718841,990.582374932849,816.326783653894
1731142634.20937,789.7409762793799,802.8331485637942,897.6544778934053,819.9545125423842
1731142634.2111387,785.2420004330947,801.7846462913352,797.7090784728725,813.4336978619663
1731142634.2132654,782.6909081335051,801.4813878323587,764.7701569647147,797.8342522696757
1731142634.2171612,782.6753411781808,801.2182117870848,827.3411788977077,778.7922471818719
1731142634.2210567,785.133428107999,800.1622969370618,930.9701900367046,763.6131727385147
1731142634.222586,789.8612487092347,797.9895381823933,976.5149263361998,757.3774649965648
1731142634.2249525,796.3756685667831,795.0647046245563,906.3050537818738,760.4111740765453
1731142634.226405,803.2388069126876,792.2300184663849,762.1612282357045,768.4181454174551
1731142634.226714,807.7909071920793,790.4547481036506,659.8804903078056,774.9994230174428
1731142634.2288482,807.1907206054976,790.4748767650726,697.8091917350011,775.2055929859965
1731142634.232744,800.473520879504,792.4547557384454,877.2131473783044,768.3850789335231
1731142634.2366395,789.9758848638445,795.8038392888918,1103.232867805307,758.8205631613417
1731142634.2405353,780.4795751373441,799.3646115872368,1263.1667298853574,753.5651164277983
1731142634.241449,776.2260991060266,801.9928847251653,1310.2848363916114,758.3870375832614
1731142634.2422898,778.0271515949133,803.1889990216864,1281.492219003629,774.0670064017384
1731142634.244431,782.9134069081418,803.3047360177736,1243.5376557744805,795.4277577596323
1731142634.2483268,786.6835449493109,803.1546003340122,1227.5267791751403,813.955808597416
1731142634.2522223,787.2088782134822,803.3541119663694,1213.5152800742471,822.4529406611409
1731142634.256118,785.7653343738368,803.9316427911567,1171.053830236095,818.6165719757598
1731142634.2578652,785.4925563936308,804.4995515134977,1107.2130840407724,805.2786051939497
1731142634.2600138,788.5321901076989,804.7617993296608,1070.9292458713117,787.733780430246
1731142634.260312,794.2663106789562,804.8495007925109,1107.9637343383376,770.7059932801612
1731142634.2613173,799.8533358235251,805.1784839701254,1209.2452622204548,757.0788741928482
1731142634.263909,802.3307980870992,806.0097001135277,1304.1622330793557,748.3233254319927
1731142634.267805,800.5683292943789,807.1755964168003,1312.275241846552,745.1284531546602
1731142634.2717009,795.7756577027224,808.2332598722267,1213.3841747159881,747.3580026521679
1731142634.2734406,790.4481758972663,808.849578746031,1073.9121022306729,753.844852875879
1731142634.2755966,786.6743811783415,809.0133337850217,1001.4701421904348,762.7961274720195
1731142634.2791753,785.0489539012534,808.9112695055454,1063.1816146060116,772.5957034252878
1731142634.279492,784.8794454086197,808.6841979382023,1237.2071954820185,782.1231655131985
1731142634.283388,785.3214940827883,808.3505519563716,1436.0840318629703,790.3442588707826
1731142634.2872837,786.3477317685432,807.9172581300988,1575.2868014911674,795.9794769870332
1731142634.2890162,788.700459433705,807.4726171420324,1625.9230470482526,798.0635579590764
1731142634.2911792,792.9764011439294,807.1375528983473,1615.7434358112157,797.0996292772355
1731142634.2950747,798.770840494529,806.9638107977831,1593.1463627664564,795.5930150978304
1731142634.2962298,804.6503106464118,806.909255893278,1591.9819421983962,797.0267823763475
1731142634.2980385,808.910134401202,806.8950048896668,1618.165172469127,803.5682472782072
1731142634.2989707,810.4739917291786,806.8662917457139,1652.9735961143313,814.0186904209831
1731142634.3028665,809.3667782788443,806.8098930865888,1661.8483468161362,823.8188466429349
1731142634.3045917,806.6385518924369,806.7377195695534,1608.0441456606118,827.7599275798282
1731142634.306762,803.9173406247437,806.6647277278717,1474.518526530327,823.8326337204618
1731142634.3106575,802.7855282211806,806.5977403307842,1285.8396654001494,815.1391342174952
1731142634.3145535,804.1357639537272,806.5357940492161,1110.282179718341,807.8858791546378
1731142634.3169014,807.7261298669183,806.4751768647441,1029.8973124648207,806.8021430970368
1731142634.318449,812.1890878812118,806.4133181937386,1091.5343138804028,811.8248360814538
1731142634.3201673,815.5668162881149,806.349750176465,1272.6319551772185,818.8131922389273
1731142634.3223448,816.1261773461051,806.2852078136809,1491.111191797359,823.3007848349098
1731142634.3262403,813.0487209510546,806.2204908543298,1657.637858313521,823.6786772261963
1731142634.3301363,806.7432896438563,806.1559341701493,1732.8909381490366,821.2779986267508
1731142634.331143,798.785080655327,806.0914704427144,1743.9128029853237,818.1307249655097
1731142634.3340318,791.5442283403964,806.0269082062217,1746.127261035136,815.1497428268791
1731142634.3357427,787.4554575730253,805.9621288573393,1766.8144628234882,812.3714070522491
1731142634.3357646,787.9600071748696,805.8971260962037,1784.2730780764828,810.4077636047267
1731142634.3379276,792.5850010900176,805.8319533441806,1761.6518677029449,811.113830024462
1731142634.341823,798.9562362879627,805.7666642683448,1697.5287327527803,816.5393772368693
1731142634.3457189,804.1155549777812,805.7012863246377,1636.0090280816878,827.056389650727
1731142634.3496146,806.4316966968962,805.6358232593398,1620.9881515995608,840.3526804685195
1731142634.3513184,806.6785680533018,805.5702679297414,1640.6294794004561,852.2949081759107
1731142634.3535104,807.3690734361779,805.504614592286,1623.5277685420635,859.235368465218
1731142634.3546278,810.8080116535195,805.4388702908961,1498.7155997643663,860.2110058313802
1731142634.357406,817.3261009287332,805.3730647813642,1266.9349630205593,857.4341895857895
1731142634.3613017,824.9690139702363,805.3072486273176,1015.6943314301642,854.6517347593739
1731142634.3651974,830.8130559168113,805.241463986918,860.1258945526631,854.5622961072365
1731142634.3660553,832.949037772847,805.1756896858632,858.0726021829104,857.2016646619763
1731142634.3668938,831.754351587578,805.10980366905,970.3184487642284,860.3787048808524
1731142634.3690932,829.5694925427262,805.0436403309748,1096.9139821455715,861.6240800530635
1731142634.3729887,828.9755097892645,804.9771862656869,1155.280708993119,860.0833295445291
1731142634.3734908,830.8514268036597,804.910814371294,1132.9202547388904,857.0196768270742
1731142634.3768845,833.6255882169179,804.845267134837,1074.7235125989125,854.6880131377089
1731142634.3807802,834.4100106358094,804.7810805089528,1025.7300308259921,854.4730068838945
1731142634.3824692,831.4111384100632,804.7175435707392,988.1153695292365,855.6953497229953
1731142634.3846755,825.9507537316144,804.6520904006403,931.6344155129913,856.0478974577657
1731142634.3885715,822.3970116684987,804.5815816689617,840.588034005791,853.3914711078405
1731142634.392354,825.5450736937961,804.5061200656854,743.8507010314536,847.4668885145448
1731142634.3924673,836.8594469894412,804.4332154765467,693.30230568728,840.0379725093859
1731142634.396363,852.1929429271515,804.3767123558417,710.0366429075453,833.2896053061465
1731142634.3980448,863.0457815497448,804.3451008348109,752.4546204044296,827.8587395326313
1731142634.4002583,861.1973836780301,804.3221527949769,741.6402634538936,822.2197448308629
1731142634.4009678,844.0292803949487,804.2579494227859,625.6929171498138,813.9660254450672
1731142634.4041543,816.9261267002562,804.0974311465666,427.09701602475957,801.9539404966903
1731142634.40805,790.780404061677,803.8556741642469,230.47678308539207,787.6734062287962
1731142634.4112172,775.9712205622559,803.6953171734905,119.57846065075648,774.9146111385992
1731142634.4119456,776.802892756559,803.9052593078243,115.6087345029506,768.0210022974576
1731142634.4136202,790.0604472866468,804.7077723536356,166.6143757380454,769.7785039004501
1731142634.415841,808.1653101176857,805.9903152491247,193.33503051062996,779.98234593336
1731142634.419737,824.0398850462035,807.2255205376697,150.78949937401467,795.3029083796162
1731142634.4236326,834.0763403339816,807.7452584826688,56.01063001277748,810.6027273476158
1731142634.4275284,837.8859107182326,807.2035176925576,-34.79242798046687,821.2969585529545
1731142634.429196,836.357003572886,805.8646673196454,-73.88610218296901,825.6539563863664
1731142634.4300804,830.3652833929957,804.4860398118342,-53.76081712817347,825.6030974286926
1731142634.431424,820.9988030592233,803.8588686483614,-3.0406602980434627,825.3210308271906
1731142634.43532,810.3271461357187,804.2893361590377,41.18204736958194,828.3961679331185
1731142634.4358804,801.3754437922257,805.33186179119,58.00821945975156,835.4767858721875
1731142634.4392154,797.0207709675597,805.9491483857382,48.31705462405114,843.9435523223927
1731142634.4431112,798.6165565366802,805.0613736426245,24.658734405087785,849.6359330535554
1731142634.4447713,805.2765428849348,802.2433183948767,-1.062153115924275,849.333036508519
1731142634.4470067,814.1736348524869,798.1889831413331,-22.487860597401436,842.4839742080056
1731142634.4489434,821.6869801315754,794.5857591265141,-36.483426472364954,831.4018011824874
1731142634.4509025,824.9688779565611,793.3255876239222,-39.712355382442524,820.0054480483197
1731142634.4547982,823.2431106366805,795.4379050075298,-28.651692922992652,811.7910862491818
1731142634.458694,817.994687602206,800.4153899124284,-2.075254872974483,808.0681289107658
1731142634.4603467,811.7160976036721,806.4133398745656,37.85792817938943,807.519180598193
1731142634.4625895,806.038879532423,811.2257345707478,87.11657987378999,807.5016001992506
1731142634.4664853,800.8113371398631,813.4218446643263,140.968329071006,806.2787514224286
1731142634.4678066,794.9116299877561,812.954360057996,192.50441632158686,804.4691575358585
1731142634.470381,787.8557112348731,810.9325121507234,231.48181092613402,804.4514959950296
1731142634.4707932,780.4709081740924,808.7956668425709,248.71178685837742,808.1495261755578
1731142634.4742768,774.0617099610632,807.4808263868628,245.2593966928132,815.1010472025362
1731142634.4759223,769.2771925923537,807.1124286750993,237.29986039700998,822.5231773747117
1731142634.4781723,766.142485090141,807.2800345912624,248.00469549906643,827.276085254231
1731142634.482068,765.117974169828,807.5209619717731,289.8632677957544,827.8783797815853
1731142634.4859638,767.5747679469337,807.6064181311727,352.6428986089403,824.7497669708008
1731142634.4866698,774.6051829697291,807.5404507014377,409.7839545415264,818.6446865392969
1731142634.4898596,785.1126956652154,807.4211963336901,439.6772027516877,809.0295277392312
1731142634.4914978,795.3183656518592,807.3247879832106,443.60738703690674,794.1960246798728
1731142634.493755,800.7155206323391,807.2699632824089,444.0414609951563,773.1895597064231
1731142634.4976509,799.1256102629355,807.2389615089046,464.19453984984125,747.81895039409
1731142634.5015466,792.2471809789522,807.209391049462,506.64872323237216,722.7759214267604
1731142634.505442,784.2912988996881,807.1708462772391,550.1036149704724,703.4371518987176
1731142634.5055327,778.9301668617745,807.1245689999813,567.9638774900834,692.9130414071651
1731142634.5057058,777.230357539163,807.0760278748468,553.5122195473118,690.6042987046391
1731142634.5070734,777.9659666435878,807.0290885557578,529.8269516064091,693.2409614002491
1731142634.509338,779.3207376376508,806.9845096505677,534.4017068987009,697.2749957501562
1731142634.5132337,780.2048179752258,806.9412375932924,589.845556112329,700.6484350982898
1731142634.5171292,780.4713379584928,806.8980954165303,685.3268968154779,703.0008365886043
1731142634.5210247,780.4542607375781,806.8545856131062,785.4755503329338,704.8523168310122
1731142634.5226488,780.4803407050903,806.810810553396,859.1179380906101,706.7524337007106
1731142634.524396,780.6674453685696,806.7670633327018,901.5690284454226,708.9122901876751
1731142634.5249207,780.9695557463137,806.7235326149769,930.4532455864373,711.2631911026486
1731142634.5288165,781.2988899729963,806.6802409005032,961.092004163205,713.6584093640723
1731142634.532712,781.6046135700718,806.6371217000313,987.2514341042033,716.0092296623008
1731142634.5366075,781.8836256862103,806.5941081966197,986.5139137423631,718.3073600105852
1731142634.5382245,782.1553832917297,806.5511714499478,943.9908888185729,720.5843750142765
1731142634.5405035,782.4369898443335,806.5083130453218,869.9548408194833,722.8693950288277
1731142634.5406184,782.7339601309524,806.4655427591398,794.2275663385047,725.1724374838049
1731142634.5432591,783.0434925530234,806.4228637437504,744.1215331593486,727.4892011165533
1731142634.544399,783.361072428504,806.3802702058886,727.5024337245496,729.8120718565274
1731142634.5482948,783.684380933828,806.3377519105662,733.8616854618883,732.1369256208538
1731142634.5521903,784.0136034163856,806.2952988095935,747.278534087722,734.4638737142209
1731142634.5538,784.349997348723,806.2529028369084,757.4916056795498,736.7949387245974
1731142634.5560863,784.6946069586525,806.2105573698603,762.3782103849737,739.1318631251307
1731142634.5599818,785.0478439961961,806.1682560295901,764.4112996868616,741.4753441027517
1731142634.5621223,785.4097026961117,806.1259919528222,766.4200242856907,743.825359545932
1731142634.5638776,785.7801129516339,806.0837577274115,769.5953421495931,746.1817594451276
1731142634.567773,786.1591320881067,806.041545659778,773.6727734025935,748.5446018252313
1731142634.5693753,786.546947233118,805.9993480244051,777.9257043761162,750.9141685658451
1731142634.5716689,786.9437946091822,805.9571571564212,781.8828442987144,753.2908328834662
1731142634.575531,787.3498935535847,805.9149654257328,785.477657696026,755.6749450146324
1731142634.5755646,787.7654284206775,805.872765183395,788.8598956490727,758.0667973972722
1731142634.5794604,788.1905628409049,805.8305487366839,792.1795259862342,760.4666480019166
1731142634.5809853,788.6254589662489,805.7883083593861,795.4937661001304,762.8747574654159
1731142634.583356,789.0702855901369,805.7460363183361,798.7851029713977,765.2914099065656
1731142634.5849507,789.5252139726537,805.7037248981364,802.0157531955434,767.7169073979234
1731142634.5872517,789.9904091740319,805.6613664175479,805.1637546996304,770.1515422743703
1731142634.5911474,790.4660270020162,805.6189532398097,808.2286103486346,772.5955649126637
1731142634.5950432,790.9522233437445,805.5764777812938,811.2203169366035,775.049179651739
1731142634.5989387,791.4491729870608,805.5339325212794,814.148107560255,777.5126023669216
1731142634.5998485,791.9570805670548,805.4913100140645,817.016104766125,779.9861731791046
1731142634.6005263,792.4761575091522,805.4486029043301,819.8246588467531,782.4704337932744
1731142634.6028345,793.0065545180522,805.4058039460685,822.5732897707488,784.9660119775721
1731142634.6067302,793.5482894362035,805.3629060224501,825.2624745430543,787.4732263991115
1731142634.6104438,794.101269070677,805.3199021595192,827.8938180641521,789.9916151137835
1731142634.6106255,794.6654973558489,805.2767855257682,830.4694274440695,792.5199709279037
1731142634.6145215,795.2414138648675,805.2335494192627,832.9913506476864,795.0575036334519
1731142634.616102,795.8300431009341,805.1901872642835,835.4614097089088,797.605933729824
1731142634.6184173,796.4324862894573,805.1466926549829,837.8812997112201,800.1707092085962
1731142634.6187117,797.0486220428371,805.1030594652044,840.2526858249104,802.7584129220335
1731142634.622313,797.6758550306517,805.0592819730346,842.5771541754851,805.3690757311815
1731142634.6262083,798.3097950972915,805.0153548590977,844.8560966917397,807.98781176496
1731142634.6301043,798.948440092762,804.9712729341641,847.090771453687,810.5870362800223
1731142634.6316774,799.598429352943,804.9270306535751,849.2827250380326,813.1500812224928
1731142634.634,800.2770236920085,804.8826218622061,851.4344052840596,815.7102677209929
1731142634.637575,801.0012644491604,804.838040467198,853.5492764054505,818.3691543417723
1731142634.6378956,801.763063507673,804.7932823119148,855.6305833911974,821.2398541110745
1731142634.641791,802.5077730850415,804.7483471411159,857.678769335618,824.2985588426119
1731142634.6453564,803.1520060587069,804.7032379422417,859.6895218913597,827.2387673853041
1731142634.645687,803.6668748272034,804.657955160323,861.6561289729441,829.5450195178745
1731142634.647253,804.1924443072993,804.6124874165016,863.578434832396,830.974154002578
1731142634.6495829,805.0584866162706,804.5668076049897,865.4741280392036,832.2974617192608
1731142634.6534784,806.5572591760192,804.5208871973629,867.3790404102622,835.6090360549858
1731142634.656438,808.4702427196252,804.4747321330659,869.32144140949,843.2937630780684
1731142634.657374,809.7122057021228,804.4284167773366,871.2731980924649,855.7375143761935
1731142634.66127,808.7710974287479,804.3820640384919,873.1181093863511,869.9606277784071
1731142634.6628284,805.3767413470247,804.3357291462241,874.70622997299,881.8188916547315
1731142634.6651654,802.6541258939728,804.2892282639153,876.0292878388607,890.6618276140044
1731142634.6690612,807.4323964776725,804.2420879187166,877.4228510156447,901.0924991778261
1731142634.6729567,826.3562590940163,804.1938490466873,879.5369179514829,918.5097291184645
1731142634.6753013,859.0011953095752,804.144754080298,882.8107391421408,942.2123908229046
1731142634.6768525,894.1752132109098,804.0963263633731,886.5584354322777,963.344165411073
1731142634.678404,915.2175614119676,804.0508566720174,888.4807299000397,970.6281295787901
1731142634.680269,912.0487691056729,804.0090931792672,885.8851598899677,959.4384610008206
1731142634.6807482,889.9989667159946,803.9671086622031,879.1298370937603,936.4924228779372
1731142634.684644,866.9915044884183,803.9158042620315,875.3034952889429,915.9009707647597
1731142634.6885395,860.4009535042993,803.8472581794506,887.3187958499857,909.2554196350038
1731142634.6924353,873.8726568962005,803.7677380274739,924.3083103235267,917.247142359662
1731142634.6939795,894.8357225564165,803.707201156447,977.7647318402189,929.3088513445791
1731142634.6941645,904.9223858227033,803.7065081011535,1020.2976520582096,931.642872356433
1731142634.696331,894.9650595871356,803.7704328232214,1030.0889195047746,917.4676995800194
1731142634.7002268,872.4099338219028,803.806515730652,1022.9527768754673,891.6083142840308
1731142634.7041223,855.1417852196192,803.6109747642245,1050.8859299899782,866.1716208643454
1731142634.708018,856.8250559975156,802.9572200712453,1154.7865980266197,851.2155700981406
1731142634.709555,875.7111898614899,801.7482914757943,1314.0607134565323,848.0261005738253
1731142634.7119138,895.8525656355789,800.1046776838632,1448.2616562813355,849.8950008899594
1731142634.7130272,899.5688730092284,798.31884689007,1477.7575761954645,848.8651670285843
1731142634.7151816,881.2296344833785,796.7365603133737,1392.2227125901468,842.4249780091825
1731142634.7158096,851.6330624358965,795.6269773082463,1264.4284530322125,834.9137067465073
1731142634.719705,829.5920815551026,795.04429265331,1192.506746773326,833.0738769284491
1731142634.7236009,827.1794200878975,794.7367956444813,1216.9000248453558,839.7382748319294
1731142634.7251306,840.2453616655139,794.2352901278268,1284.1863302814672,850.8342301981623
1731142634.7274966,852.080741349103,793.1582347482591,1293.7211156549342,858.1555774337709
1731142634.731392,847.6320051346966,791.5527777616342,1191.731152132455,855.7813372654591
1731142634.7318904,826.6387882486973,789.9872917690459,1031.9690776413536,845.0110830424186
1731142634.735288,804.4746712799641,789.257424709077,945.2298335430214,833.6706474781115
1731142634.7391837,799.6438041151662,789.8617761132028,1036.1629451477493,830.0602492154936
1731142634.740706,818.2721599959615,791.6159442536507,1290.6520574063186,836.2318419923632
1731142634.7430794,848.5760985342523,793.725532655839,1573.0356289918975,846.0385809137063
1731142634.7469747,869.9221783605922,795.3219441404545,1720.2112320319627,849.742707629038
1731142634.7500944,869.0159279545026,796.0895106359134,1659.3818762322967,841.77068745516
1731142634.7507536,850.0988660177155,796.497876120184,1456.2054101810386,825.5963953739986
1731142634.7508707,831.1038567800673,797.445430027491,1257.2924290848305,811.7843953447505
1731142634.7547665,829.0406977378351,799.590532734693,1176.5210978687965,810.4194717107401
1731142634.7562816,846.384336626428,802.8735083359263,1217.1190599618578,823.5673214132522
1731142634.758662,869.3484812025711,806.5248907851145,1287.6516573072283,843.573187235977
1731142634.7625575,879.3458500383863,809.4594180843308,1290.6932503212734,858.5503553347286
1731142634.7664535,868.1865892054254,810.7612398211759,1205.1989366439252,860.7542894381971
1731142634.7696166,844.4480527858279,810.0655837101574,1094.6712096850506,851.3831571774588
1731142634.770349,825.819196897482,807.7777848489885,1041.0123153375089,838.5243232483151
1731142634.771857,824.0363530160312,805.0374004654316,1067.846941609557,830.5747510813474
1731142634.7742448,835.1827504933974,803.2861205297135,1121.745605983086,830.6016989736457
1731142634.7781403,843.3821186025242,803.5025767721213,1124.3260645697133,835.5194823683448
1731142634.7820363,834.5418594545716,805.543490242887,1045.0857670589148,839.6866512896183
1731142634.785007,808.5683145849105,808.1433692918345,929.8618017782244,839.3956157379586
1731142634.7859318,780.0480800929492,809.7135315752706,862.1634217815905,834.8310780580694
1731142634.7874324,766.987447245204,809.4377229952834,892.875484116034,828.6377272742704
1731142634.7884798,776.7592358550983,807.8645486317165,997.7219193651263,822.9431519348558
1731142634.7898276,800.4614481459083,806.530636191334,1095.7770808651592,817.5942588859358
1731142634.793723,820.1257520306388,806.8566132974219,1112.1856407930704,811.0352842452734
1731142634.7976189,822.9571805706453,809.1030840305516,1034.7325737940328,802.8030108791108
1731142634.8015146,811.0507874850695,812.1581112086112,920.7491130346107,795.0217360510886
1731142634.803008,798.6333216147855,814.3394606615561,850.559161118441,791.034112332725
1731142634.8054104,799.2309436003977,814.6188143532537,864.9235192699072,792.0048814308846
1731142634.807343,813.6725222967848,813.2976700753716,935.0178494819762,794.6238068637562
1731142634.809306,829.1002548257434,811.5708007079486,986.7043480336645,792.5538466509449
1731142634.8132017,829.771461489145,810.3670682406198,958.3882308517959,781.1118229857117
1731142634.8170974,810.5336250945651,809.5372172359993,847.1330163929338,761.5977486697338
1731142634.8185835,781.7769561819003,808.1632323398353,708.979374233978,741.5650624152304
1731142634.8199196,761.8278501987479,805.6950925613343,615.893746218647,730.3558275028471
1731142634.8209932,762.9391242599814,802.7992444036705,604.0856404070855,732.9095713535573
1731142634.8248887,782.0386210688943,801.0560565698776,652.511062503915,746.3256944157879
1731142634.826206,803.5223685576403,801.7299518093702,705.3530581800982,761.8551662442753
1731142634.8287845,811.837712626929,804.6927509961452,718.645904532992,771.1189836309835
1731142634.8326802,803.7871161497212,808.4145424138748,693.9043348308899,772.0591988798632
1731142634.8341591,790.5519306882389,810.9808675744775,672.6323875396263,770.021258272558
1731142634.8365755,787.6497159840684,811.2852937315231,696.6730179728103,772.9807770778905
1731142634.8404715,801.05590847123,809.5476279609145,767.25083626836,784.6675934881507
1731142634.8443673,821.2000758696025,806.9540623802104,837.7479236300563,801.1719577781101
1731142634.8450692,830.2045036877741,804.8428898212221,848.2217726772942,813.7526531909857
1731142634.848263,816.6593542883281,804.0132620379884,774.6092080821021,815.4285423727378
1731142634.8497343,785.7715140247649,804.4734595589429,652.1347863743607,805.9957165320715
1731142634.8521583,756.3489109794489,805.6021905495109,552.5692370673178,791.7117342403243
1731142634.8548322,746.7421935807497,806.5212638998563,531.9814797775568,780.3327470820263
1731142634.8560543,760.8233715963588,806.4990888951709,589.3437842959977,775.6759653397298
1731142634.85995,785.1718216829044,805.293923926983,668.3728508208042,775.8533318215918
1731142634.8638456,799.8158997025353,803.3620300470698,701.8009207556091,776.1783402986117
1731142634.8639324,794.0893151753845,801.7895635274322,664.0543862299921,774.0649390098806
1731142634.8653102,774.9642517755414,801.8182491886183,590.5983019141592,771.7459299955823
1731142634.867741,761.1153561919739,804.0737813249319,547.3610833977937,774.4137508004658
1731142634.871637,767.4237002623623,807.9520502512507,573.9348276371798,785.1435674614462
1731142634.8755329,792.4378498610054,811.6969530977278,647.791976317199,800.8262273418146
1731142634.8794284,818.9848682259632,813.2894547883348,701.8202874388771,812.8936205289549
1731142634.8808856,827.4615508090186,811.6324860185922,682.9075588111197,812.9300631516296
1731142634.8827956,811.1202567232033,807.2237019087263,601.7980802639893,799.151023705614
1731142634.883324,781.2480720940765,801.8418479238384,528.82035895736,778.6219620857167
1731142634.88722,758.4136704249189,797.4685872171003,535.9608354953073,763.1141651593929
1731142634.889745,756.9561852204222,795.1932725935874,633.8709020176253,761.3894123128075
1731142634.8911154,774.8634844128854,794.8343044664817,758.7045730188732,773.56016630318
1731142634.8950112,796.5232783560049,795.4712152110802,820.9981403427629,791.6155805976193
1731142634.896461,805.5328927823016,796.3951133154807,775.1787554675699,805.4445424503855
1731142634.8989067,797.07523083983,797.6752563273884,651.9362803033198,809.5856718827972
1731142634.9016583,780.2817035328482,799.8875134227617,529.6584062335852,805.7419566300091
1731142634.9028027,769.4899092513625,803.3000023459688,472.70732049501237,799.747421150265
1731142634.9066982,772.2567818135325,807.3102650369065,488.14162309404946,796.0330568616222
1731142634.910594,784.0707678825063,810.6962032637446,531.7419417575147,794.2556532216084
1731142634.912037,793.4622031411456,812.471319002982,551.2241886090449,790.5572960559349
1731142634.9144895,792.2968648810094,812.5675504029988,527.0544363118474,781.895539551433
1731142634.9183853,782.2274244437216,811.7675177503235,479.77610631253856,769.4088754758693
1731142634.9205215,772.448890544729,811.0426936085204,445.4361240112789,757.8880863298558
1731142634.922281,771.6607888761175,810.9487697393923,446.27150555395343,752.011497044461
1731142634.9246576,781.4119373440792,811.521924207512,480.85113666775237,752.7816389589117
1731142634.9261768,795.7544647669793,812.5353419945149,534.1605584586282,757.1526728490962
1731142634.927612,806.3960432337066,813.6883118658275,590.4948511918849,760.8343416671819
1731142634.9300723,808.5884604233001,814.5558458359286,636.8045531038696,761.5975023340417
1731142634.933968,803.4346358004614,814.533154425725,660.8704092958665,760.3340911255634
1731142634.9378638,795.7404363605558,813.0592250247826,655.0310563562218,759.3552619026365
1731142634.9393847,789.8195648585163,810.0569233806276,625.3115800080695,759.7806609183139
1731142634.9417596,786.5942963104034,806.2022104796877,593.407206522288,760.4216614202469
1731142634.9431877,783.8130542267719,802.7030520035465,582.7854406327422,759.0544320148967
1731142634.945655,778.6945139625363,800.6710753824959,597.7417846422609,754.8340761250215
1731142634.9495509,770.6603627100225,800.5276213955116,615.5961888547021,749.6274626226982
1731142634.9534466,762.0732320246385,801.8791610536351,602.9773630939806,747.0084315935823
1731142634.957342,756.6267814535508,803.9225515840295,544.8563758960058,749.6953890811778
1731142634.958248,756.7668820507564,806.0112483157252,461.19217982983463,757.5362508545886
1731142634.9587631,762.007060286818,807.9135695971268,394.50711763623787,767.6377117644655
1731142634.9595702,769.1792327678312,809.6279685017918,376.0203328853577,776.440545791778
1731142634.961238,774.3746754280587,811.0627640918184,398.096069521396,782.0706571286134
1731142634.9651337,775.3496717919757,811.9772876946015,419.05366615776353,785.2742821259317
1731142634.9690294,772.8405789151395,812.225846592311,400.862411674535,788.4565604224629
1731142634.9729247,769.7884556658507,811.9596190902395,349.1932215117301,793.6852541776758
1731142634.9743388,768.905280031157,811.4831854998454,317.27918395046606,801.0510621586204
1731142634.9768207,770.4602377106213,810.8864566692855,363.69011803582197,808.349118427456
1731142634.977111,772.2137722669951,809.8768855364135,498.0096488380806,812.1878494954444
1731142634.9807165,771.6503429504846,808.060080770799,664.6373869563662,809.9047310131963
1731142634.984612,768.5261026426189,805.4485724042396,782.764073172924,801.2801967204542
1731142634.9885075,765.3721712844285,802.7125259581662,808.4497847628103,789.0489883739214
1731142634.9899142,765.475697366234,800.882895110442,764.2870850991378,777.7563710851988
1731142634.9924035,770.2044209629198,800.6879869921214,713.5306294727131,771.511868159344
1731142634.9944828,778.078100705222,802.041651596056,706.4194115781262,772.0142232013461
1731142634.9959743,786.3006572294917,804.1268141783389,747.4315552117421,778.0985531522771
1731142634.996299,793.247613909064,806.0635933495187,807.1873726140587,786.9451027063463
1731142635.0001948,799.6231260483701,807.6388252863446,859.6311892748565,795.8351025505642
1731142635.0040903,807.1630905112124,809.4321949302316,904.6716626796376,802.9955838323566
1731142635.0054896,815.8516032244167,812.1219721243775,955.0762444238517,807.0362718672319
1731142635.0079863,822.1184391287846,815.5173256398853,1004.9150011273427,806.0303903191094
1731142635.0118818,820.2150582989984,818.2637070970527,1018.3576559068916,797.9156484202227
1731142635.0148375,806.666038897329,818.6943086593143,959.4303246406432,782.5970759094232
1731142635.0157776,784.65300208319,816.236281917171,839.3361667212081,763.8825718893333
1731142635.019673,764.0689486835422,812.1112917510853,730.8520514460758,748.6863249030527
1731142635.0210652,755.7140202157151,808.5619512489982,722.2251951625253,743.1489846178092
1731142635.0235689,763.2478985020989,807.1531997500772,841.6386774984222,748.5471460175231
1731142635.0274646,779.5174603977755,807.6031897747532,1021.2057653977846,760.575885732996
1731142635.0293956,791.2136729135835,808.1698160121479,1141.9830026566785,772.667866170524
1731142635.0313604,789.003230755398,807.2293762703623,1127.6032756038967,780.3625505819496
1731142635.0337005,775.1324567357816,804.6510264707572,1004.617253148968,783.1812813394228
1731142635.035256,761.8926097521764,801.8331698172808,874.4285813052674,783.2969086500622
1731142635.0366406,761.6290680443375,800.4969708454112,822.2818253685903,783.0783597594982
1731142635.0391517,776.2728984328994,801.3517434954814,846.5894432221174,783.6643252734866
1731142635.0430474,795.3221562400613,803.7060998848009,871.7579518721361,785.0071181291102
1731142635.0469432,804.4527391648548,806.1801708698723,829.0115449049638,786.5964825399994
1731142635.0508387,797.7950627828429,807.7734189740689,727.0224867374884,788.0479251745436
1731142635.0522163,783.294205560618,808.3942333943287,645.700583015382,789.2731778916186
1731142635.0525637,776.101824880402,808.5571568999408,659.867339025216,790.3671311840759
1731142635.0547345,785.2602746379049,808.685905158868,765.2452088048923,791.4443898234067
1731142635.0586302,805.1036401774647,808.6965882406049,876.9366703174129,792.5565739805303
1731142635.062526,819.1655480594267,808.1564046932334,903.7628459950508,793.6960885710565
1731142635.0643082,813.7752584197957,806.7500029954695,831.9812027219101,794.8347323228925
1731142635.0664215,790.025373874766,804.5760589004975,742.2290152196297,795.9531667499763
1731142635.0677917,763.8629892864756,802.0677366322441,742.58630459888,797.0480460424561
1731142635.0703173,753.8990510512258,799.723242557318,874.8283520253983,798.1250909161159
1731142635.0714269,766.7984295286451,797.9334079212133,1073.9067726479268,799.1904491904248
1731142635.074213,792.1946204497817,796.9756601946642,1214.2282276010164,800.2467191834129
1731142635.0781083,811.2992375712117,797.0257216895927,1203.9869715717607,801.293462836536
1731142635.0820043,812.1741169003899,798.0692697317621,1052.5372186602071,802.3293272165699
1731142635.083367,799.1951767177886,799.7939028274436,861.347502586737,803.3535282488766
1731142635.0859,789.052653128699,801.64167888431,750.0279283001795,804.3661284116348
1731142635.0897956,796.7049089314401,803.0732840436916,775.0753476175005,805.3676215113959
1731142635.0902898,822.8077829326708,803.8689387854043,898.3205319063732,806.3584882439867
1731142635.093691,852.6915306930309,804.2129383010672,1021.4652043084915,807.3390363101386
1731142635.097587,867.5024706307953,804.482677046067,1056.52789651683,808.3094776094761
1731142635.0989428,858.5968004208148,804.9380563528197,981.6862567717264,809.2700416413975
1731142635.0992208,834.0689875382454,805.6109410211145,847.2775456759393,810.2209661691583
1731142635.1014829,812.6190818441116,806.5017543151006,733.0515429047039,811.1623551314954
1731142635.1053784,809.6117041806407,807.861288709519,690.0204459461117,812.0940642906073
1731142635.109153,825.9251444730695,810.1800792288057,708.4902647708938,813.0158623323441
1731142635.109274,847.9429669037087,813.7127317309908,733.9514162884959,813.9279785628396
1731142635.11317,858.5168049998811,817.8227290994545,717.9313754466159,814.8317183499386
1731142635.1145182,850.2728936697808,820.7780412384726,664.7283063159152,815.7293214142103
1731142635.1170654,830.8174740061817,820.4728649588578,635.6301407563592,816.6222635246805
1731142635.1209612,815.9062054482915,815.8473997859962,701.6640586778418,817.5084131793623
1731142635.1248567,816.3975687455729,808.0232749653046,876.4392744828757,818.3806641463135
1731142635.1280162,829.7336067799613,800.1108707852391,1083.2559025131645,819.2309912666548
1731142635.1287527,842.6590790543667,795.5372464449072,1193.1781030301415,820.061226190008
1731142635.1300938,842.4790880143931,795.9458521809437,1117.9760188989208,820.893800242008
1731142635.1326482,827.3714371601569,800.1779259772,890.5215828357683,821.7667918300805
1731142635.134133,807.4759424702008,805.0968126906794,661.1724258664997,822.6996541641615
1731142635.136544,796.2360674434977,807.6485383097311,596.886052686108,823.640542002648
1731142635.1404395,799.3279657181073,806.6763826814764,751.8491736773155,824.4473700357183
1731142635.1443353,810.3215323319596,803.2942962724246,1014.8283906087279,824.974795765014
1731142635.1456692,816.6210565189783,799.7691276712351,1187.3613426428246,825.2809203745422
1731142635.1468794,810.6557047791409,797.8991121847513,1140.0562973256667,825.8112000314785
1731142635.148231,796.7266649065762,798.0403750933641,920.5590084331637,827.2594088128888
1731142635.1521268,787.4064510251355,799.2688670424462,717.139592810392,829.8714411321027
1731142635.1560223,792.3275303002926,800.327105829774,700.573610500261,832.4405322869197
1731142635.159918,809.0344787883029,800.579780549973,875.6682212506485,831.9701731361137
1731142635.1612449,824.1348815727475,800.3326286566618,1073.104192806908,825.1496700060223
1731142635.1638138,824.2096509951494,800.3767155643559,1094.3178698539928,811.4551237254302
1731142635.1657424,807.4017173875748,801.1884693625201,886.5637065898136,795.4326969978814
1731142635.1677096,785.7685257389443,802.4638060710129,594.1341575580019,785.2257320628942
1731142635.169046,776.093732870185,803.3671768257983,437.2860804248568,787.3509390665115
1731142635.171605,786.4812890291358,803.2527176148951,522.4549684021626,801.6210381251149
1731142635.1755009,809.7311926211564,802.2185784383478,750.989672732076,820.7095497474982
1731142635.1768205,829.1298458557445,801.0370249178288,908.8594253155011,835.2049941698949
1731142635.1793966,832.0656795095884,800.5566967567221,858.4042184290346,840.3576743098398
1731142635.1832922,820.1621317175274,801.0845701887329,660.2545082581807,839.1446807406461
1731142635.1846056,807.3132660941501,802.2122405348478,516.2572284965804,839.1405110821349
1731142635.187188,807.2434760696239,803.163354810479,586.6326997044813,845.6978093145033
1731142635.1910837,821.2977735850591,803.3484960619356,846.6814067713291,857.015644104958
1731142635.1923957,837.0079815682203,802.7010570685321,1108.635315187994,865.1780159600384
1731142635.1949794,838.5982931929258,801.5851292117679,1184.2385018161804,862.3335764161055
1731142635.198875,820.3494837467255,800.4254980542019,1042.7911338747717,846.9919552363017
1731142635.2027707,791.6406126423384,799.4113734501805,831.722078075545,825.4665401605209
1731142635.2034688,769.9489009961526,798.5014041448629,750.9104603993732,807.5449485349238
1731142635.2039587,768.0870070488719,797.6402453902817,892.12927919312,799.8911208426631
1731142635.2066665,785.9418258563115,796.9103580813343,1171.9421684784677,802.0048522227153
1731142635.207971,812.3524142279879,796.4687960534967,1400.030356266243,807.3090890076426
1731142635.210562,834.2159175212801,796.3842065329752,1418.4305845820654,808.2488143673904
1731142635.2144578,844.805494379131,796.5726047440646,1204.327236521219,801.7096066290006
1731142635.2183535,845.5112639664922,796.8752558451982,870.0288727938957,791.0162889041064
1731142635.2222493,841.7919683541247,797.1689736184899,574.9117164818902,783.1873052228406
1731142635.2223318,838.2815950431595,797.4111648315883,421.8773251444855,783.4825069911165
1731142635.2235467,836.6883943561826,797.6167043977256,408.7741923187175,791.2633468264916
1731142635.2261448,836.5011464105535,797.8146468098809,455.22776576204825,800.2487268149829
1731142635.2300406,836.6084100104874,798.0215920291663,471.95222461804354,803.019561146846
1731142635.2339363,836.3464323995179,798.2382903898359,420.5969875449051,796.5001265804377
1731142635.2378318,835.6623185352261,798.4581750920171,330.8953888976341,784.430317550526
1731142635.238871,834.8000360533304,798.6756307722493,274.5089527733729,775.0205396943032
1731142635.2391224,833.9791663751809,798.8889628883518,317.70615864566,775.418538154
1731142635.241195,833.2718005136344,799.0992277519571,480.8315226295963,786.8578994430727
1731142635.2417276,832.6416960104415,799.30801235366,725.956141189079,803.8909656592467
1731142635.2456234,832.0287678023772,799.5161493383468,979.1853399795048,818.2534977694678
1731142635.2495189,831.400290277836,799.7236366233219,1173.8338323797311,824.5263283391454
1731142635.2534146,830.7558036010242,799.930124965528,1285.4223251048543,823.298260181475
1731142635.2546978,830.1090564736892,800.1353450258639,1334.0969349765087,819.4590062951756
1731142635.2573104,829.4713619358673,800.3392416388187,1355.8715922439778,817.3704726203763
1731142635.2600582,828.8459624349767,800.5418983247519,1370.0032637858696,817.40258176023
1731142635.2612062,828.2306514699594,800.7434186386137,1371.1694601633726,816.8938202320451
1731142635.2651017,827.6223083389239,800.9438627905746,1349.9174220964626,814.1916594636269
1731142635.2689974,827.0194176831529,801.1432474254818,1316.7817439898881,811.3830914024824
1731142635.2702734,826.422135600483,801.3415730252242,1301.3921926179576,812.7097373504257
1731142635.2728932,825.8312450438946,801.5388471443949,1322.968047030382,820.0574333645773
1731142635.273784,825.2472888047794,801.7350925606655,1360.4559462636023,829.952549810369
1731142635.2767887,824.6703594326565,801.9303436057698,1357.6745019915575,835.3123533166373
1731142635.2789211,824.1003702297315,802.1246363879529,1269.569996572709,830.9582247345857
1731142635.2806845,823.5373995812897,802.3179968243714,1113.2582289953743,818.385600967221
1731142635.2845802,822.9817619598007,802.5104322896856,973.1950897195402,805.5062813148672
1731142635.2858489,822.4336656106,802.7019377475038,944.2669576264104,801.0001443623053
1731142635.288476,821.8926442084777,802.8925254883281,1054.1873183354087,807.4927643807406
1731142635.2923715,821.3573403739953,803.0822682000739,1233.1670434342873,819.1557108293093
1731142635.2962673,820.8263617277781,803.2713122491808,1363.4723581233538,825.9924880985244
1731142635.2977843,820.3003167540172,803.4598030716173,1371.6780816880537,821.5565302880344
1731142635.300163,819.7836049707606,803.6477143256113,1285.7368608881675,807.8854361874916
1731142635.3014245,819.2830387154784,803.834700991699,1206.5090274232452,793.7098847667384
1731142635.3040586,818.8011149594198,804.0202213911306,1216.4816728784385,787.5460831524679
1731142635.3079543,818.3266330055304,804.2041073898874,1303.930655252466,791.3143190647779
1731142635.3086965,817.8327784118377,804.3873484663201,1370.417951893711,799.3937572958602
1731142635.31185,817.2953595139455,804.5722335711843,1319.4507981451893,803.4738607075396
1731142635.3157456,816.7314165219877,804.7607925542643,1151.0817467922368,799.1095214508196
1731142635.3166475,816.229103418004,804.9515468378341,975.0964355539313,788.9241908654536
1731142635.317,815.9138347059218,805.1370491236344,921.5083745264693,780.2907048631139
1731142635.3196414,815.8153867800468,805.3068327222942,1020.1972226801016,779.5702579923134
1731142635.323537,815.6978330785181,805.4586512638703,1158.7589883298524,787.4313017215782
1731142635.3274329,815.0504536471137,805.6126430617451,1167.3795996847875,798.7409500247048
1731142635.3313284,813.4670503958124,805.8116350510704,967.1972197468144,806.872675832246
1731142635.332575,811.3795810375982,806.088530289006,654.2042688851208,808.805800683243
1731142635.3352242,810.5560712704735,806.4038219470943,438.02580815303975,806.8850253895051
1731142635.3355107,813.3460580202238,806.6022850782275,477.3908270450983,806.028042375664
1731142635.33912,820.1697943204014,806.470610660917,745.4947378228034,809.0475673738495
1731142635.3430154,826.7584071060973,805.9256999957803,1039.1875762920774,814.2328342372534
1731142635.343609,824.8686022092548,805.2031165725035,1131.380294521862,817.1887008738488
1731142635.3469112,808.7021816550994,804.8073695914142,949.2633038227597,815.1445497686806
1731142635.348151,782.6513669581617,805.1606256185117,635.708996986901,809.8416324566759
1731142635.350807,761.5229115989562,806.2343288895755,440.30299854862903,806.3995886780754
1731142635.3543737,760.1762980766251,807.5310653077883,522.8344982813418,809.041198792885
1731142635.3547027,780.8128753565883,808.4553559154537,826.4863215364488,817.2858686405407
1731142635.3585982,809.9769651809162,808.7444650045419,1124.5616149404236,825.949972769115
1731142635.362494,828.9333162912299,808.601721077367,1202.0145127564913,829.1617408557528
1731142635.3637264,828.709593350637,808.4602666229042,1020.9315785717056,825.1248512370438
1731142635.3663898,816.6198958908465,808.6127508969317,735.8801485361342,817.5569310232403
1731142635.3702853,808.7097226105708,809.0231625072906,555.7086569062037,812.4822988137379
1731142635.373237,815.1158669770596,809.4445403883187,575.8158099308722,813.0668002384498
1731142635.374181,831.2701722978541,809.67394121885,719.1249345941799,816.8731191477519
1731142635.3780768,842.2340880446999,809.665725910183,821.660076422632,817.8290088380747
1731142635.378522,835.920449676694,809.4237350439744,777.1593928435789,811.3002175863801
1731142635.379302,813.759767238538,808.8823358926949,617.2349479927027,798.2519673831835
1731142635.3819726,790.0232904909168,808.0022859049087,469.95076693333516,785.2577978736895
1731142635.385868,780.581361418516,806.999977528016,444.13046410890394,780.2111544973287
1731142635.3897638,790.3882892845011,806.3752494779311,541.5234476385713,786.7475603836193
1731142635.3921,809.8744159915542,806.55882615365,666.0800293276396,801.4614911676352
1731142635.3936596,823.1449637108338,807.4368801175423,713.8544902416155,816.1388560631103
1731142635.3948774,821.2067640126425,808.2395078942669,662.2300450161559,823.5256823744891
1731142635.397555,809.2158190905956,808.0123900682423,584.4464268312465,822.3149937359839
1731142635.4014509,801.6489770147332,806.3588295381447,582.829935208935,817.4637122457314
1731142635.4053466,809.4595193648927,803.8543862992061,700.5982983316185,815.5909067366599
1731142635.4092422,830.0933552897395,801.7772978424184,883.6797744855279,819.2193695577106
1731142635.4104528,848.839695434604,801.3449656178831,1018.9318067554821,824.6247833448225
1731142635.4109633,850.4967245472143,803.0064478245404,1016.6610782640613,825.1011500065721
1731142635.413138,831.8569565665156,806.233079330121,876.9658273826278,816.9463678488263
1731142635.4134345,804.8761082358311,809.8472047429941,693.5449221565915,803.1487539521262
1731142635.4170337,787.7644477874395,812.6098739462516,590.7354229059124,791.5594011412559
1731142635.4209294,790.7921208743343,813.7382186128601,635.0362687080917,788.8780283982071
1731142635.424825,808.0683635730456,813.1569329082529,784.3199200229561,795.3857590364984
1731142635.4260285,822.2438649904739,811.4525774565922,916.4188527932871,804.9057358783303
1731142635.4287207,818.8102691542457,809.6104686654373,920.9617475795907,810.0907456604641
1731142635.4298265,798.4431237694802,808.6448578671937,785.7387190564041,808.476241593037
1731142635.4326165,776.8596208611573,809.2135570054254,608.1100194986691,804.0096381893864
1731142635.436512,771.8118652536551,811.3221592366427,519.735457274737,802.8150636988133
1731142635.4404078,787.8653317963887,814.2849268040238,583.544141383849,807.1661920283416
1731142635.441604,811.8887559212613,817.0718362888355,745.4531164202273,813.192406163476
1731142635.4443035,823.3798995786354,818.9123994023336,879.0848916192554,814.3362753108614
1731142635.4481993,811.2918648838312,819.7269481189769,886.2865889883109,807.38550560404
1731142635.448347,783.5420499115496,819.9920132290443,771.7935493629407,795.7641472641842
1731142635.4486897,761.3387545508565,820.1176383537837,632.7905582736734,787.2890752634548
1731142635.4520948,762.6882442807944,819.910325554443,574.6611484258833,788.2208916643302
1731142635.4559906,788.0743237935206,818.6826456331781,624.9797953687522,798.3014757369365
1731142635.4571795,819.7085590683995,815.9897914890144,717.97698207246,810.6388997688961
1731142635.4598863,835.1972625761448,812.350461853778,760.0451889794617,816.6631314810618
1731142635.4637818,825.0017704571488,809.2454203556287,715.8239243374345,812.552411025972
1731142635.467553,799.7560940360696,808.2665333755239,637.1722540889649,802.2178191703646
1731142635.4676776,781.4591513342496,810.0078972348301,610.3168730721177,794.3124295926378
1731142635.4715734,785.7106052385473,813.5392521113918,671.3850669610325,795.3682931241653
1731142635.472755,809.5455717481335,816.893815742408,768.3785561699202,804.505209385682
1731142635.4754689,834.5497204665749,818.2714756381902,804.1483725923216,814.1448102221724
1731142635.4793646,841.9555597646596,817.1391781699493,722.0849930182442,816.2411899023482
1731142635.48326,826.6960650520123,814.4602517275634,559.7775007424116,808.8323837264433
1731142635.4832604,799.2511169142783,811.8845759133935,424.72086307489764,797.4589691367663
1731142635.4864156,775.4374147618414,810.4928501664804,411.8559788154513,790.4330027359221
1731142635.4871562,764.4456115193962,810.0517595488213,529.9373441172038,792.069759423693
1731142635.4883306,765.0374682615403,809.3600612989152,695.9599158973696,799.4358563338324
1731142635.4910517,770.4170334957888,807.3786322614127,801.5095757103842,805.0378635751871
1731142635.4949474,774.8607935296728,804.1755211585006,796.0579212280305,803.0637941649138
1731142635.4988432,776.52207165238,800.9026710248235,718.5552557805206,794.14195562914
1731142635.5027387,776.3540596805719,798.9040153172683,653.6728902552096,784.931840149153
1731142635.503906,775.9111643538312,798.7826141565172,654.6253429370896,782.9537558929902
1731142635.5052788,776.0327698237548,800.1487999646756,701.498172984851,790.6935935983641
1731142635.5066345,776.7257056187152,802.0523229461596,728.3125387384288,803.4955874403774
1731142635.5105302,777.6344077991889,803.5731865824321,688.8832295151249,812.8643089927335
1731142635.514426,778.4695954529323,804.1454405355615,599.8467553914292,812.7652062658863
1731142635.5181725,779.1511620394612,803.5976543031252,524.6703589565727,804.255428326659
1731142635.5183215,779.7389126268179,802.0892128019606,517.0673906091897,794.9090863554541
1731142635.5194814,780.3153786502427,800.0175174057678,575.6897716373456,793.289828886441
1731142635.5222173,780.9212519581698,797.8647001596158,647.9952421668419,802.4846166690319
1731142635.524142,781.5537782097778,796.0181130601095,676.5875686867686,817.6036102614963
1731142635.526113,782.1932164632213,794.6898586613014,646.2627262516253,829.3032467179547
1731142635.5300086,782.8248304223432,793.9948292911309,592.5089237264074,830.7557393957317
1731142635.5339043,783.4452172847201,794.0821605362205,567.1218018569,822.6180791957528
1731142635.5350573,784.0579458906525,795.1502209256157,592.5364329439011,811.9665451043265
1731142635.5378,784.6673195991285,797.2858900252959,643.3944671210613,806.0758834421623
1731142635.5416958,785.2752295199682,800.2442983799897,668.4566894067311,806.3704327537225
1731142635.543005,785.8813138340338,803.3729340447416,632.6413493821783,807.8362900378353
1731142635.5455914,786.4844620798996,805.8146739846297,545.5775488979766,804.3811071779429
1731142635.549487,787.0839746700126,806.931579379172,456.5698152097602,795.215494567943
1731142635.5506325,787.6798270496513,806.6929800440081,421.28998460505795,786.2811589217079
1731142635.553085,788.2723018358312,805.7240746813419,463.6617770117496,785.1786508653
1731142635.5533829,788.8614780881298,804.9041195867031,558.2889327263338,794.023857665541
1731142635.5572784,789.4469800723213,804.7434704074499,645.9131724183801,806.7424411678968
1731142635.5611742,790.0282329976312,804.9924258097868,673.4730043829524,813.4948145008831
1731142635.5618682,790.6052193112974,804.8085474276733,632.0422595268199,808.5601553540914
1731142635.56507,791.1792514188027,803.3837997173083,563.8087490858481,794.8684702555639
1731142635.566208,791.7527521166504,800.5645214636966,529.9533375631876,781.3499701574026
1731142635.5689654,792.3271412373338,797.0237981732938,562.5394828626838,775.6078390658934
1731142635.5728612,792.8994255637174,793.9279124661595,638.88948031001,778.2950070604554
1731142635.576757,793.4607177757206,792.3949169658597,700.1052232464642,783.6453943796463
1731142635.5806527,794.0013712818585,793.0678600268741,699.050255670104,784.9874821384863
1731142635.5807314,794.5240272534149,795.9021585687017,638.7304284500603,780.0296409955537
1731142635.5817835,795.0561014681751,800.1226433323143,570.2174237844486,771.6721425560439
1731142635.5845482,795.6428204753907,804.3867348332784,552.0156436802031,764.6358420308017
1731142635.5879977,796.3051314529955,807.2724307463819,603.10329979193,761.6627807600322
1731142635.588444,796.9770717572048,808.0034499879366,686.9641334608367,762.3916074397396
1731142635.5923398,797.486378343454,806.9418448219375,740.3516515857906,764.8049447776618
1731142635.5962353,797.6638303828546,805.334670196328,725.1414801034883,767.1435143908867
1731142635.5973592,797.5929814982657,804.3751882040741,661.1992564402146,768.7497543195109
1731142635.5995946,797.8229835073884,804.346540263701,611.1268302506151,769.8152504667528
1731142635.600131,799.1846365928668,804.6295968739415,627.020463660499,770.7654010566176
1731142635.6040268,801.9460492035697,804.5313844735196,703.4417236256473,771.856574184346
1731142635.6079226,804.6448616276598,804.0685828832256,778.5405766679704,773.1110875830634
1731142635.611818,803.8211896158089,803.9189996451152,785.4985353781852,774.4363219513143
1731142635.6129346,796.0978065542226,804.6362328105891,712.3634229705725,775.7480017608041
1731142635.6157138,782.2772847219034,805.9578901180982,618.8886865512742,777.0180582023979
1731142635.6184576,769.6713143466329,806.9093138087856,593.3527564094555,778.2601111113362
1731142635.6196096,768.1135975575146,806.6282793131385,681.8948447839726,779.4971904190566
1731142635.6229105,781.0395589047422,805.189497270261,846.9063999998797,780.7419862405186
1731142635.623505,800.2529391066242,803.7165696773825,989.9771720889626,781.9948225118933
1731142635.6274009,811.2344787688988,803.6375845619712,1024.4457915033038,783.2505142455883
1731142635.62851,805.4117691327788,805.5894547426905,941.6171681327411,784.5047584083227
1731142635.6312966,788.2188500013178,808.7595512130974,817.2056216303296,785.7563308832314
1731142635.6351922,775.0651761528719,811.1998200131364,751.8609994154874,787.0061075351183
1731142635.6373208,778.2110180374585,811.0047972450652,794.3342555463373,788.2553312860773
1731142635.639088,795.9554108631353,807.6108983619949,910.1916486953268,789.5046379439814
1731142635.6429837,813.8357489929745,802.3111274897938,1018.7517100703186,790.754018259299
1731142635.6440856,817.0729275775376,797.5739927351594,1061.9868654396714,792.0032085816728
1731142635.6468794,803.5330505394495,795.5862600168069,1045.0863631481755,793.2520229785339
1731142635.650775,785.9261683199763,796.9739278120459,1018.7999607134523,794.5004493656721
1731142635.6546707,781.2952831781886,800.4973269211657,1026.6898393924105,795.7485747932728
1731142635.656184,796.7292971125363,803.8427769656726,1066.8759327546281,796.996474129654
1731142635.657823,823.2493354868325,804.971770735521,1098.7708666101034,798.2441558066762
1731142635.6585665,842.8079447973818,803.2283328954616,1083.7818824579572,799.4915949308922
1731142635.6596613,842.5945217610869,799.5952757606473,1022.1737443908767,800.738829863397
1731142635.662462,825.0888578129005,795.9870851373922,954.8107311602604,801.9860456347035
1731142635.6663578,805.810845959142,794.0535127642016,929.1980804613975,803.2335283644742
1731142635.6702535,800.6013251467627,794.3093543588483,958.9930593957973,804.4814129806724
1731142635.6741493,812.7949745624916,796.1715466556062,1011.8406664933075,805.7293287385913
1731142635.6750467,830.8376694823178,798.7454140771418,1036.8143952852017,806.9763201689501
1731142635.6752367,838.2958769902104,801.5788893727658,1008.5126395555232,808.2215168431153
1731142635.6780448,827.8545169222855,804.7211793321225,949.5524632911957,809.4655669460197
1731142635.6819406,807.6153950215937,808.1757786614729,911.5352109623902,810.7117630073648
1731142635.6858363,794.5726356026966,811.4339451084222,930.9429341102516,811.9648161918283
1731142635.6897318,800.8184119947869,813.6056824136547,997.9136211453573,813.2259429553534
1731142635.690812,823.7585776225341,813.9828083933755,1063.4248638129986,814.486515077335
1731142635.6927357,847.9756086854584,812.4540615372065,1077.1367298163595,815.7275974238441
1731142635.6936276,856.9680161685307,809.4468136529819,1024.56925111246,816.9338534486396
1731142635.69391,845.5645004239514,805.6117958125133,936.1231553050188,818.1206576546851
1731142635.6975234,823.6390907289856,801.6493180318582,863.8376135738058,819.352504502888
1731142635.701419,808.4015684443398,798.3505613704821,844.5764773484754,820.7143559639485
1731142635.7053146,811.1021744337683,796.5647597747089,875.9863660119997,822.2149931494445
1731142635.7063878,828.3978796136017,796.8765281852742,921.2489369877002,823.6721842751356
1731142635.7092104,845.334578079211,799.1906967112424,937.8592084564551,824.7209834762169
1731142635.712773,847.8185071645827,802.6498740783973,908.6968739530104,825.091835574715
1731142635.7131062,834.5079659821149,806.0540252522517,853.0767860636755,825.0979691462702
1731142635.7170017,818.102807792615,808.486634206883,811.3771914489237,825.857670351988
1731142635.7208974,814.6290790332622,809.6760935429687,815.9486918532647,828.5588509024095
1731142635.7219632,829.5304670666278,809.8906673801973,868.910282270433,832.8042530557645
1731142635.7247932,852.3498309906493,809.5766864714943,940.9416851580438,835.5893904446466
1731142635.7276485,864.7452473488687,809.1015091208563,991.3390191806923,832.7556652809401
1731142635.7286887,855.4443684865487,808.7519980094993,996.461425722371,822.5094559569114
1731142635.7316363,829.8428175291008,808.8226673972755,966.8057230645718,807.9830014797409
1731142635.7325845,806.1296215442763,809.5457835556592,937.9283153568111,796.0756506530408
1731142635.7364802,800.7324367673095,810.8475740531044,939.2011042060063,792.9873419584683
1731142635.7375386,814.8439555433314,812.1969299021711,965.5523792258645,799.871908252444
1731142635.740376,833.4129230061252,812.8189235503678,979.6148556661071,812.1061905630935
1731142635.7442715,837.9779177741458,812.2334791511223,946.437510072046,822.7432628382861
1731142635.7481673,822.8772396024033,810.7348827466802,870.6037008820522,827.3250229994294
1731142635.7504995,800.8529464285034,809.378410939427,799.6256365910735,826.2532098833728
1731142635.752063,792.6369645387373,809.3619337250459,787.6367840050829,823.141629633715
1731142635.7531142,808.9232343302651,811.1553469807901,851.4435498131311,821.0078367747815
1731142635.7559586,840.1262949363269,813.9884940495934,958.4209413887529,819.8010770340042
1731142635.7598543,863.0372257670749,816.137024897057,1054.6972702266967,817.2714838255336
1731142635.762561,859.1711077067213,815.919919912496,1104.7842405088968,812.0422128558229
1731142635.76375,829.646709994919,812.7934735203702,1108.3511912906808,805.7871268115538
1731142635.7676458,794.3481467809653,807.7962902902482,1087.5484349221265,802.2968945249689
1731142635.7686896,776.2081881732381,803.008047560116,1064.650119935838,804.0986554276443
1731142635.7693627,783.5708658559629,800.3574614791314,1049.7522753888486,809.6548885760348
1731142635.7715414,804.8287684063341,800.5530456918275,1041.956495779701,813.8917551655616
1731142635.775437,819.2277268362361,802.7939906438523,1036.3784826101626,811.9918117102305
1731142635.7793329,814.5138858391499,805.3654772839925,1029.5307396440153,803.4163170121127
1731142635.7832284,796.7243652595001,806.6666360172298,1020.7243125573822,792.7088814357533
1731142635.7842653,784.2197689815309,806.0343529122692,1010.9099460712229,786.2833736099616
1731142635.7871242,791.3263060250681,803.9494556010061,1001.151298537239,787.7790802601243
1731142635.788226,815.5294089733752,801.6033441452992,991.8967787293462,795.6563634699371
1731142635.79102,838.9126232829333,800.1200315502106,983.0505373142089,804.6939215785171
1731142635.7949157,842.5093846720916,799.8752255517132,974.3428926580436,809.9223900588985
1731142635.7974737,821.6937790173985,800.3038040760177,965.5981011782454,809.9323382077894
1731142635.7988112,790.1714695708037,800.3215932806227,956.7907168979177,807.3538722548092
1731142635.7998407,769.5126422077446,799.0980617686039,947.9758669486947,806.5080414433786
1731142635.802707,772.6552243314406,796.6551313534151,939.208900132275,810.0592299398613
1731142635.8066027,794.3890315475186,793.8647463868267,930.510692573551,816.9738313844667
1731142635.8070889,816.1851125532254,791.846833928268,921.8742948699637,823.1912571046425
1731142635.8104982,821.3764607649616,791.2249170154176,913.2852268111548,824.6608191349637
1731142635.814394,808.4552111801664,791.8174217129292,904.7349264229255,820.664647919653
1731142635.815416,791.7109012620938,792.9930384832917,896.2227225966899,814.7934609168092
1731142635.8182898,788.7159768659737,794.3435061920087,887.7514699243491,812.3836885862016
1731142635.8221853,805.0733708978513,796.024792638037,879.3231680121048,816.0465899596021
1731142635.825952,829.2041506923608,798.4160224254368,870.9376772241462,822.9129348967153
1731142635.826081,841.5723406461047,801.4192896857872,862.5942972062991,826.2793517489579
1731142635.8299768,830.681799858018,804.1258514779214,854.2941045912316,820.7785296179047
1731142635.8309915,802.6586986274109,805.2734502855959,846.0404240886501,806.9730051665175
1731142635.8323865,776.6725311861895,804.1758770704595,837.8356335893715,791.42579356982
1731142635.8338726,770.0068253983665,801.3297800338574,829.675281775021,781.9406971915237
1731142635.837768,784.7843626475715,798.151765257779,821.544883105282,781.7248798881334
1731142635.8416638,806.8698707068185,796.0465982546079,813.4273915246456,787.2103620379801
1731142635.8448153,817.7178718899806,795.5772643494813,805.3243230500862,791.304933436475
1731142635.8455596,809.5916874598659,796.3892972879233,797.2777510250411,789.3671322588032
1731142635.8465672,791.7991823465442,797.8495410221936,789.3623581873051,782.9297636457889
1731142635.849455,782.7743611969175,799.73107532417,781.619455744397,778.0830558469265
1731142635.8533509,794.4450354976705,802.2856087907579,773.9519654639814,779.9723379364578
1731142635.8572466,821.853889966787,805.6680283879812,766.0812649348856,788.205760166599
1731142635.8611424,846.7326000044104,809.3229785921784,757.71069072834,797.142185088823
1731142635.8621428,852.068129365082,812.0092646860522,748.9321681217398,800.7313918624665
1731142635.8636782,835.6033554461418,812.5630687517535,740.6074537475114,797.6611468726428
1731142635.865038,811.3508149520144,810.8060515892729,734.136393679448,792.4627957069843
1731142635.8672988,798.2206394735816,807.8181148452423,730.1368244681161,791.8140983010092
1731142635.8689337,805.1717733302161,805.29863285655,726.5141228159746,799.2690059637328
1731142635.8728294,824.7361190365968,804.5034901130783,717.9254216806198,812.7382014625309
1731142635.876725,839.8204566768756,805.5891604733816,699.2932286693073,826.5702658328152
1731142635.8777182,838.0018955583188,807.8053108513608,673.7117569295818,836.208867600544
1731142635.8806207,821.5226308591598,810.2232604868334,659.3238195327922,841.3206598647337
1731142635.8825414,804.7665681063922,812.2816714521558,684.5568842585844,844.760989917824
1731142635.8845165,801.4471408405108,813.7266252465013,765.5121689356603,848.5671862637947
1731142635.888412,812.4563156500196,814.1880850398127,878.3951788844955,850.9686793998536
1731142635.8923078,824.8508822466019,813.0145975770566,957.677942367286,847.5391519526514
1731142635.893294,823.0011434550304,809.7263515529029,937.2555264582364,835.7449591881706
1731142635.8962035,802.5080612839528,804.7768410221016,808.5712082379948,818.7931494918512
1731142635.9000993,775.0482832892566,799.8557056602011,643.0571484875421,804.975312444446
1731142635.9014046,759.8597963489834,797.2062893692694,550.8284779627647,802.424947364519
1731142635.9022117,768.6299576681312,798.2543275021786,601.9592728842047,813.1123589833609
1731142635.9039948,795.9612088543648,802.5488861008723,771.2804861034988,830.7520977640912
1731142635.9078906,823.2034732989886,807.9199425160232,953.115656592479,844.4981797425692
1731142635.9088693,832.8537054121964,811.8503312658411,1038.7138685455575,846.0297998732746
1731142635.9117863,822.1415157067747,813.0735896865177,996.9247028021693,835.0145932648097
1731142635.9156818,804.6930534484202,812.1959511292515,892.074519110454,818.9451724937704
1731142635.9195776,798.6134760515166,810.9181910130726,823.6550479869175,807.4353011650402
1731142635.9202678,810.7096481366152,810.5582143545946,840.6071206330893,805.2802218416634
1731142635.9234734,830.2338463840799,811.0877795183738,906.0701683078528,809.556686521143
1731142635.924445,837.7901465864095,811.3806237154408,941.6785777790398,812.8120312146374
1731142635.927369,822.1684358286664,810.32654010675,906.7146496679695,809.5426821522992
1731142635.9312646,790.9339647275419,807.8251759428008,837.0731694444358,800.6943437077053
1731142635.9351604,765.660413402375,804.9163298527724,809.4823833804668,792.7596583417454
1731142635.9371245,765.4149022794181,803.0785938162672,866.711369248398,792.4688884969803
1731142635.9390562,791.7057784308431,803.2973559231747,973.55347173174,801.3738306819213
1731142635.9391308,826.8239048424654,805.4940256368152,1043.4858076384528,814.4066757874571
1731142635.9400203,846.8504627046863,808.5538943329343,1012.8690409161651,823.3464202074365
1731142635.9429517,839.2816989028679,810.8845780489535,898.7519463200998,822.5927801336318
1731142635.9468474,811.8088831699127,811.2628135679795,789.9829434093541,813.0588422113618
1731142635.9507432,785.6621359092342,809.560777444312,776.7883042841534,801.2630464383741
1731142635.954639,778.9034944430581,806.8659226078237,876.1081561262293,794.1603620014221
1731142635.9555955,792.9035946231668,804.791052604053,1015.2242862509677,793.6932534084991
1731142635.957994,812.5237584601882,804.3811971370304,1088.32332914442,795.6144398047784
1731142635.9585345,819.3140651199875,805.4345928502871,1039.472564080063,793.7534200441668
1731142635.9624302,806.6476494749486,806.7799989501063,904.0602843164356,786.0858902012787
1731142635.966326,784.664563456485,807.264623987591,777.0997867439428,777.1401646017094
1731142635.9702215,771.5838092371198,806.6238841050549,737.7301782474008,774.415468329049
1731142635.9711714,778.8117102151639,805.5514556410881,792.0268693365091,781.830798596629
1731142635.9720368,801.7096816067186,804.9911182466705,876.2726504555461,795.8670086354502
1731142635.9741173,823.0538278431717,805.2896154136087,912.0105260755184,807.7364228013465
1731142635.9768572,826.3822160630067,805.9018008063158,866.0854950126549,809.8657532453767
1731142635.978013,808.9214881615541,805.85930764365,770.1833660786486,801.5261905385307
1731142635.9819086,783.9408377754145,804.6107385106652,688.8344546241152,789.2061386564955
1731142635.9858043,770.3622188468746,802.5550682749391,664.7140359958105,781.4894395997326
1731142635.9867468,777.7099463655758,800.8242727599817,686.4646648052026,782.4883540937301
1731142635.9897,798.76967787689,800.4644095163944,704.6624932590809,788.9802691610074
1731142635.9935958,816.2462650601212,801.6575398412722,680.3429130402714,793.4398606852849
1731142635.99572,817.7433545199012,803.5981474156632,622.1635176032175,790.4761067615915
1731142635.9974914,806.0254328250958,805.0994692976102,579.0096668864803,781.5115776046765
1731142636.0013871,795.6542841356469,805.4323821521685,595.6660054924043,773.9732732617357
1731142636.0023224,799.152636982483,804.7740235602379,672.0086940036596,775.594016438498
1731142636.0052829,815.0316542278888,803.9964549298895,761.0956700997037,788.2268645728875
1731142636.0069494,828.3010197288539,803.9961038622567,805.9923229072908,805.9522224824404
1731142636.0091784,823.2067229440199,805.0237940764017,783.6055175680609,818.9878155584902
1731142636.0130742,797.3802834402893,806.4500153636233,721.6443866867808,820.5093469270369
1731142636.014583,765.1943147557758,807.1471174223053,677.8618770737378,811.2880409098381
1731142636.01697,746.9981567716687,806.2742557116123,697.2719985437669,798.7343735604683
1731142636.0178978,752.7639769013928,803.9180025235951,776.629327710356,791.240112220021
1731142636.0208657,773.7165565506331,801.0741796492588,861.6493897356954,792.2969868190619
1731142636.0247612,789.296020853993,798.9412972652452,882.9558469644646,798.8903129556799
1731142636.028657,784.1040807980663,798.0731682303602,809.2599220868252,805.0842284704463
1731142636.0325527,760.8872633842349,798.0685061642869,678.5574374721629,807.4557533591209
1731142636.0334466,738.6621495273622,798.0049522189648,578.6319122604832,807.6432922083799
1731142636.0334733,737.4006105514459,797.193427318694,585.157841499765,809.9221171401157
1731142636.0364482,761.7756183183855,795.6280247250222,701.6740692603322,816.1375510945098
1731142636.040344,797.0807955814171,793.8747222742489,849.5814294368938,822.7188555534883
1731142636.041862,820.4747566789432,792.6606787816295,921.4529797006137,822.7768688415506
1731142636.0442398,818.5567363749032,792.5879421418113,861.6223832226797,811.8557255435487
1731142636.0481353,797.483934935885,794.1072633292241,712.1502639407405,792.5230711780362
1731142636.049049,777.8235671351439,797.5172536565753,583.9445326711483,773.6480450338958
1731142636.052031,778.2836852584453,802.7304653875906,570.8053163272995,764.5393999915487
1731142636.0523098,801.1272428970459,808.9145688454345,673.9933985254021,768.4629181075592
1731142636.0559268,830.7031690891799,814.4628987940829,801.5965618285297,780.6534057498832
1731142636.0598226,846.1171879369696,817.6139414555408,846.7172891138244,792.2568962777949
1731142636.063718,837.7883531391011,817.4399752748834,779.6173811963439,796.8839549038508
1731142636.0646243,814.6008228637986,814.443647312059,673.5787581464393,794.6302449037768
1731142636.0676138,796.1529347539246,810.2200527591083,640.3628063484997,790.8063513505623
1731142636.0711727,796.808064295283,806.4420412411903,730.8851302374345,790.9085126845779
1731142636.0715096,814.6761054040663,804.0111471463499,887.9945232797454,796.0107686825584
1731142636.0754051,834.1321779013088,802.9710741282737,992.5421611898694,802.0195880717267
1731142636.0767748,839.1782782506169,802.9920754269671,962.7497364127005,803.1195167980858
1731142636.0793009,826.3977799789227,803.7653006591837,821.8864364501059,796.6856218018326
1731142636.0802,807.1338775623585,804.944406482311,677.6679605547097,785.9347980918399
1731142636.0831966,797.6037076779799,805.9108743643702,632.0446293239925,778.1825217183905
1731142636.0870924,805.3832508033304,805.8731596983797,698.1569775904169,779.7530858579296
1731142636.090036,823.3967696415745,804.4109749256339,794.5647651972935,791.2437724522703
1731142636.090988,836.2523155452528,802.0147077003994,821.292376207396,806.8844672478514
1731142636.0948837,833.576033388811,800.0495879658876,751.9493840968743,818.7322000199035
1731142636.0957754,819.1396544386303,800.0229239961791,660.8805008205795,822.48330924936
1731142636.0987794,807.9511969594644,802.6348333609589,659.4868055864962,820.1358625796045
1731142636.102675,813.5051934626038,807.3103806202382,795.7515848557823,817.2764885205562
1731142636.1065707,835.7752676305817,812.5540980606775,1004.7092394899873,817.4395691998665
1731142636.108899,860.1324696450679,816.8401096042344,1153.6482136796258,818.6350021670767
1731142636.1104665,868.4279672758822,819.3788788065422,1144.059263485098,815.2688773110539
1731142636.111351,853.4563354670267,820.2724860497655,986.2087275396183,803.8769746831155
1731142636.1116874,825.1350357164356,820.0900392755188,788.7211996533464,787.568385177507
1731142636.1143622,803.2271710599676,819.2969651384846,675.862147433909,774.9340115819336
1731142636.1182578,802.1238590256604,817.9636598407852,699.1638416819096,773.8105310788259
1731142636.1221535,819.7059127772743,815.8694882892147,809.1409210574542,784.8789988877589
1731142636.1260493,839.3104182772355,812.833141091687,903.494735699779,800.6037429125721
1731142636.1269264,843.3568754479877,809.0305877508545,909.7916548270704,810.7338019980278
1731142636.127762,827.5724804764865,805.1357532713131,836.5645043594884,810.021848808063
1731142636.1299448,804.121892066745,802.193525833576,754.924954209623,801.8628828815392
1731142636.1338406,791.1066113094838,801.2091793651618,730.7531071206231,794.9857137012582
1731142636.1377363,797.2769419798732,802.5951880341731,767.6735253439218,796.1227323109058
1731142636.1416318,814.7777643295586,805.7977863550825,808.9991644086421,804.7567534249001
1731142636.1425018,825.9314716007347,809.4179712476109,793.4842513204486,814.0653993397764
1731142636.1455276,818.2409162814788,811.8486628870004,713.4038612563883,816.9307998730128
1731142636.1466,794.9778752275557,812.080175461221,624.7323022453038,811.8120126972459
1731142636.1466253,772.5278142796013,810.2009723530701,602.78035729659,803.6582807126812
1731142636.1494234,766.7424964835811,807.3300848439642,681.1206188702843,799.3736186782756
1731142636.1533191,779.7082641894799,805.0574489253946,821.9339489106404,801.909382699241
1731142636.1572146,798.0699746772941,804.6897086847687,940.0635593714727,808.0363832101252
1731142636.1580777,804.4570877446376,806.6278717522471,963.6332488505831,811.4898995110001
1731142636.1611104,792.4370524980537,810.1187468320119,887.3516056399059,808.4931174564459
1731142636.1650062,772.2132717000105,813.5045728867715,777.8161696611032,800.7768641385439
1731142636.1654885,762.0256117953807,814.9397281796719,723.7188703682957,793.6575974528705
1731142636.1689017,772.4286412918356,813.3181548751706,766.5754159938335,791.1401544691647
1731142636.1727974,796.7513784756708,808.9399464100142,866.0293806538975,792.4585877048446
1731142636.173653,815.8355580645402,803.4584779745114,929.2171644027621,793.0337052470843
1731142636.1766932,813.2544304872004,799.0310738089652,883.0789701011034,788.9718913206553
1731142636.180589,788.7337621192107,797.1524428872729,733.4402385546045,781.2350945182022
1731142636.1815126,759.1068602309256,797.9284176073849,564.7034423624507,775.8268321984941
1731142636.1843517,745.9978445378888,800.2582776441986,480.2338318955286,779.4979765794108
1731142636.1844845,759.5954935301341,802.7276132148322,528.3569379491212,794.0978515439493
1731142636.1883802,790.8418962894755,804.5002893088493,668.9051296961436,814.0119285284146
1731142636.1892283,818.1118107862745,805.5574414487301,805.0673218083468,829.0494346643055
1731142636.192276,823.4697133133236,806.219572181328,856.9149773796773,831.0522730493894
1731142636.1961715,805.9664246727015,806.5046978059654,820.2537347439176,819.4307659338142
1731142636.2000673,781.4364817643885,805.9626299006169,763.3463058078333,801.3687725669328
1731142636.2032146,768.974447453406,804.1017454853321,762.8216784298664,786.4665818593465
1731142636.203963,775.2503110712271,800.9290389198995,832.5865896650729,779.9779394941573
1731142636.204804,789.6861910831751,797.0718138386459,909.0513492927615,779.8799448924109
1731142636.2078586,794.3915104435397,793.438590074705,908.5773594851933,779.8537540825051
1731142636.2117543,780.3275111255542,790.8133160674068,807.6635997760095,775.4991808942659
1731142636.21565,755.9973942619664,789.7041600734626,672.9717704910726,768.6218465985892
1731142636.2164254,741.2745823707783,790.3740534228274,610.7520080900933,766.084986224179
1731142636.2195458,751.3114814759023,792.791254950795,676.6643615374971,774.0940833638913
1731142636.2203796,783.609183769899,796.4604876913087,823.6427045611346,792.4678032471072
1731142636.2220778,818.8710263522295,800.4053113942767,935.1822786718888,813.5965176762813
1731142636.2234414,835.3447880382103,803.5383269684658,920.0873328291129,827.1905211221962
1731142636.2273371,825.5089495308711,805.2600400608295,791.3526100614299,827.2865505999181
1731142636.231233,801.6934472192534,805.8036249775632,661.0069054872297,816.0682202312058
1731142636.2351284,785.7961452880925,805.9897715846804,650.244089014157,801.6057062901895
1731142636.235955,791.2921366432787,806.5711327551513,787.034910398885,791.5704074133856
1731142636.2390242,812.4210208876617,807.7182041209015,978.4379349282907,788.062532885635
1731142636.240941,829.6044943836333,809.0525901098775,1083.952321804166,787.3632708642821
1731142636.24292,826.4457536179948,810.1153247058991,1029.4293351361564,784.1683798409277
1731142636.2468157,803.9244767418672,810.7704016294451,865.4146523786051,776.4664759646494
1731142636.2507112,779.9755865021184,811.1535851548961,722.1076757182198,767.2191985167015
1731142636.251338,775.0079661335946,811.2695496924264,701.971886840832,761.8650025093082
1731142636.2515304,795.3690657779135,810.7215035346136,801.3994390997514,763.8792866417814
1731142636.254607,828.0216295259485,808.9293103920795,923.172438349571,771.8635103449935
1731142636.2585027,850.4253672061207,805.6779032439599,962.3929515049181,780.3039748960399
1731142636.259804,847.6735380757315,801.4759314706541,890.0552435944309,783.408159375394
1731142636.2623982,823.5049745942524,797.3736358730939,766.7950229725525,779.2280038586612
1731142636.266294,796.7351788145731,794.3990160489835,682.1061707887897,771.0874911280724
1731142636.267106,786.1311741952119,793.0903577646797,676.2952956602271,765.2824153974072
1731142636.2701898,795.9805760687121,793.4373920742041,712.7339187994578,766.738444668531
1731142636.2740855,814.0173478801197,795.1172184289048,720.4920958719439,775.771821322011
1731142636.277981,823.0351460629295,797.6859067456784,665.1016486083222,788.1868546438778
1731142636.2786672,815.9766821507573,800.5644079537798,582.7670484605986,798.4341426179632
1731142636.2818768,801.5411685237934,802.9928572314475,548.8045089565584,803.4109930109012
1731142636.2826817,795.7784564646959,804.2199986527783,610.1261024188818,804.2222491930156
1731142636.2857726,807.2469664055269,803.9287279102621,741.0201175373234,804.8391768265028
1731142636.2862506,828.66702194,802.560778994878,858.5794911632494,808.8374989701076
1731142636.289668,842.3493430769533,801.1724548461726,883.4389484107802,816.7099992932839
1731142636.2935638,835.0310462380612,800.8080083873574,797.1932256515079,825.7234653508468
1731142636.2974596,809.7553762180166,801.8087057812191,654.253695952932,832.2531924824434
1731142636.2975304,784.606222783416,803.5795657026467,542.4075436211388,834.5189443785522
1731142636.298257,778.8060576826763,805.0045944792104,522.807254869355,833.3897566687091
1731142636.3013551,797.2910585713154,805.2211588981389,591.7177817084723,830.7712945037423
1731142636.305251,826.5446036976921,804.2221163454735,688.4135883616217,827.4142426448045
1731142636.3091466,845.4391115873893,802.8947902629424,740.80373636071,822.5374963127902
1731142636.3130424,842.3486884926681,802.484212331991,715.3507115635346,815.7859516655943
1731142636.3138323,824.4120057345424,803.8329203552306,636.927445866361,809.4677672494639
1731142636.3163934,811.301770109912,806.8871940803351,566.8472124377345,808.301348936402
1731142636.316938,818.7085732493641,810.7686342342778,556.5840888209794,815.9967747716709
1731142636.3208337,845.0856713371126,814.3004850373583,610.4747833484812,831.2156616281658
1731142636.3211632,872.3396455875932,816.5726105342354,683.715780223325,846.8088289033118
1731142636.3247294,879.8657063042162,817.1995162948041,717.7075635221863,854.0308668364783
1731142636.328625,860.8072894134609,816.2748674520599,687.8379220422369,849.0750734884706
1731142636.3294082,827.7352596597684,814.2523699116276,626.4242334845676,836.5340309684652
1731142636.3325207,803.2082991891048,811.8554784871509,598.2725050322719,826.2389811952223
1731142636.3352566,802.5219883990798,809.8807147318846,643.7480850320069,825.413964849659
1731142636.3364165,822.2141676020295,808.8090149956183,736.8303160092861,832.538700391521
1731142636.3403122,843.4657295505574,808.4606566196494,800.1758826938051,838.4110773252951
1731142636.3442078,847.641456292159,808.0683124510025,771.6477709600454,833.9202066132657
1731142636.3449836,831.3673013802035,806.81722534489,666.2996878768005,818.0928591458692
1731142636.3481035,808.9552598203043,804.4296314240122,574.6807803313619,799.4936322088595
1731142636.3519993,800.4184892243065,801.3062289075034,591.6933642798532,789.6740677759545
1731142636.3541198,815.0229560804421,798.171990194537,733.6358300405836,794.1423272912638
1731142636.3558948,843.6697673340304,795.6220574524667,915.6561692087113,808.2896370176769
1731142636.356076,866.0523987186457,793.9593016103378,1012.9662455654181,821.3359813120067
1731142636.3597906,866.7464155239466,793.3298468298204,958.7401561037032,824.6976288018406
1731142636.360559,847.3793065551505,793.8533122728813,799.1445665249311,817.8939724227442
1731142636.3636863,825.0464533375318,795.5131976552547,658.7976954115518,807.5867683656053
1731142636.3675818,818.0271274920319,797.8951339215118,642.6970902917352,801.1647317303225
1731142636.3714776,830.3659487824266,800.0901669916544,754.4049229088723,800.6014211097146
1731142636.372983,848.331691133518,801.0057437093764,898.4791984181181,801.7174823621901
1731142636.3753734,852.1828168975543,800.0114345839003,964.4017482960543,799.0995936529168
1731142636.3761346,833.5879251663646,797.5171534534322,918.998036493422,791.9622193880721
1731142636.3792691,803.8144810685716,794.9863213185513,827.58979841073,785.5180639006326
1731142636.3831646,785.423728451475,794.1857200758192,789.2437758897079,786.5972973753352
1731142636.3870604,794.2905592107845,796.0660804383186,849.8819493918395,797.5210285411441
1731142636.3909562,826.9113509503153,800.085669798934,973.2566043664962,813.7377926269752
1731142636.3909886,863.116849699391,804.5431182202831,1086.5894508273113,827.1918065419511
1731142636.39171,881.2009626837984,807.6788032640832,1144.1133252094796,832.3095986574194
1731142636.391846,872.8035961862331,808.6831023569483,1148.9118777448257,829.5577350258587
1731142636.3948517,846.3672755181333,807.914517487286,1130.5372326625143,824.0655542447176
1731142636.3987474,818.2814255444455,806.3565263307281,1114.659385229881,821.0491758966319
1731142636.4026432,800.6082049192722,804.8938230743048,1110.2825713437483,822.026143371499
1731142636.406539,795.2805968257754,803.9498096662236,1113.9604382178516,824.6318072172107
1731142636.4072857,797.0437411192524,803.5982934037139,1119.158680423652,825.5594508437379
1731142636.4104345,799.7988244802424,803.8745832459879,1122.1344274945438,823.5519242157222
1731142636.4107091,800.4938353138888,804.9182153515126,1122.6949825061886,819.8341033270169
1731142636.4143302,799.1670149087035,806.7922546583169,1122.2978052264775,816.3369914967027
1731142636.418226,797.1199264632273,809.1729511572125,1122.2001903057276,814.0305764487498
1731142636.4221215,795.370554713104,811.2916089212645,1122.7881688769496,812.7106170459484
1731142636.422861,794.1746118945819,812.3158119677627,1123.8321526672823,811.7172686825814
1731142636.4259012,793.2990056638326,811.9142459992127,1124.9813618479861,810.581695102426
1731142636.4260173,792.4457556621088,810.505031876009,1126.0520120958047,809.2018949621092
1731142636.4295723,791.4750572171862,808.9410341110281,1127.0468030829688,807.6946715278324
1731142636.429913,790.402427472806,807.9118275413574,1128.0467400481618,806.197111256114
1731142636.4338088,789.3004620872275,807.5826453001837,1129.1156751024891,804.769172657915
1731142636.4377043,788.2209548304937,807.6947944732968,1130.2699663526612,803.4002005515996
1731142636.4384367,787.1744247057795,807.9020230104798,1131.4950952485626,802.0559096382149
1731142636.4416,786.1471080379622,808.0092507395016,1132.7720949683844,800.7133636520997
1731142636.4454958,785.1234359972547,807.9993121555822,1134.0916763563307,799.3689248790998
1731142636.4484353,784.0968250197084,807.939326392229,1135.4542041611091,798.0296140980447
1731142636.4493914,783.0687015952341,807.8897530340676,1136.8635542119505,796.7027370424322
1731142636.4532871,782.0430792686476,807.8701015700326,1138.3221639092692,795.3912470021176
1731142636.4540122,781.0226123848075,807.8699868468852,1139.8297817542484,794.094470385809
1731142636.457183,780.0077503817982,807.8726274352113,1141.3847979610164,792.810684004979
1731142636.4608138,778.9977532566091,807.8689641855996,1142.9860287823656,791.5388778856286
1731142636.4610784,777.9918725317752,807.8589105861182,1144.6334222879057,790.2790665173227
1731142636.4649742,776.9898654073359,807.8462859822157,1146.3271540900776,789.0317816522336
1731142636.4672985,775.9919009580377,807.8341978600001,1148.065644486092,787.7975301427971
1731142636.46887,774.9982636195667,807.8235019347069,1149.844210753448,786.5765754473928
1731142636.4695876,774.0091550303857,807.813547172516,1151.6567865138759,785.368994830141
1731142636.4727657,773.0246624162213,807.8034373627753,1153.5018677718313,784.1748195371947
1731142636.4766612,772.0448186838671,807.792726427011,1155.3894788580928,782.9941233039675
1731142636.480557,771.0696640468958,807.7814358775267,1157.3404250721012,781.8270332830851
1731142636.4844527,770.0992683177654,807.7697700097676,1159.3687928697134,780.6737000438004
1731142636.4851632,769.1337203715324,807.7578791301512,1161.4509836601158,779.534267427084
1731142636.4861617,768.1731098038433,807.745791372739,1163.5084441747297,778.4088604537637
1731142636.4883482,767.2175207978377,807.7334595812581,1165.4473473265482,777.2975901666719
1731142636.492244,766.2670433847812,807.7208283560594,1167.2730663439388,776.2005673792846
1731142636.4957266,765.321791141653,807.7078678812097,1169.2122391131638,775.1179165510989
1731142636.4961398,764.38190245022,807.6945723490815,1171.675043496014,774.0497793139995
1731142636.5000355,763.4475046496711,807.6809441654162,1174.9005387837403,772.9962966564269
1731142636.5007386,762.5186487525945,807.6669819108691,1178.3801357585041,771.9575695123723
1731142636.503931,761.5952730902335,807.6526774120533,1180.6027156482228,770.9336246797035
1731142636.505025,760.6772870074336,807.6380185143437,1179.9177955659156,769.9244402834298
1731142636.5078268,759.7648109474349,807.6229925596788,1176.7426268988847,768.9300714741831
1731142636.5117226,758.8584303280484,807.6075880778795,1175.679976860754,767.9508265015326
1731142636.515618,757.9591120397558,807.5917948474321,1184.3261870094314,766.9873043974106
1731142636.5163145,757.0674574218702,807.5756033941908,1206.040019694763,766.0400561389024
1731142636.5195138,756.1824975423282,807.5590044491936,1228.9522301494244,765.1088622967687
1731142636.5234096,755.3011748436794,807.5419881144529,1221.5267569929229,764.1921682064501
1731142636.523888,754.4201749384779,807.5245425470589,1147.7282849265798,763.2877063785744
1731142636.5273051,753.5405629393786,807.5066530517596,1001.1997234079238,762.3949759926437
1731142636.5306392,752.6722045412598,807.4883035807579,831.2142746116324,761.518438312157
1731142636.531201,751.8312591777324,807.469481940601,724.1245703923659,760.6677323602225
1731142636.5318897,751.0251991451065,807.4501862378145,739.5599148729186,759.8506444151462
1731142636.5350966,750.2305851470448,807.4304248729342,853.1785089660269,759.0594391085741
1731142636.5389924,749.3862978036816,807.4102014965439,964.0672499781645,758.2616166593227
1731142636.5427513,748.4325705941601,807.3894868162131,968.3028025415772,757.4144050335273
1731142636.542888,747.3998503241997,807.3682007995191,837.2036137501066,756.5134094636898
1731142636.5467837,746.484441315401,807.346244966465,633.485347194556,755.6500229360165
1731142636.547465,745.9835438603177,807.3236043116732,455.02816798461384,755.0058064387233
1731142636.5506794,745.9979291967412,807.300463091939,359.19494827088346,754.7085335964124
1731142636.554575,746.027237255406,807.2771845784847,332.5333892314736,754.5760818732925
1731142636.5584707,744.9068630438373,807.2540037760456,324.31318232186123,753.9729980560669
1731142636.5616145,741.6408229497738,807.2304990673437,304.5211199430929,752.1417123768668
1731142636.5623665,737.1376873149289,807.2053176175554,290.5495370910576,749.1688560420944
1731142636.5630407,735.614060372088,807.1768903779645,321.9251520961083,747.0622814775304
1731142636.5655518,743.4613798799035,807.1454100937761,412.05522272416187,749.6363944785127
1731142636.5662622,764.5515317489666,807.1148724513473,524.6664353222216,760.1498056152842
1731142636.5701578,794.8962160448647,807.0922972670645,597.1207941979766,777.7854226048939
1731142636.5740535,822.6148200660184,807.0815221039835,589.5027230425762,796.4893674564319
1731142636.5779493,835.8490103359517,807.0733936587876,516.4516560489617,808.6964794937808
1731142636.578616,832.8923272256684,807.0418463912213,435.39877702842153,811.6468951126302
1731142636.5804772,824.7192677464409,806.9594068459488,402.56115095443226,810.489197109734
1731142636.5818448,826.2129956607371,806.8354411338615,432.9736753302191,814.650471686825
1731142636.5857406,843.1159401423367,806.7519830776994,494.17521387968014,830.0871936139558
1731142636.5896363,866.3324620785686,806.8426750341541,534.6774760397318,854.0181911473491
1731142636.593532,879.1051736207938,807.1725082655021,523.0126170294075,876.7405369811245
1731142636.5941918,871.3039830693588,807.5693929390984,468.6634578218654,888.9643680398278
1731142636.5974276,848.7477947972319,807.5883365165325,412.09017906232043,888.4623149628517
1731142636.5993404,829.5767266589248,806.7669936772772,393.5438363164771,880.8102745907461
1731142636.6004643,830.4109734983939,805.0406368408801,423.91529269722736,874.3035538743862
1731142636.6013234,853.2929228097628,802.9041495342093,477.98275956066277,873.7526476072609
1731142636.6052191,883.7847395119617,801.0617178150712,514.300347299177,878.0522779658378
1731142636.6091146,901.8865102109098,799.8259209651827,507.17896047009833,882.7068917008392
1731142636.6097672,897.3788223459669,798.8615767127608,466.856854566463,884.433901917091
1731142636.6130104,877.4956344923708,797.6037405954763,431.44677470177754,883.7660649493666
1731142636.6169062,860.6904227265023,796.0009310158973,435.39339256565387,883.7710612336235
1731142636.6182036,861.4327215018413,794.814493305136,479.15092042351796,886.4618643860128
1731142636.6208017,878.4564590662953,795.0578076668966,526.3090816613121,890.3077257054688
1731142636.6246974,896.1931884334111,797.0168088306401,533.1167308711849,891.1465881360436
1731142636.6253428,898.187562399986,799.7785127887234,487.17668539434226,885.8376820864926
1731142636.6285932,881.2180846377323,801.7600683538993,421.8599739313697,875.6062573074418
1731142636.632489,858.2414527269606,801.8014658284299,391.91097913821756,866.0873950230031
1731142636.6353772,847.7342412045905,799.9004614673051,428.8507856224962,863.5965487824859
1731142636.6363845,858.4558856982907,797.0635320765657,513.1700934754363,870.2959852776399
1731142636.6370668,882.373796664649,794.5493395196344,587.4507299347662,882.1815290051893
1731142636.6402802,901.4919315410716,793.196709180838,601.2581310606381,891.8873270060751
1731142636.6409185,902.6876427549371,793.2544210165017,552.4874865483678,894.3971997677045
1731142636.644176,888.1129677877626,794.5559067289205,491.6309845015558,890.9929009988234
1731142636.6480715,872.5800059198323,796.6259080579389,483.76830159369837,887.8215125754921
1731142636.6519673,870.3514149955466,798.5990785699527,556.494280513029,889.9459396500813
1731142636.655863,882.6725126613227,799.2866957620807,674.617583581389,895.9548750478181
1731142636.6559298,896.6434522948375,797.7329890527967,763.2183794452055,898.1472294657248
1731142636.6564937,896.3025507573747,794.0302364069998,763.0962681243145,888.622477877289
1731142636.6597588,876.4911255466839,789.6366146873575,676.064841797236,866.3570457769662
1731142636.6636543,847.9096338388092,786.6862762853043,564.1508361532092,839.2792426009943
1731142636.66755,829.2537274839932,786.6959670235663,502.8087576612867,819.4226526543264
1731142636.6702898,832.8724199008743,789.7090036300768,525.325420398759,814.8311416813298
1731142636.6714458,855.3574291131102,794.5355053422362,602.6723240872456,824.3119301733714
1731142636.6720693,880.2542415216492,799.7231680718771,673.3504960893388,838.7113255060374
1731142636.674793,890.5173654973233,804.321047720226,696.1396397529571,847.4515429995959
1731142636.6753414,880.9625904286762,807.9250005104992,680.6738848141609,845.4799503627291
1731142636.6792371,861.1744730066719,810.3206792156485,671.4445537953734,835.8680050517758
1731142636.683133,846.8282281321227,811.3174448565318,701.901382858904,826.6542470282355
1731142636.6870284,846.5812278817684,810.9205038244954,761.2267849361017,824.672022043191
1731142636.6876447,855.3248815542551,809.4987995373542,804.4869725250885,831.0387212800861
1731142636.6909242,859.3364523599233,807.656133662632,797.2681551997324,841.2744201904837
1731142636.6936562,848.814218334257,805.917184437217,753.5474404386474,849.183388069218
1731142636.69482,826.9964404515549,804.534563305583,730.0104388457422,850.9929287235487
1731142636.6987157,808.019955436418,803.5338545746442,778.5086484646695,846.8057691892355
1731142636.7026112,805.2574298157806,802.8614141837201,896.9442352883669,839.1237456894953
1731142636.7032204,819.8762039589008,802.4754536811639,1022.5114085711938,830.3942786695276
1731142636.7052023,839.1889232000394,802.3599637373676,1075.8645910498776,821.6694764515379
1731142636.706507,846.3513535452446,802.52730815176,1021.4336766583447,813.0437415840086
1731142636.7104027,833.7026401810874,803.03683949551,895.3162957009158,804.9847178608156
1731142636.7125192,808.947710063089,803.9814752347582,778.7204592668859,799.0578933741614
1731142636.7142982,788.982434845893,805.3877085877461,738.4941658542552,797.1510098242322
1731142636.718194,786.1803907480131,807.066460284693,781.2597657279434,799.7052112874566
1731142636.7187958,798.375241565179,808.5608490562577,855.2438184669688,804.6122595780921
1731142636.7220898,811.0339776075183,809.3145501060736,895.4271932818659,808.1983725142304
1731142636.7259855,810.0342412060311,808.9880011950979,874.378506092843,807.9432381411129
1731142636.729881,794.3158792498215,807.6651064242504,819.0584934024263,804.7154873692263
1731142636.7313824,777.4305371469924,805.7620103661819,783.225175488693,802.2677207831911
1731142636.7337768,776.2010503259866,803.7417167318355,800.8151043926016,803.9272748344106
1731142636.7343714,795.6845509302635,801.9272800343286,858.8260851572763,809.0386760657244
1731142636.7376726,823.1336641232544,800.5564708899623,909.8155838433917,812.353287688537
1731142636.7401147,836.6354023472596,799.9071931359923,911.287560444431,807.4602481354736
1731142636.741568,822.1537476294328,800.2407701777955,859.1168289082669,792.0622497778464
1731142636.7454638,785.4309411334572,801.5790021506951,789.3208239805612,771.0103329300864
1731142636.7493596,748.7576724142252,803.6112486820854,748.9113914433769,754.2053700798955
1731142636.7499468,734.6134734050338,805.9236358504442,760.1914268914671,750.2021059678275
1731142636.7502456,749.0134606308648,808.3328259042985,805.9255974101701,759.9507857782403
1731142636.7532554,777.8813296767908,810.9118625202494,845.0448320273573,775.5868928765957
1731142636.757151,799.1703527681548,813.6311769768828,845.395656463649,785.6800561556607
1731142636.7610466,800.5552585468062,816.0443330275199,808.7749483933668,783.3041602086817
1731142636.7649424,788.1761094963814,817.4725639684008,770.3020950449018,770.8036978873841
1731142636.7655222,779.6885591616752,817.5775272401912,772.4652516486991,757.5539964218223
1731142636.768838,788.0173232704153,816.7084453424283,831.6562566513854,752.5594860477859
1731142636.7691083,809.6421097841553,815.6028163973318,921.2808419103126,757.784399607433
1731142636.7727337,827.0900065310324,814.7207491179931,986.1182008525032,767.3189368536634
1731142636.7750278,823.4488133485481,813.9003985974407,981.2884362051295,772.6874984907454
1731142636.7766294,796.9267684001634,812.6812716937027,908.7928669847641,769.8145031887082
1731142636.780525,763.4220929447943,810.9457019213396,821.615725225875,762.0866165613704
1731142636.781098,744.687524435442,809.2183932875462,786.9686308712603,757.2600219516638
1731142636.7844207,751.4354577938145,808.320875382814,833.4923882117985,760.9702202208732
1731142636.7879715,775.138054399251,808.6984104835454,924.9100344729418,772.2658226407727
1731142636.7883165,795.3699755376529,810.013213600722,985.8443658922147,784.6780871466297
1731142636.7922122,796.6604334954563,811.3216579992189,963.5254112416756,791.499021884924
1731142636.7961078,780.7672923980723,811.6538071213414,875.7885116019771,790.4809598144549
1731142636.7966733,764.1712547497367,810.5580930612462,802.2205867965117,784.1569586524502
1731142636.8000035,763.2279923730896,808.3009222297126,820.8078152321377,776.2709267665441
1731142636.8038993,779.8158231477038,805.6942220367966,940.5145949152479,768.1919304204526
1731142636.8068347,799.5575502735238,803.7110546840967,1087.9112627553172,758.6311791206871
1731142636.8077948,803.8733074397352,803.0915387745324,1162.8980119292673,746.4644187949098
1731142636.8099403,785.753968939299,804.0977184109163,1119.4656240135014,733.5757670537441
1731142636.8116906,756.3724927846379,806.4759289739986,1003.6742358091099,724.849388756124
1731142636.8122487,737.0826643792951,809.5704704115411,915.3479820384134,725.1176789503104
1731142636.8155863,742.8932583557918,812.4988509782619,924.7539649912462,735.5039792418798
1731142636.819482,770.3938863725602,814.3704325031999,1014.9719776168577,752.1304675686563
1731142636.8233776,799.9770252252534,814.5759177467615,1099.1678398648921,768.3563212144029
1731142636.825698,811.0090729436254,813.0791762608591,1097.02772315784,778.975988104065
1731142636.8272734,797.9474686194654,810.5085406157797,1003.1749225879527,783.2072100022207
1731142636.8278244,774.2594952860168,807.8905361665327,888.3390779741019,784.1922111790401
1731142636.8311691,760.9008327217109,806.1267083158558,834.1188989106128,785.5910340985313
1731142636.8350646,768.9887772806458,805.5484393292555,860.4882668554299,788.3059620806876
1731142636.8389604,791.0903050278778,805.8507553473314,910.2497249203008,790.1579458328471
1731142636.8428562,808.072967842715,806.4166145864175,903.1759364626548,788.5557533395737
1731142636.8434,805.3484681974824,806.7513386169503,811.1026249556933,783.4962892778505
1731142636.844561,784.8764015698478,806.7079902380128,687.484309300879,778.1229350182359
1731142636.8448527,763.3197133604156,806.4146896315111,624.9636666942871,776.3857866514919
1731142636.8467517,758.1990287207817,806.0652793965153,676.7752152021244,779.7529624049334
1731142636.8506474,773.3560054022431,805.7724086666445,809.2375459740539,785.5142423806552
1731142636.8545432,795.4787346941928,805.5472395119849,926.7121090399783,787.9948172574861
1731142636.858439,804.7524168724526,805.3515758036798,948.8358466562993,782.0854081979621
1731142636.8589754,791.3481668186515,805.1502775985382,875.1320603192517,766.9604679017012
1731142636.8623345,764.2838546570244,804.9316099048964,783.1500849398291,747.446830296305
1731142636.8634243,744.8797357457704,804.701276959347,763.0740036179276,731.6777666163558
1731142636.8662302,749.59925762961,804.4689328565165,844.2677377323872,726.0929104775104
1731142636.870126,776.1971861379984,804.2399062263283,973.3691972663181,731.0400489975232
1731142636.8740215,804.7759714386673,804.0143429892686,1058.9472337289274,740.3524891908882
1731142636.8745508,813.2188520394022,803.7900752495261,1044.0432913209697,745.7275130134321
1731142636.8779173,794.6993302794638,803.565299872396,948.445472092821,743.0884689504098
1731142636.8797655,763.3524023687811,803.3395018561257,849.723784408037,736.1750571816705
1731142636.881813,743.7356357455666,803.1130464454557,821.1964299984674,734.2133181222072
1731142636.8822875,752.3521095457795,802.8864539312037,876.9529614467344,744.8743159651207
1731142636.8857088,785.3860166349524,802.6599910978224,965.8610646299373,767.6827554835255
1731142636.8896043,821.851378067317,802.4336538534794,1016.6630563285062,793.2792916600166
1731142636.8901265,839.590607286625,802.2073287172085,996.5052465581516,809.7287529443436
1731142636.8935,831.7541914355447,801.9809304958085,936.1432478129632,811.3327779877864
1731142636.8973958,810.9818315872341,801.7544444279241,902.8726767472172,802.8965225787562
1731142636.9011505,798.1526185092907,801.5279017989421,943.9782490454917,795.7156329772499
1731142636.9012914,804.9911224878151,801.3013421340271,1045.930961953127,798.3673214191886
1731142636.9051871,824.862725155938,801.074791117348,1141.294482367928,809.9249371078309
1731142636.905702,839.2139928801271,800.848255232042,1158.302206407992,821.2782576692268
1731142636.909083,833.9004620829788,800.6217247062856,1075.8727940726935,823.3109565115648
1731142636.9129786,811.4219276604664,800.3951829380544,942.5864930812677,814.83409240195
1731142636.9146783,788.88498074902,800.1686268999379,844.380278492583,803.5509734861408
1731142636.9168742,783.7712655997224,799.9420948424813,843.5373069069251,799.4592279908924
1731142636.9200137,799.6274532775471,799.7156757648029,933.5160662080591,806.4874511595019
1731142636.92077,823.4277052497431,799.4894618633538,1043.6071750950573,819.4045472402402
1731142636.9212775,836.4777715318335,799.263434592776,1091.0224773564564,828.3853557719291
1731142636.9246657,829.6931978565688,799.0373599673312,1042.0487948830914,827.1957145747408
1731142636.9285612,810.6776176596032,798.8108572203267,935.8625438150345,818.0959213120393
1731142636.932457,796.8558087889135,798.5837715308252,852.4627334852801,809.5006366290471
1731142636.9363527,800.4617741748201,798.356712928652,849.732548660081,808.6104728167296
1731142636.9368527,817.9397794869672,798.1311986440501,919.2026111670679,815.3740409827885
1731142636.9388769,832.6033315366327,797.9086658551004,995.147678811285,822.7804065901914
1731142636.9402485,828.3901993352471,797.6882913993501,1009.0740719836158,822.991774222549
1731142636.944144,803.5041248228844,797.4652052999975,945.5776977018564,814.0319579766709
1731142636.9480398,772.9132671665046,797.2322177717149,854.388416508394,801.5416043211302
1731142636.9495907,757.5936135403748,796.9872108682018,808.4617629920554,794.3234409167604
1731142636.9519355,768.8107651596073,796.7429668223427,842.325518800205,797.3856146710074
1731142636.9524286,799.5829693164593,796.5283869304765,922.4779072248317,808.0277846887582
1731142636.9558313,829.9365281829005,796.3679357210634,975.8739813138941,817.9820450962847
1731142636.95774,841.9089643355875,796.2403916184353,952.9963100369112,819.853205184436
1731142636.9597268,832.5805813601881,796.0496765854757,870.8884058175287,812.7800457370137
1731142636.9636226,814.809415387221,795.6669902812965,797.5547807763786,802.8733893122228
1731142636.967518,805.1973857249687,795.0800402471172,790.3651909289385,798.1386781471435
1731142636.968004,809.5292233037646,794.5820484295167,842.9644409031719,802.0545312315362
1731142636.971414,818.3067357762354,794.8017633932727,889.2639984567468,811.0594471567664
1731142636.9753096,816.326653228414,796.3913770319347,862.9492836630039,817.8352747358114
1731142636.976603,797.7430249688633,799.4975983063224,760.6838315519773,817.3265709055014
1731142636.9792054,772.9817935416978,803.4873508089084,652.0713471877011,810.3138796180356
1731142636.983101,760.995074106615,807.2580774305628,624.8382100531835,801.8674312035103
1731142636.9835794,773.2721938167556,809.890592576684,710.3745736255403,796.6137585645065
1731142636.9845035,803.2819164244526,811.104468189747,853.4038635906599,795.1932103570143
1731142636.986997,830.4874784651139,811.2380914620228,953.3101339640909,794.6954002318068
1731142636.9908924,835.9094808872237,810.8874301155703,943.7892390136178,792.1289579199556
1731142636.994788,816.6705889267425,810.5246194175863,844.2008899567974,787.536147803389
1731142636.9954662,787.7831716088322,810.3340671791802,739.814403640689,784.0283257857545
1731142636.9986837,769.8517521232009,810.2799331339836,709.084425661935,784.8697159876682
1731142636.999155,772.8108498522354,810.2593407934519,760.8436840059541,790.276483379628
1731142637.0025797,788.8829216306598,810.2065874502308,833.6464988509947,796.8034095603126
1731142637.0064752,800.117470100419,810.1135611588822,854.0391054198633,799.9584924323444
1731142637.0103707,793.7979022620812,810.0021588703208,800.4560109007119,797.8827221516156
1731142637.0142665,772.848266436421,809.8935593258635,718.1410115642454,792.952474145436
1731142637.0143294,753.0547877561525,809.7954251636453,676.0551945303084,789.8886492704587
1731142637.0147305,749.9961724294832,809.7048345497938,706.4151095756345,791.8957375987894
1731142637.0181625,766.5910165827033,809.6161505886979,778.7157099354284,797.9731326059741
1731142637.019416,791.0358597321826,809.5260988487316,827.3974122674861,803.5698282180031
1731142637.0220578,806.349771557574,809.4344731795271,807.1802674210095,804.1228371648892
1731142637.0259535,803.7599974057562,809.3425217428887,729.7053261171948,798.8013319653141
1731142637.0298493,789.3455824302957,809.2513444817814,652.818082976522,791.5417601592563
1731142637.030306,778.6431572369157,809.1612967972575,632.8807820113864,788.3631009632716
1731142637.0331924,783.4601821502638,809.0721982543118,679.5541176329434,792.7369734058184
1731142637.0337448,801.6246966413064,808.9837568682199,749.2474372115578,802.4850500228139
1731142637.0376406,818.3313982905369,808.8958210332949,781.3700583472067,810.861779718255
1731142637.0415363,818.2927900899014,808.8084001894142,747.1601540962371,811.4449459481425
1731142637.045432,798.7274353807385,808.7215733926278,672.105346788752,803.3290913121778
1731142637.0458815,772.2851280703771,808.6354066834905,615.6640045256048,792.4750134332622
1731142637.0493276,757.3678339102256,808.5499250654548,625.8259226655413,787.7798167850311
1731142637.0520556,763.7853123141084,808.4651242954607,703.5263459730667,794.568807429324
1731142637.0532234,785.3533615587864,808.380992084372,801.9684374542221,810.4213381467969
1731142637.054329,805.1640255799443,808.2975221767565,859.6174950636728,826.6198340670542
1731142637.0571191,809.0778029057394,808.2147212405761,842.8530231591284,834.262525966869
1731142637.061015,796.6644004870802,808.1326122519826,768.6224405548674,830.4987452289065
1731142637.0614572,781.0099291130142,808.0512306760711,691.2723937680569,820.1909822887875
1731142637.0649104,777.6878384660322,807.9706041688073,662.763608064543,811.765352459432
1731142637.0688062,791.9097771641009,807.8907166746857,695.4056308706355,810.5236994376636
1731142637.0709188,814.4331821201575,807.8114852185953,755.4764520560758,814.7310539168353
1731142637.072702,829.6245322929535,807.7328003042069,792.9208796217075,817.5783557599206
1731142637.0765977,828.8740061119751,807.6546572061379,783.5816215718479,813.2916530088456
1731142637.0770326,817.9708993507991,807.5773090416026,749.3963686512366,802.2126346347425
1731142637.0804932,812.1548521272928,807.5012482291685,738.9754003207967,790.6122727910064
1731142637.084389,823.0312059026901,807.4268153232315,783.5302726942818,785.5469411431188
1731142637.0882845,848.3571802595901,807.3535092090603,864.9178386396513,789.2367858061343
1731142637.0892415,873.1721523077443,807.279605134975,924.5678340779042,797.6346328800089
1731142637.089782,881.3337704154842,807.203044294233,909.1823206908005,804.0953501444005
1731142637.0921805,868.1971915123396,807.1239888126871,817.3087452232661,804.809741028899
1731142637.092608,844.3852045760359,807.0475378400812,706.7601754531215,801.512900166359
1731142637.096076,827.5939632768993,806.9828719118833,652.3304898626882,799.5594029178409
1731142637.0999715,828.7642038318168,806.9353369484296,685.1891953818322,803.3232252305068
1731142637.1038673,843.6242595066112,806.8936266286032,764.9080135410737,812.8197414085489
1731142637.1077633,856.6255467805767,806.8242465466808,811.5000531816028,824.0764647170457
1731142637.1081836,854.2607622168879,806.6911291966298,773.8503573923373,832.4662528314573
1731142637.108645,836.7388618034938,806.5057476815881,676.4960103505434,835.8926986036574
1731142637.1116588,818.0675075298858,806.3768697268785,602.2246818631731,835.3808634342536
1731142637.1155543,814.25853951171,806.4918666229385,622.568347474102,833.3469111018451
1731142637.11945,829.4769369956558,806.9804700566735,734.5180886559585,831.6318743799284
1731142637.123346,851.79342322251,807.7294202615296,858.3071001095115,830.784774986459
1731142637.123759,862.2317776500064,808.3449261870976,900.0226784211725,830.4854393029096
1731142637.124154,849.8725927966716,808.388484940608,827.835875997696,830.2497072527201
1731142637.1272414,820.9213667066709,807.7122036745708,698.5489564865784,829.828630259731
1731142637.1275082,794.4730046366788,806.5423486011542,611.8732228069798,829.2310127440268
1731142637.1311371,788.0897223956581,805.2108973222942,629.5520265202647,828.5713727109221
1731142637.135033,804.2839172314945,803.8614519415746,726.1951988022856,827.9383173470985
1731142637.138929,828.5697049529065,802.5040876423476,813.2175315308361,827.3540844789709
1731142637.139335,840.9464536549377,801.349108820638,815.9591345824258,826.7985971209117
1731142637.1428242,831.9353586220124,800.9396698915746,738.0362855230671,826.246232817695
1731142637.1463714,810.2065682175277,801.773237775461,657.2188999774706,825.6850884781535
1731142637.14672,795.2873479516893,803.7190784387348,656.4115266849205,825.1166856744283
1731142637.1506157,801.0544562127768,805.8890675389391,749.8665615289217,824.5474534216143
1731142637.1545112,823.6102385848512,807.2322288868023,868.5450260268224,823.9819986934057
1731142637.15491,843.817534463845,807.3637570469132,916.8573464230458,823.4213501719411
1731142637.158407,842.7258617598264,806.8365677345901,852.087457708647,822.8644369639321
1731142637.159067,817.3876715703819,806.5815453109931,720.0782978944189,822.3100338140435
1731142637.1623027,784.0915662049615,807.052710225746,619.0294446809145,821.7576913780466
1731142637.1652343,766.160615258605,807.8694109718315,622.7480619927261,821.2076489675517
1731142637.1661985,775.921939154578,808.2110984591852,725.8913971923681,820.6603644409232
1731142637.170094,805.2748207719658,807.493674524757,853.3695428165672,820.1161732609092
1731142637.1704855,832.5032463245227,805.6913298018196,923.0598512331815,819.5752160930173
1731142637.1739898,839.7740647197439,803.1530090194673,909.0587105875994,819.0375270608615
1731142637.1778855,826.8651868541745,800.2911707983142,855.188861073899,818.5031359065662
1731142637.1817813,809.8467908811696,797.5236719767028,831.633832763434,817.9721122930757
1731142637.1840975,806.312952974619,795.4190696503084,874.0278033177689,817.4445575570338
1731142637.1856768,820.1471821801208,794.69463797798,955.5606379812236,816.920579031095
1731142637.1860611,838.7072156380538,795.881020743352,1012.075485144361,816.4002729241986
1731142637.1895726,844.205812691754,798.8652687221644,996.2885655553274,815.8837215853508
1731142637.193468,829.0825928329439,802.7050170487269,916.2763438071319,815.3709986698624
1731142637.1939793,802.4479716241186,805.9213889398158,828.9916209257095,814.8621744868047
1731142637.197364,782.7169659019705,807.1477891340869,796.0256801255149,814.3573180977913
1731142637.2012596,782.9432635380177,805.7968749828868,836.9468378462332,813.8564967247369
1731142637.2016366,800.8307092306895,802.3858476096401,915.4194089328637,813.359774389681
1731142637.2029607,821.1809516655563,798.3106674545844,967.308368089589,812.8672110949741
1731142637.2051554,828.5193350879393,795.1601412440302,948.7633013611203,812.3788627703287
1731142637.209051,819.6659559460671,793.9789272535253,868.5323625026017,811.8947816066496
1731142637.212947,806.0571191933566,794.945710772049,781.326536538565,811.4150163732328
1731142637.2168424,803.7402612749746,797.5916115744676,747.9101571268782,810.9396125568895
1731142637.2172122,819.0786880052817,801.2287833043798,791.5620134242716,810.4686123663733
1731142637.220738,842.1516782114277,805.1629664677325,882.5126834935654,810.0020547063914
1731142637.221824,853.8918903495738,808.6205223697877,961.1630093957433,809.5399751864508
1731142637.2246337,841.6339588346535,810.6998070807915,982.6964867048246,809.0824061721304
1731142637.2285297,810.3832216658641,810.6240302618338,949.8586660033096,808.6293768566272
1731142637.228892,780.1316862042707,808.1991963609369,908.50614511828,808.1809133312397
1731142637.2324252,770.7316969295131,804.1014528605273,908.1396337381119,807.7370386470889
1731142637.2327876,786.1606199432719,799.7037251817355,958.3193597184866,807.297772871399
1731142637.2363207,811.0034581248973,796.4827012908983,1018.125954105159,806.8631331450156
1731142637.2402165,822.5368704519932,795.339563080597,1030.3682105357268,806.4331337454497
1731142637.240687,809.1788748014789,796.2370015504117,973.1536770425772,806.0077861550005
1731142637.2441125,780.4201526099223,798.3698967052226,883.2841836584985,805.5870991288857
1731142637.2480078,759.6999454379802,800.7419961905852,828.1942283461531,805.1710787564558
1731142637.2483633,765.4398560193019,802.7342813466744,848.3935909676451,804.7597285129568
1731142637.2519035,795.4856947681673,804.2677520455544,919.9608458613284,804.3530493113713
1731142637.2557993,827.9027678226894,805.5189098589833,970.9086760394987,803.9510395770816
1731142637.25955,837.9042568737613,806.5409134072257,939.7383944067966,803.5536953656773
1731142637.2596948,817.44692900005,807.1877876654363,828.5485024434951,803.1610105093021
1731142637.2635906,781.7465332719954,807.380026334121,706.4317488673872,802.7729767170547
1731142637.263805,757.5265713950313,807.3695516692397,658.2777180371131,802.3895835238508
1731142637.263939,762.4488136119227,807.6666737903519,718.2139189252488,802.0108180630567
1731142637.2674863,792.0030427384912,808.6530059497425,841.1268998093209,801.6366648620918
1731142637.271382,823.9035951790037,810.2133531521777,937.1733461033248,801.2671060913156
1731142637.2752776,835.9921802362996,811.6815261776868,942.9387313644664,800.9021226085441
1731142637.2784133,823.0555585468161,812.1332476499488,870.3431148699092,800.5416954390814
1731142637.2791734,799.2572741611211,810.868321168716,791.2803047970833,800.1858062202374
1731142637.279514,784.9245541793546,807.8701029007768,771.602253174003,799.8344346930086
1731142637.2830691,789.249129074569,803.9909297595126,813.5641528083978,799.4875530723341
1731142637.286965,803.3903631017811,800.633883421263,857.966256874263,799.1451214407798
1731142637.2908604,809.2543017821912,798.98783457503,842.2063093185628,798.8070923203776
1731142637.2947562,795.9338946945054,799.3217272906003,759.9280196840834,798.4734300518621
1731142637.2950895,769.6994823737668,800.9413672377731,668.4456984082698,798.1441365516005
1731142637.2972765,749.2689611323406,802.8749898744803,638.7133969627305,797.8192545619615
1731142637.298652,750.4758257267715,804.6585249724168,693.1504158618737,797.4988139113938
1731142637.2987173,773.0512955120136,806.503861600732,785.4791838941094,797.182723401725
1731142637.3025477,800.3786745805573,808.7773262338802,839.5468532708487,796.8706934523448
1731142637.3064432,812.5405129151908,811.3976595433553,814.0543343028576,796.5623428456951
1731142637.310339,802.1606145535558,813.7700894524794,738.2183418967813,796.2575787066171
1731142637.3106651,780.1114770202756,815.2585627902612,687.4410621643858,795.9570598854568
1731142637.3142345,766.3240638637775,815.6652677946619,718.8851438484721,795.6621808532598
1731142637.3161397,773.2153090419182,815.2680905462686,821.6522484818149,795.3739635483876
1731142637.3181305,795.4064077922095,814.4735685005928,924.0374376572755,795.0910195317839
1731142637.322026,814.1792504753727,813.4834408326051,951.1560023525406,794.8083116613485
1731142637.3259218,812.9127152282036,812.2612659927634,883.8594705692128,794.5195760857991
1731142637.3262408,790.8168438182247,810.7538867268332,771.1816579365919,794.2247392964416
1731142637.3298173,763.9108266661411,809.1204994856776,689.6658088183347,793.9381741833829
1731142637.3336298,752.6647151154489,807.7548076867101,685.4607125649212,793.6869059808781
1731142637.3337133,766.2665187792442,807.0613749002246,744.1858052992293,793.4880431863056
1731142637.335003,795.8295841236541,807.148004568515,807.3257684567536,793.3106796446203
1731142637.3376088,821.6464262916807,807.6986673594498,818.1970540357921,793.0570399004789
