timestamps,eeg_1,eeg_2,eeg_3,eeg_4
1731143707.8464715,810.4366031712393,803.4497412727401,805.3405453530703,806.2711142116393
1731143707.8620572,808.8254471401158,803.3377810023646,803.9650029943566,806.1150367393587
1731143707.8627596,805.8227711719659,803.3623701564817,803.0712795292001,805.2699947238063
1731143707.8776429,803.1046004037036,803.5544505019174,803.2754604502818,804.3081836283268
1731143707.8816202,805.2015351162366,803.7962274815108,804.9133260534295,805.0538273961824
1731143707.8932288,815.4328541163079,803.8542394350324,807.2317554614377,809.0411317197651
1731143707.8993669,831.2246770154443,803.4439131683698,808.0686372918515,815.6689888790122
1731143707.900481,843.7574387533621,802.2772950566202,804.8362323955465,821.97491075447
1731143707.9032664,844.0351223338655,800.109751940797,796.5887414911444,824.843186123605
1731143707.907166,831.3500546970159,796.8688995564426,785.6859730326702,824.0805868886292
1731143707.9088144,816.22660679099,792.9024911281973,777.3026824655918,823.3492998897718
1731143707.9110656,813.3121923248895,789.1868300936144,776.4436594665176,827.350544678818
1731143707.9149652,828.81818781924,787.1774221512178,784.3381083914425,837.1548433381051
1731143707.9188647,853.5759544285116,788.1449456435672,797.0870080803755,847.9090022517714
1731143707.9193416,869.1546923164656,792.3216795640877,807.9483041544164,851.656153982029
1731143707.9227643,862.9110353866828,798.527033869161,811.7204337058321,843.5958349449322
1731143707.9244,839.0111924769309,804.6802585435905,807.9546412076678,826.689956998029
1731143707.926664,815.2524403508353,808.8897673110104,800.7686875475459,810.3471547059876
1731143707.9305634,807.9176759048398,810.3193122398432,795.7707847568206,803.6048954660142
1731143707.934463,817.7652753953187,809.2541875225396,796.5557494856965,808.0191903248187
1731143707.938202,829.6497373877829,806.4909992011917,803.0517858055077,816.2532797253176
1731143707.9383626,826.4664709694297,802.6818056643219,812.3523806514045,818.0318323127359
1731143707.9399858,805.3368573333534,798.1523318644341,821.0403522902462,808.89145534096
1731143707.9422622,781.4918775768688,793.1737581964579,827.2905528075527,794.3259416046259
1731143707.9461615,775.7536117704518,788.2613835160455,831.3831317653903,785.4358024052015
1731143707.950061,796.1252054521703,784.1556874636726,834.4653409153508,789.5064197543634
1731143707.953961,829.8254632763236,781.5260736358366,836.7972399372147,803.6714839224422
1731143707.9555717,853.3922574202944,780.6787606561327,837.1785486383305,817.3915874570746
1731143707.957063,852.5111648546076,781.4748043983751,834.1489262799016,821.7217410540125
1731143707.9578605,834.3039632499499,783.4711809572217,827.7595673713299,817.1939145684696
1731143707.9617598,821.1785094434125,786.1832913069957,820.0442345614986,813.2639852075076
1731143707.9656594,831.4187906160164,789.3164588716033,813.588541220248,819.7268012606918
1731143707.969559,863.1746044192482,792.8071038743594,809.5555912747968,837.6113670948496
1731143707.9711573,895.423100897371,796.6384234346315,807.1027850386023,857.5318268632204
1731143707.9714391,904.9404916494681,800.6098915156017,804.6964649116317,866.9892863080184
1731143707.9734583,885.1069195463203,804.2927455548929,801.9087610474639,860.4559748145231
1731143707.9759235,851.2288956792535,807.1863145779568,799.8468871396835,843.7758962309649
1731143707.977358,828.2145343163281,808.8751863093568,799.815982321263,829.2605093416978
1731143707.9812577,830.6167181117363,809.0752709102667,801.6727426644126,825.6711667987722
1731143707.9851573,851.1918355709249,807.7107526747695,803.73558622138,831.5142975209612
1731143707.986743,867.305621890884,805.1618314724519,804.5859397344356,837.1258653839715
1731143707.9890568,859.8991429955352,802.4731242677965,805.0255379368843,833.3989390019308
1731143707.9929564,829.2543132607414,801.0731908005837,807.9657217237653,819.4541524660469
1731143707.9947844,794.5611507355159,801.8907577118957,815.8652754791564,802.9578765050611
1731143707.996856,778.0597953425678,804.4639604660866,827.8652969551322,793.508275954555
1731143708.0007555,787.3023828325179,806.9471373658793,839.416875482766,795.1470897937065
1731143708.0023286,809.9989633373598,807.3129548916456,845.1192769824046,803.9221050767536
1731143708.0046551,824.8976704982169,804.9509876050433,842.5695818917794,811.594100122766
1731143708.0063334,819.1066701467654,801.3237797903303,834.0324379812437,811.8460312667129
1731143708.0085547,797.7856757836518,798.9919031517456,824.6016745716562,804.3024280887255
1731143708.0124545,778.9996086453878,799.6935982516228,818.5186743412759,794.1404944671494
1731143708.0136447,778.5759657571429,803.0519428172901,816.7342468516924,788.4058837219006
1731143708.0163538,797.4706719455098,807.0180023632169,817.4504896435147,791.884695329749
1731143708.0179143,821.6928150517347,809.6708945196748,818.6129460108593,804.9212597593045
1731143708.0202534,834.4373931710346,810.8027585327532,819.760458224891,823.9142348942728
1731143708.024153,830.1071779435645,811.9259360189312,821.6549666164926,843.6867641123256
1731143708.0280526,818.4932331828408,814.7496567777034,824.5176871878494,860.1508810561926
1731143708.031952,815.7435950955276,819.4601247609744,827.0098610875795,871.7231977136227
1731143708.0325055,829.8893641749524,824.1951665998289,827.1174535832832,878.76181672296
1731143708.0335002,853.2110291637986,826.0637596132269,824.0371381054209,881.6702333439564
1731143708.0358517,867.9307098458141,822.936619399745,819.1621842358984,879.4394469366066
1731143708.0397513,860.6652214900162,814.8312346326477,815.1620087297932,870.1963522562083
1731143708.0412276,833.9141201723738,804.0873387062239,813.8834220721824,853.5950692728804
1731143708.0436509,805.1901673401977,794.2700196699259,814.7873451681489,832.9356867192973
1731143708.0475504,794.1796813352904,788.4205624594476,815.2042919110752,814.621920606646
1731143708.049086,807.8251187163099,787.6086906600597,812.3320075695264,804.6290543612492
1731143708.0513663,835.0609048212136,790.5804618696701,805.6122630274143,804.487362956058
1731143708.05145,855.5741622930751,794.6904658223712,797.7545130336348,810.2482044332454
1731143708.0553496,855.8857473868184,797.5372233493125,793.4764114601434,815.7152231954261
1731143708.0592492,839.8707932465669,798.250035807093,796.5220982745735,817.4988785361088
1731143708.0631487,824.947546175904,797.6024096099333,806.7547274038241,817.5543812335259
1731143708.0646715,826.928122242696,796.9995986446683,819.304350119317,820.8440654213696
1731143708.0670483,846.3217411095969,797.2545480191056,826.7120393718554,830.1326288908413
1731143708.070227,867.8885466217586,798.1478058335975,823.229597561887,842.6911921716616
1731143708.070948,873.8862602530168,798.9560730833164,808.8423098006704,852.0989593404682
1731143708.0748477,859.6198479768248,799.2377862613811,790.2574481709318,853.6771531827476
1731143708.0761218,837.9270971569051,799.103112243651,777.6547382252281,848.6370991289299
1731143708.078747,828.6253973710118,798.9136444971049,778.7849909093102,843.0293975064321
1731143708.0802572,841.5923349033201,798.9065905220443,794.1262494987642,842.2380748757882
1731143708.0826464,867.6164016760371,799.0904559034371,816.4410444802841,845.9197014095591
1731143708.086546,885.0492938709353,799.356229261059,835.1677670219572,848.1442954542339
1731143708.0890875,877.4024407690057,799.6079874809328,842.6719197757747,842.972507426381
1731143708.0904455,847.6119489739377,799.8139063027492,838.1197094936078,830.6441681599495
1731143708.094345,816.7266427915173,799.9891266908822,826.6594712544543,818.5616545733751
1731143708.0958433,807.3332427695777,800.1593673659173,815.1384776196296,815.6099963418156
1731143708.098245,825.0820427275505,800.3387800098506,807.8289611821373,824.4684740473298
1731143708.1021442,853.8272516632937,800.5276923441438,804.9438485985689,838.8002265319992
1731143708.1060438,868.6728693087599,800.7202866866991,804.133710338406,848.143596562913
1731143708.1079483,856.1181471534085,800.9117437318567,803.0973491532892,846.4803122013864
1731143708.1099434,824.7065277350795,801.1006903890449,801.2625658623118,837.1488993141786
1731143708.111016,797.8217934886414,801.2880989311211,799.6633661362348,829.9944698054541
1731143708.1114287,794.9548834288977,801.4753484184022,799.4528355274095,833.2751500818849
1731143708.113843,816.612339572892,801.6631372017077,800.2952447778316,847.0151991273908
1731143708.1177423,844.6133538296453,801.8514406260108,799.9923303261268,863.0428543364836
1731143708.121642,857.209458163214,802.0399443433076,795.9509384794399,871.5159523331426
1731143708.1255417,846.8308232832247,802.2284113873097,787.6469847826733,868.7113097018066
1731143708.126809,826.1359105787467,802.4167917118887,778.0587614933726,859.9545348762188
1731143708.1270144,817.2843712792708,802.6051529407457,772.3983463363084,855.3881120507135
1731143708.1294413,832.9864881852933,802.7935774993321,774.5321619014273,861.8990830318002
1731143708.1333408,864.9089578451134,802.982108675986,783.6871185132154,877.590127152474
1731143708.1372404,889.3211539174363,803.1707498228216,794.2875339951854,893.2012524452422
1731143708.14114,885.8008025220291,803.3594859889739,799.4919914171518,899.3356225019681
1731143708.1426,854.0190160278486,803.5483036791726,795.9627957999094,893.6447609653296
1731143708.1450396,815.1432046298611,803.7372033113796,786.2201057475417,882.2083588992016
1731143708.1456697,796.7763745471191,803.9262070477466,776.6864856535237,874.2099556733424
1731143708.1459105,813.1581792690343,804.1153579148726,772.8263012713758,874.5208891975282
1731143708.1489391,855.5255380868978,804.3046976505118,775.0537660196208,880.2799532996402
1731143708.1528387,899.3431220286845,804.4942196372149,778.6091171166646,883.9621025704215
1731143708.1567383,922.3522763252067,804.6838271340804,777.6627600461433,880.0687762801837
1731143708.1581855,919.5736372484905,804.8733636688024,770.561425465782,869.8883270477872
1731143708.160638,904.1918722765985,805.0627686328043,761.9375895333546,860.6230549782586
1731143708.1645305,894.5263667548709,805.2522995603036,759.5754646252586,859.7395748030497
1731143708.1645374,898.2744390640888,805.4425870483069,768.0891562917845,869.0376463561316
1731143708.168437,907.0241051832998,805.6342202923082,784.3712107724002,883.0310360700199
1731143708.1723366,905.1431017680302,805.8268426743828,798.8134905062565,892.8762026304711
1731143708.1737716,884.9930894839274,806.0184219663145,801.8918190758634,892.815716537482
1731143708.1762362,855.2011134069303,806.2059877090926,791.2661989891296,884.1560867396562
1731143708.1801355,834.731388035822,806.3887103785934,773.8427453441602,873.7456994610657
1731143708.1808047,837.5358896390869,806.571953301731,761.0664597686041,868.2757811216419
1731143708.1833909,860.5344704643867,806.7676993016893,760.9958370893297,868.9729152141048
1731143708.1840353,885.1126191563689,806.9859283627444,773.1054426604466,870.777042084225
1731143708.1879349,891.3854959850768,807.2174938449176,789.4143220928881,866.4478822190799
1731143708.1893573,873.9173678440291,807.4221651168773,800.5526048263469,852.2746018164355
1731143708.1918344,845.9828242115732,807.546234234095,801.861644441724,831.0343071619401
1731143708.195734,828.5488553360321,807.5838075818895,795.2179901004928,810.0790388428759
1731143708.1996336,832.8660894121577,807.6521645521494,786.1160091443579,796.1074909970473
1731143708.2022517,851.1189890660472,807.9950072722293,779.2029519383104,790.6094546179959
1731143708.2035332,862.8737072891084,808.8277061646893,775.9748437963392,789.3675705795662
1731143708.2049427,851.7503545291942,810.067905656947,775.7227106734115,786.158405325484
1731143708.2074325,818.4261349337146,811.1957777105382,777.7756168418296,777.4745915284866
1731143708.211332,779.665502182192,811.519740650138,782.3706474207571,764.5021193136222
1731143708.2152317,754.9094965246978,810.8011471874858,789.4159561292917,751.2060029582403
1731143708.215699,751.7386154815808,809.7215055202487,796.8511769574119,740.7291941998836
1731143708.2191312,761.5480612687006,809.5829739886055,800.8340939891646,733.3308247820594
1731143708.2205286,767.9100341906675,811.2162423583275,798.1687147255624,727.1317868520968
1731143708.2211125,760.0456484808362,813.9358279427339,789.0434721087037,720.2095761448435
1731143708.2230308,740.3602556249095,815.6503608308409,777.5266745368824,711.7178231752292
1731143708.2269304,720.3144136937583,814.3912349529966,769.0506988913412,701.1956888004025
1731143708.23083,708.6561634880748,810.1324336994265,766.8054916965569,687.3082719915717
1731143708.2347295,702.511914288275,805.1799226605684,770.0873809579311,667.8571065245625
1731143708.2361145,689.4855315461541,802.4530794212469,775.9734800205395,641.5666091266471
1731143708.238629,659.2735916307001,802.937051778082,782.6033564854371,610.2425084808579
1731143708.2399728,614.5857100807468,804.601481940164,790.8091567704874,579.1901622272144
1731143708.242529,571.3102295111044,803.9785479235098,802.4634160731162,554.9464991638223
1731143708.2464285,547.0266329213639,799.215929335466,817.1984481918482,541.5446036891938
1731143708.2503278,547.1130635270943,791.9716051802299,830.8814912465197,537.9749718035393
1731143708.2505932,559.9869376849763,786.424998638391,837.7047766376764,538.9078105370203
1731143708.2517002,565.6133960561574,786.1598682808941,834.4112066092504,538.3109527955382
1731143708.2542274,550.6788554844163,791.4793602462419,823.1236959054526,533.2425357437713
1731143708.258127,518.5049567563276,799.2729990841264,810.2932159836901,524.9438997426721
1731143708.2588336,485.9390352810547,805.3757964044884,802.4322706618645,516.6865871223758
1731143708.2620263,469.7599006374628,807.4169976819892,801.8527951865289,510.58241380974994
1731143708.265926,473.5915776136929,806.0292148219046,805.571448523526,506.24574506133854
1731143708.2672858,486.1077920365294,803.8349393755351,808.0831619327253,502.28649220079126
1731143708.2698257,492.0976980250812,803.3331401471794,805.8315656893619,498.9952437936163
1731143708.2737253,486.90088026483085,805.3148895556145,800.0362048299571,499.5621617336406
1731143708.2776248,481.3033964029226,808.6639423713547,795.8183070459564,508.37271320086035
1731143708.2776942,491.8625118541712,811.2889317307526,798.3116510147837,527.2130854733877
1731143708.2815244,524.5391637248701,811.3732594095151,808.6696480068198,552.0523678793987
1731143708.2828715,566.1105661017552,808.255234022234,822.9506341665441,573.3020112519534
1731143708.285424,591.8066863801655,802.6549424800501,834.7021003138748,580.5072537095316
1731143708.2854874,583.8192565994652,796.2835518533004,839.3070151034842,569.0276298068412
1731143708.2893236,545.7488462475657,791.0640172895837,836.9161266383651,543.9736562653806
1731143708.2932231,501.08620951541906,788.3242901512025,831.9502872506642,518.0609801116166
1731143708.2965548,476.80850362537836,788.3278338264183,829.7061656077025,504.5770395373813
1731143708.2971227,484.97815801279796,790.3093440062929,832.589005747744,510.40709764492397
1731143708.2984571,516.27071266702,792.9246140629955,838.6038112160899,533.6478972613791
1731143708.3010223,549.5074887026078,794.9045955362247,843.0546605578198,566.4830397142002
1731143708.304922,568.9650073817875,795.6898417733038,842.1346934026249,600.417875480751
1731143708.3088214,575.8988573913297,795.7505403197317,835.7567675299352,630.2748480740217
1731143708.312721,585.7969131721505,796.2750147497222,827.5594986385271,655.1020906944232
1731143708.314043,614.0853650427032,798.2503398588244,822.1983928717353,676.4378960946987
1731143708.3154156,661.8439601203286,801.5822657440484,822.1145807458807,695.7988917407573
1731143708.3166206,712.9873509420089,805.0936250928659,826.2208010145141,713.3250762510543
1731143708.3203816,745.5006302582408,807.473993398843,831.2236980253734,728.3550516656302
1731143708.3205202,748.3357671704578,808.2464501121714,834.2235628359191,741.0799968437482
1731143708.3244195,730.7482990339597,807.8720587598795,834.5088189370473,753.5185286649221
1731143708.3283193,716.2156908029444,807.1354082168291,833.4013434259348,768.66249175941
1731143708.3296287,725.1456456830643,806.5577133704776,832.6037190591397,788.3497490781232
1731143708.3322186,759.9800611172785,806.2498507051278,832.5316163504957,811.716276162162
1731143708.3342762,804.762234731788,806.0863171306445,831.9822939747147,835.6773577638104
1731143708.3361182,839.3315217497595,805.9214370227097,829.377283755377,857.0993807931635
1731143708.3400178,856.0272369456054,805.6928621967239,824.5180082320021,874.8850525809386
1731143708.3439174,864.8956470937934,805.4133315365974,819.3069301213715,890.4475279575371
1731143708.3452144,883.4977174780678,805.1199974132435,816.6982070769424,906.5146017892656
1731143708.3478167,920.484194874188,804.837320955305,818.645028754006,925.3027804464676
1731143708.3517165,966.9153186522872,804.5690309788971,824.6924516601592,947.0777670010424
1731143708.353137,1002.4018210463389,804.3076148751599,832.323069174406,969.6425112186838
1731143708.355276,1011.0160617792405,804.0454199523028,838.6900758850651,989.0924010435022
1731143708.355616,994.4045655460344,803.7795120797707,842.2569522775482,1001.8872725664949
1731143708.3595157,971.8177773763382,803.5108155985005,843.0336127186933,1007.3134403939064
1731143708.3608,966.6271902438293,803.2413325879958,841.4016189427106,1008.4156303572868
1731143708.3634152,989.1641821338503,802.9722741872073,836.8561241991627,1010.043569789992
1731143708.3673148,1028.9387517461817,802.703752063228,828.1448159867192,1015.079214463057
1731143708.3712144,1062.5737381132647,802.4353340782237,814.9750097006928,1022.0731287751297
1731143708.3719976,1071.6430885524915,802.1666245986237,799.7692496412778,1026.8094528002055
1731143708.375114,1056.5602753391252,801.897491607443,787.4965548835979,1026.7818594961661
1731143708.376386,1035.6316673274255,801.6279969637287,783.0455412593527,1024.4644837189114
1731143708.3790135,1030.2312104233808,801.3582395511826,787.8549620705662,1025.944092026072
1731143708.382913,1048.0432062444595,801.0882604879929,798.5499233602326,1035.7158752130917
1731143708.3868127,1077.5161464902842,800.8180442391413,808.9792219872435,1052.2885050422371
1731143708.39017,1097.4255063324376,800.5475754961975,814.2722265937,1068.7930123325152
1731143708.3907125,1093.5409189549744,800.276889767028,813.7839190785992,1078.2209761066524
1731143708.3908582,1069.251020464867,800.0060640795546,810.7307706531103,1078.5759433898797
1731143708.3919716,1042.1867025603976,799.7351275749548,809.1024961501564,1073.3747888159228
1731143708.3946118,1029.968901489645,799.4639403189536,810.5485949983612,1067.4389171445314
1731143708.3985114,1036.6485613056966,799.1921745213699,813.644581762391,1062.336887405293
1731143708.402411,1050.749496772281,798.919550868082,815.7511539560434,1055.8947989216467
1731143708.4063106,1056.3111424137578,798.6463163382717,815.5885396370769,1045.9398716002133
1731143708.4075572,1047.335023988479,798.3735868990102,814.2858949997458,1034.152091049334
1731143708.409719,1032.9584035424703,798.1028794177219,814.1077881052657,1025.8060420670056
1731143708.41021,1028.7395878092375,797.8344401482133,816.0329835929859,1025.3369743723363
1731143708.4141097,1041.8201708076517,797.565204503645,818.3276775168697,1031.905552093871
1731143708.4180093,1063.2183317389486,797.2888649238466,817.4934226576867,1039.2792542611423
1731143708.4219089,1074.1504428238034,797.0007444967204,811.0437047294057,1040.3538046097437
1731143708.423143,1061.1093636660748,796.7067675216493,799.955315081053,1032.492250398322
1731143708.4250643,1027.2932125748519,796.428925455479,788.6752329310596,1019.3707959545919
1731143708.4258084,991.3184281257764,796.1946566604228,782.3351013584285,1008.1655886379168
1731143708.4285796,974.226088155858,796.0042801666291,783.053829385188,1004.511341689236
1731143708.429708,984.4746904965223,795.7948370110624,788.1740648626836,1008.9084934673106
1731143708.4336076,1012.0376070351374,795.4485196550042,792.0705815879667,1016.8455086757253
1731143708.4375072,1036.1937271696672,794.8937596523053,790.4443831845027,1022.2650890419894
1731143708.4387286,1041.347940727992,794.2785564008201,783.8035295766603,1021.7966195456698
1731143708.4414067,1028.541796426979,794.0710435760161,777.1696272748055,1016.6838420194427
1731143708.4453063,1013.1500940438253,794.8788279628501,776.0592652013017,1011.0389998686622
1731143708.44744,1010.4965488889409,796.9540015646065,782.027795991623,1007.9249680558679
1731143708.4492056,1021.6997764047671,799.749932084125,791.5017848236205,1006.536973162626
1731143708.4531052,1032.2772718977396,802.0867557367086,798.7237931086097,1002.8239682539663
1731143708.4543145,1025.0338849752698,803.0177365633253,800.0830057925078,993.0210873347276
1731143708.4570048,996.1009291493324,802.6907012620081,796.1775127277465,977.2329957913287
1731143708.4599586,959.9893302967545,802.3073696267904,790.2743589520954,960.2302094888651
1731143708.4609044,938.8523456791837,803.0704836250683,785.0184811112,948.7241179608757
1731143708.464804,944.661468756442,805.0275643825818,780.4486542723758,946.8931419446476
1731143708.466301,969.1324745456067,806.9191959460084,774.8729600798948,953.2275024739191
1731143708.4687035,989.9192987412541,807.2563305374068,767.5570576313548,961.0724998983712
1731143708.4699,988.1717842040947,805.6788956207163,760.699845258381,962.8363719073609
1731143708.472603,963.1628566183812,803.3242680546117,758.8098610225275,955.0816910811249
1731143708.476503,932.1089094605497,801.850702602162,765.6710108659029,940.7300024315603
1731143708.4804022,915.5608728730073,802.0665541244709,781.0290028101723,926.5971333921228
1731143708.4843018,920.5996293372459,803.455213081861,799.5905777073443,918.1857558153839
1731143708.4851615,935.5879698324443,804.8804146693386,813.5165070233281,915.9287802294947
1731143708.4854858,940.3658142687601,805.5809619215687,817.1061891299913,915.7692239357965
1731143708.4882014,923.1455336553881,805.5324291287237,810.4981763846918,913.2532630225928
1731143708.492101,890.3977289478368,805.1335433558819,799.5488466633244,907.5319331675369
1731143708.494853,862.1138870893154,804.7555274380422,791.7645104860027,902.0208410511062
1731143708.4960003,856.4211187096791,804.5387584147711,791.3205712231727,901.3057494231044
1731143708.4999,875.4647574502378,804.4408869373084,797.0268498392555,906.8182339619393
1731143708.5010717,903.2052192266322,804.3688592065429,804.5856091800146,914.7866276229029
1731143708.5037997,916.7679840158086,804.2664237237611,810.7692090867151,918.3668736761736
1731143708.504022,902.9484978006844,804.1284491763367,815.6540761740408,912.6128145519659
1731143708.5076993,867.5231454344228,803.9750398586058,821.1282386732203,898.2988519543612
1731143708.5115988,830.1601532620966,803.8246103273129,827.4786025531228,881.0097295210512
1731143708.5154984,808.7188991967054,803.6833578810491,831.6127390876991,865.8013026372736
1731143708.5166574,805.4456522590137,803.5483680830025,828.9075572176488,852.1040296909594
1731143708.519398,806.4754917240568,803.4146419064713,817.3284723604152,833.9629895780165
1731143708.5228827,795.0547547142583,803.2794184192837,800.2643126365269,805.9930644028392
1731143708.5232975,766.9906946629113,803.1426342949298,785.3241390148793,769.7606213267948
1731143708.5271971,734.7388582617612,803.0054357877814,779.5450017925255,734.4416455515111
1731143708.5297472,716.5042106291967,802.8687834051294,784.5375457023483,710.7154378731159
1731143708.5310967,719.9541000510147,802.7329682951465,795.4635463621361,703.0211439826247
1731143708.532243,734.8315133805928,802.5978227029077,804.8285081819309,706.623953539738
1731143708.5349965,740.9189717672782,802.4630972180802,808.1130638506759,711.47162042535
1731143708.5388958,724.5102060368749,802.3286738867258,806.689602896563,709.0864158188574
1731143708.5417435,689.328501294352,802.1945754774126,805.8206634933978,696.835946297914
1731143708.5427954,652.6922746130933,802.0608813258846,809.770338619881,676.918361606004
1731143708.546695,630.3434910126618,801.9276558861541,818.3134027915104,652.1076117295462
1731143708.547829,622.9587130011768,801.7949279255187,827.2765426711335,622.6614123382883
1731143708.5505946,615.8560973177432,801.6627048342269,832.0524348376061,587.1645360838065
1731143708.554494,592.1606811522315,801.5309924686994,830.8395517370825,546.1972978455944
1731143708.5583937,548.2979037841409,801.3998029939654,825.2861436676883,505.0206905960049
1731143708.5606043,498.705144102262,801.2691503821654,818.741561004977,472.22536543573995
1731143708.5622933,465.51463231914056,801.1390437302907,813.9475364200313,454.7628733364855
1731143708.5634143,461.1904019111023,801.0094897026688,811.8001112289638,452.9819911773747
1731143708.5646417,477.9344848003251,800.8805076523035,811.5945172339864,459.6252873729518
1731143708.5661929,492.7048440765889,800.7521462903208,812.08668355354,463.98915764948305
1731143708.5700924,484.6249818495035,800.624477053641,812.4057132568151,458.6856794562845
1731143708.5739918,451.43345069004033,800.4975433001293,812.3173088286477,444.3854423417343
1731143708.577891,411.63766936469415,800.371282041795,811.98508741698,429.1244113186584
1731143708.5790002,390.146207477334,800.2454965435217,811.6342650253862,422.5379594196472
1731143708.579465,398.8556378268525,800.1199872431735,811.37345671492,429.0796784484368
1731143708.5817907,428.11780042816184,799.994860373987,811.1925134149682,445.0662244779017
1731143708.5856905,455.7984725620261,799.8708010360416,811.0363120258719,461.53202356316973
1731143708.58959,465.6597834982319,799.7488664425031,810.8647400719572,470.53149100802113
1731143708.5934896,459.34530187763596,799.6294634006183,810.6691537789405,470.13447647391104
1731143708.594586,452.6269801139148,799.5109143815636,810.4598073451162,464.78597558912355
1731143708.5973892,460.4512996286705,799.3891509927147,810.2486476709157,461.52406736561164
1731143708.5983255,484.1741649634587,799.2604761204427,810.0408636079392,465.3844452848125
1731143708.5995357,511.27717581413475,799.1274505739482,809.8354771664208,477.0958466335192
1731143708.6012888,526.7967140653839,799.0034930808539,809.6294513706569,493.84492582478714
1731143708.6051884,526.401536464547,798.9078045005865,809.4207428131087,511.8133560893822
1731143708.609088,520.3397088405163,798.8451739778617,809.2089932502533,528.5695615564009
1731143708.6101716,525.0569600312363,798.7800122621621,808.9947742697916,543.9008996962284
1731143708.6129875,549.1759705923101,798.6348379309702,808.778681998507,558.7343720951293
1731143708.616887,585.2875692971389,798.3482731848941,808.5609330222351,573.1420683139974
1731143708.6171863,614.7620489326775,797.9884700896952,808.3414282351134,585.3856543431967
1731143708.620787,622.44264558595,797.8345715007948,808.1199779359188,593.3848451739727
1731143708.6246862,609.7191609499116,798.2775691780945,807.8964556003397,597.7266242573646
1731143708.6257572,595.1094083932628,799.4825894509648,807.6708249305456,603.2258122202338
1731143708.6285858,601.0280672467136,801.0470037998739,807.4430955511933,616.5903692420288
1731143708.6324854,636.461992102331,802.1036956896286,807.2132757351967,641.1538814960567
1731143708.63443,689.0126788135794,802.015481382489,806.9813534082574,672.965405413125
1731143708.636047,733.156659565825,801.1199331360159,806.7473011944996,702.3275681571804
1731143708.636385,749.4147429788445,800.733179358986,806.5110886603039,720.7092869080825
1731143708.6402843,740.2235960930523,802.240603625741,806.2726900193359,728.0565040622859
1731143708.6413429,729.5214982577758,805.9740753160276,806.0320850900672,734.1680594830784
1731143708.644184,744.7320468246864,810.7891837315171,805.7892567727041,751.8330178453268
1731143708.6480837,794.2564482162506,814.6556584430107,805.5441886247636,786.260711808822
1731143708.6519833,858.885779796997,815.8126308840409,805.2968640122615,829.2843834685623
1731143708.6549077,905.3741634229079,813.7606116577385,805.0472664866519,863.7718179533139
1731143708.6558828,911.9183997126089,809.5796171885277,804.7953804705622,875.5171480681067
1731143708.6569288,884.69037808414,805.4231203958026,804.5411916644144,863.5274366787355
1731143708.6597824,851.9521830632671,803.3804325122883,804.2846870956121,840.698041051777
1731143708.663682,841.2404346847204,804.2601093065631,804.0258550017496,824.4984801652272
1731143708.6675816,858.7619366919172,807.0554960530519,803.7646847370503,825.0266497601534
1731143708.6693242,887.1313962731024,809.5661219692254,803.501166770468,839.4171765831492
1731143708.6714811,901.7071158705069,809.8712566941424,803.2352927428796,856.1612224281441
1731143708.6725144,891.1305880367561,807.664479359443,802.9670555194807,865.111284143404
1731143708.6737683,865.6676236341993,804.4990994547617,802.6964491992032,865.0302642539879
1731143708.6753807,847.7448358440687,802.7829532905512,802.423469095584,863.2143326079068
1731143708.6792803,853.2722323953319,804.2495402278538,802.1481117519805,868.3563765113174
1731143708.68318,879.0789688593105,808.9208818031622,801.8703750596043,882.9893235279052
1731143708.6870794,906.3673917489606,815.1283416188064,801.5902584703003,901.6734234443329
1731143708.6881,916.9424418034622,820.4273693304308,801.3077631444351,916.0304525321583
1731143708.690979,908.5451309788178,822.7865674096497,801.0228917612184,922.0315767574473
1731143708.6926289,896.4510011255203,821.4425273700798,800.7356478518349,923.2533435797332
1731143708.6948783,900.0118962668894,817.1101831423452,800.4460350246828,927.4153776301755
1731143708.698778,925.4453384777536,811.5726593297328,800.1540570964104,939.2959628382553
1731143708.7026775,959.3710969506255,806.9056338175147,799.8597201672626,956.2029505539119
1731143708.7036858,978.777394236665,804.6648532888645,799.5630362278475,969.9830772602845
1731143708.7042184,969.6000246863365,805.2943385103617,799.2640251085738,973.9453495271448
1731143708.7065773,938.8708990777263,807.9073730920326,798.9627097606276,968.7831924566586
1731143708.7104766,910.2341038914228,810.5542026672538,798.659102901998,962.2730878952575
1731143708.7114894,905.8600420354232,811.0346689321703,798.3531930039157,962.7571782863257
1731143708.7143762,929.0598908196573,808.0586599212553,798.0449491291444,971.8752109446925
1731143708.7182758,961.8814021494251,802.1679725387369,797.7343626088638,982.9390922120244
1731143708.7192717,979.9449730226015,795.7124203335151,797.4215138503363,986.6208093864457
1731143708.7221754,972.2974340792314,791.6378142343766,797.1066005016721,979.1591966753501
1731143708.7260747,949.648420236614,791.6795634619803,796.7898347742472,965.8986449710848
1731143708.7299745,934.2941110315896,795.1295190348237,796.4711856194274,956.9864252715839
1731143708.7303505,940.7393635461675,799.1475874598115,796.150134748349,958.8967273753414
1731143708.733874,963.6095287369558,800.6423717325823,795.8258195263097,968.9705193481651
1731143708.734857,982.6105478559068,798.5892025559729,795.4978682125466,977.4488810811358
1731143708.7377737,979.7332836098971,795.0892908018174,795.1676317734945,975.2177077978697
1731143708.7391126,954.2493142389736,794.1100516252824,794.8385476495635,961.016355496953
1731143708.7416732,923.5677039519683,798.5238037687491,794.5139551730514,942.5208655225817
1731143708.7455728,909.658155840445,807.6043714500493,794.1921578988395,930.6016640556743
1731143708.7492108,922.0095451276379,817.0922434392733,793.8622587457302,931.2706339146296
1731143708.7494724,950.5774752061079,822.0070272304625,793.5078479081043,941.4703922694326
1731143708.750443,974.1898166577994,820.0932599923577,793.1236006182926,951.7741276431035
1731143708.753372,977.525566657319,813.2199674887048,792.737785833996,953.682669626447
1731143708.7572715,962.8029603324472,805.7808444950917,792.4158178435185,945.7301806252525
1731143708.761171,946.6508343738994,801.5772061505721,792.2145766248306,933.766432683386
1731143708.765071,945.0236220469096,801.6605245857609,792.0887050393761,925.5813874485066
1731143708.7660286,959.0466681357871,804.4963583489421,791.8217346545844,924.5032680193502
1731143708.7680717,973.7448975300476,807.8129464302923,791.1161473601074,927.1069351784668
1731143708.7689705,970.673735269162,810.3705602828846,789.9255124172851,926.5341641794944
1731143708.7728698,943.9552128328052,812.3501063549398,788.8769248897278,918.400178718682
1731143708.7740068,906.5004705527621,814.4275623823745,789.3199853475403,904.4917161303146
1731143708.7767694,881.0929453219685,816.6316403996129,792.5296886146028,891.5076928081598
1731143708.780669,883.0803970520665,818.0471910638323,798.2886234410556,886.0139907123202
1731143708.7816143,908.2724629700562,817.5437378554083,804.1435341712539,889.5454974493887
1731143708.7845683,935.8368924167996,814.7943004183634,806.6922683906769,897.511773271619
1731143708.7869322,944.2213776991186,810.6399668591331,804.447072454786,902.6266764846117
1731143708.788468,927.5507776311899,806.4817602170348,799.7009884531233,900.2041547237714
1731143708.7923677,899.2995273831167,803.2772333045141,797.1257093604468,891.3296235828863
1731143708.7962673,880.340691900044,801.0543935168147,799.8631676393734,881.611872035234
1731143708.7972002,881.4488186683528,799.295833177016,806.6065197775316,876.6460725916002
1731143708.8001668,894.901817019816,797.6658781541256,812.5361405557546,877.8088677406754
1731143708.8040664,901.9037968484504,796.2918623636774,813.4120695366307,881.5978489176711
1731143708.8057928,889.0634518809527,795.4153637071855,809.155964417047,882.783670802046
1731143708.807966,859.8258499455245,794.9563099101321,803.7697285221013,878.6025796310355
1731143708.8089013,831.4865309421908,794.5440040843276,801.800165687987,870.5664806838078
1731143708.8118656,820.6411229390305,793.930237100568,804.5238269445493,862.6574590530222
1731143708.812786,829.350239697198,793.2447799516057,809.0439192339854,857.7793471901039
1731143708.815765,843.5706574754163,792.8140064292859,810.860416320654,855.7023140238822
1731143708.8196645,845.2974118342192,792.8171273440818,807.6341016496547,854.1949300881491
1731143708.823564,828.3473528246578,793.1667756886384,801.0768085065565,851.9646835520707
1731143708.8246536,804.2090623012577,793.6494072374231,795.547080406287,850.2624239879151
1731143708.8274636,792.4210538145718,794.1030606902801,794.5446949152009,851.3263662524907
1731143708.8283715,803.3445332513376,794.4801702308008,797.8834001532815,855.1113927779692
1731143708.8313632,828.3009706112006,794.8091306873193,801.7856962035088,857.7668766941179
1731143708.8352628,846.0005137984965,795.1322796194964,801.9124231132308,853.9231712106239
1731143708.8391623,839.9998257593913,795.4711674262427,797.0169727454189,841.206820040535
1731143708.843062,812.3494094483746,795.8248257783688,790.2705093795862,823.0312021163975
1731143708.8435142,782.0963337817861,796.1831613632758,787.0020436761196,806.9487074948238
1731143708.8437955,770.2380255062138,796.5384364864016,790.4550483148217,799.5744993535285
1731143708.8439572,783.4919455652223,796.8887391000281,798.8925744803522,801.9348590648075
1731143708.8469615,809.4310615547365,797.2358366565807,806.4763348366446,808.7344879143278
1731143708.8508613,826.2146870815482,797.5819553728627,807.415430589216,812.0320999697269
1731143708.8547606,819.1288294188267,797.9281095744295,800.2363826910886,806.6215085888394
1731143708.8586602,791.3465595227887,798.274141237732,788.8665244043268,793.2930887395687
1731143708.859543,760.8704011381928,798.6194701758102,779.7818341004064,777.7633776419415
1731143708.8623748,746.1980530301579,798.9636810292039,777.6049966263297,766.2165587164878
1731143708.8625598,751.9827642012069,799.3066728246521,782.5277916165566,760.8315509434923
1731143708.8664594,765.9669434405637,799.6485258745519,791.0819384824241,758.6033798430923
1731143708.8703587,769.5179766110045,799.9893293328773,799.0273733116345,754.2532198461809
1731143708.8742585,753.2130085402223,800.3291004794451,803.889467318303,744.8889145190585
1731143708.8751287,724.8984655398618,800.6677979168566,805.5722797214999,732.6658207396348
1731143708.878158,703.7849688838638,801.0053724258426,805.2562559506008,723.2108579829105
1731143708.8786898,705.369334042588,801.3418031980034,803.9352101464322,721.0232274505297
1731143708.8812356,729.1873412126247,801.6770940905343,801.853434145508,725.7240420194493
1731143708.8820577,759.0420207143535,802.0112321066856,799.1135400468266,732.503073384808
1731143708.8859572,775.5237636179387,802.344138372733,796.6531750281599,736.5467100152044
1731143708.8898568,770.9350916611616,802.6756676583037,796.4349446744399,737.5460211531217
1731143708.8907144,754.6213291302381,803.0057087069446,800.3560922093088,739.998630818984
1731143708.8937564,744.2505781917413,803.3343652126619,808.5609263973465,748.6969712543344
1731143708.897656,750.2822838819905,803.662060394347,818.5542589003668,763.4282902115141
1731143708.9000962,766.9865967598253,803.9893145147256,826.1243782888582,778.0097923608158
1731143708.9015555,778.023802462512,804.3160875223697,827.8072247600181,784.9432166139746
1731143708.905455,771.8357023372148,804.6410664849458,823.3514894122907,781.705502578336
1731143708.9063,753.1934216606774,804.961860088574,816.3299746833918,773.0917348768371
1731143708.9093547,740.3846329383099,805.2770200367896,812.1007937077613,767.5733650439793
1731143708.9132545,750.0298177352249,805.5893738802343,814.2403091747672,770.8084440423046
1731143708.913584,782.3038436456357,805.9075638737917,821.9863076892934,781.5285483455089
1731143708.9171538,819.1190983787097,806.2411747736975,830.7993628545518,792.6906342161623
1731143708.9189568,837.1326596984156,806.5880274636165,835.8259739092422,796.6323074753502
1731143708.9210534,825.4300407241348,806.921712821974,835.553650993907,790.3966761727469
1731143708.9218855,794.0063406517849,807.1977925050724,832.5715752902721,777.7066412856675
1731143708.924953,766.3300649878894,807.3943719747398,830.7787529173326,766.4386595986629
1731143708.9288526,761.6360399981897,807.5735289313426,831.6345450837716,763.3134175646273
1731143708.932752,780.6390150850111,807.9015581941316,832.9968350343665,769.3574495099435
1731143708.9366517,805.7502535712048,808.5427219159864,831.6031423007586,779.2828669033175
1731143708.9374716,815.477276240578,809.4093151086126,826.674552119985,785.2401215055946
1731143708.9378176,801.5025887441648,809.9289429733553,821.061435942968,782.2137519194451
1731143708.940551,774.9508308965673,809.1537599539553,818.8237069154775,771.1799799751408
1731143708.9444506,757.0825758944819,806.394548883276,821.5569214892411,758.0030674114792
1731143708.9483502,762.0412711053095,801.9777680416007,826.8200479352018,749.3314481883068
1731143708.9484782,785.528175264396,797.298837275649,829.9813035231521,748.7490991873159
1731143708.9522498,808.5027612859674,793.9273981237789,827.8489483688326,755.6854844582332
1731143708.9530573,812.9412060273613,792.6028040521901,821.1716933762168,767.0226901291139
1731143708.956149,796.8561382089416,793.0524079142737,814.194780105689,779.3051791731974
1731143708.9566782,776.1310520449649,794.5614817719892,811.7193486814966,789.6080815578839
1731143708.960049,771.2750202811563,796.516633098159,815.8149217564253,795.040222106109
1731143708.9639485,789.709400332862,798.481766484615,824.4759585863171,792.5437519613562
1731143708.967848,818.36593487361,800.0687158218252,833.1164736585482,780.3587248155881
1731143708.968643,833.2981064490918,800.9892595140279,837.7694521993162,760.4340370322938
1731143708.9717476,818.9765575273477,801.2272595647559,837.6077843490476,739.3044258768855
1731143708.975539,781.6101052981078,801.0345543349792,834.952326574121,725.6133212761225
1731143708.9756472,745.3258613296022,800.7235065349663,832.9446323171147,725.3245937961974
1731143708.9795468,733.8192458612755,800.4805525301256,832.9022952395947,738.069274821206
1731143708.9833724,751.9604645445273,800.3355679543987,833.4854329171857,757.5191633480301
1731143708.9834464,782.138016956754,800.2370407082981,832.1432117421064,775.5306629339196
1731143708.9842286,798.4045629924523,800.1321533251639,827.3988701630622,786.9509438775124
1731143708.987346,787.0778724325991,800.001018311591,820.0312150318296,791.8327581946772
1731143708.9912455,757.1389187177228,799.8504924009937,812.4133162326352,794.0681520687397
1731143708.9943995,732.1676249421447,799.6947017723411,806.9084154442071,797.9282916971869
1731143708.995145,730.8331515851904,799.5420952547985,804.7509292348999,804.9413966426223
1731143708.999045,752.2401922213985,799.3934162319782,805.9579530960686,812.8532342579805
1731143708.9998145,777.8851179986989,799.2456424741417,809.7054463633738,817.0261662184413
1731143709.0029442,787.7614919348385,799.0960318972097,814.5232366517445,813.3923397942384
1731143709.0068438,776.66343929768,798.9436867241319,818.4615189209525,801.3260280623451
1731143709.0107434,757.4498905632644,798.7890737908634,819.7752014373048,784.6871929035085
1731143709.01326,749.4901654086503,798.6329659353539,818.0029647512988,770.0685919148394
1731143709.014643,762.474132334677,798.4757958882658,814.4641393656646,762.9668093193239
1731143709.0154002,788.6954676501582,798.3175914391971,811.415364866521,764.3294702560149
1731143709.018267,809.4889253173864,798.1582017703988,810.369779492753,770.1677952828506
1731143709.0185423,810.2897205059456,797.9975084343773,811.0321085380756,774.8638644350126
1731143709.022442,792.2611703364698,797.8354977230574,811.8213184162653,775.697714608796
1731143709.0263417,771.193901733985,797.6722257626632,811.4301620208971,774.7287117715898
1731143709.0302413,764.463655302351,797.50775507878,809.8611884306366,776.2356389248372
1731143709.0309858,776.6875390908074,797.3421163631551,807.976991876505,781.990778147381
1731143709.0321207,796.1505502842064,797.1753107217141,806.2141035791312,788.8944254620546
1731143709.0341408,805.214663454714,797.0073437398476,804.0022512121154,791.4588021661598
1731143709.0380404,795.9158374333124,796.8382681525992,800.6101002209215,787.0088972347295
1731143709.04194,777.2974405693827,796.6681970881336,796.4793243314209,778.7126160280282
1731143709.0458395,768.0238032258902,796.4972465391047,793.4184063859942,773.4140902577253
1731143709.0465715,780.4081882374389,796.3254050170614,793.1072304429588,775.9801480508779
1731143709.0497391,809.2510292677792,796.152422579966,795.1774944506609,785.0215696570525
1731143709.0509815,834.8681559031825,795.9779021373311,796.8531663335601,793.6345969129948
1731143709.053161,838.1589842727152,795.8017255937723,794.9117342344811,794.5633483014495
1731143709.0536387,815.9209482773578,795.6246388205933,788.5439544309917,785.6881044233894
1731143709.0575385,784.1267379160084,795.4483564919375,780.5705972191665,771.6654145233719
1731143709.0614376,765.9285030204308,795.2743983298553,775.663442346834,760.5915265665769
1731143709.0621572,773.2941686166646,795.1016660638392,776.8478080928362,758.2756370131665
1731143709.0653372,797.0495311896099,794.9246130105928,783.2214510101953,764.4200606936008
1731143709.0692368,814.1127777947845,794.7354534699442,790.8312909694522,773.5043455888988
1731143709.069842,806.6965080882818,794.5325603587829,795.8681728342241,779.5405544438287
1731143709.0731363,777.7752370860902,794.3310568183341,797.3993022187915,780.8759990771918
1731143709.077036,749.7043786400454,794.1631290427594,797.480906456788,781.2631967669857
1731143709.0777433,746.8021958370794,794.0540129628265,798.8748440259473,786.4548337182373
1731143709.0809357,775.9871208935746,793.9764241995634,802.4780498188793,799.0971475499509
1731143709.0848353,820.8785580363881,793.821483128575,806.531213476218,815.9046914323666
1731143709.0880551,853.5963668772146,793.4515214385979,808.0796337302786,829.2743920987053
1731143709.088703,854.7225935390508,792.870436044272,805.4092555426054,832.236684101963
1731143709.0887346,826.3593885374672,792.4316050734539,799.4923982843799,823.2821149866053
1731143709.0926342,789.1426505795419,792.8670216838476,793.2901798760361,807.6094711873473
1731143709.0933287,766.1748600035426,794.9428500379032,789.5400997308257,793.7290968348206
1731143709.0965338,766.3116035221184,798.8477207998808,788.9708012727375,787.7217131521763
1731143709.100433,779.4501513168016,803.7977784099377,790.3699555956268,789.4443782652485
1731143709.1043327,787.039490362527,808.3337311938767,792.0337326376621,793.705357225615
1731143709.1075635,778.8021618608315,811.2097943440889,793.0135332863999,795.4186281422294
1731143709.1082325,761.519891109718,812.1466718989168,793.3001060856345,794.2404496442745
1731143709.1089144,752.4995266489807,811.8045968249623,793.313290516534,794.5414606813218
1731143709.112132,763.6033173906641,811.1148735348153,793.4013656257328,800.7829753735798
1731143709.1160316,789.9243348750645,810.6597400703071,793.6662738799313,812.6292583483349
1731143709.1199312,813.0252721118761,810.5350209580273,794.0410204904181,824.3824019876762
1731143709.1229494,815.9660504204393,810.5729204545721,794.4280451547834,829.3574103361809
1731143709.1238308,797.4021513074182,810.5989219142159,794.7776486314216,825.4170088940535
1731143709.1245,773.1179751839907,810.5452446852074,795.0917496639383,816.9846958085142
1731143709.1264243,763.8411235111587,810.4325401077751,795.3932320651464,811.8887342130372
1731143709.1277304,779.0770257452965,810.3066458051234,795.6996651012679,815.5071920929439
1731143709.13163,809.6653512678087,810.1956238802973,796.0153274121544,826.6844226891554
1731143709.1355295,834.9327319389547,810.1023884848573,796.3360830678115,838.5299684650073
1731143709.139429,838.9038787581545,810.017245837233,796.6567354393651,843.5621833105645
1731143709.140086,822.7022239336877,809.9311605427022,796.974851288949,839.3109645737636
1731143709.143329,803.0848979852504,809.8410458175233,797.2906783098879,830.0323365947637
1731143709.145285,798.2383091983038,809.748320170796,797.6054350838725,823.1901762178212
1731143709.1472282,812.5005919480767,809.6554716534961,797.9199699668998,823.529404005265
1731143709.1511278,832.6868353778738,809.5639123014566,798.2344165308924,829.4601130308043
1731143709.1550274,839.1881071365924,809.4737276217351,798.5484926474549,834.5513921346078
1731143709.1556716,822.8281494203843,809.384397349092,798.8618893502143,832.8709568033978
1731143709.1578438,793.5983463172088,809.2954839938842,799.1744553094866,823.9760171558405
1731143709.158927,773.8062446635591,809.2068780689591,799.4861781849501,813.6849384212297
1731143709.1628263,780.7220037454393,809.1186993668072,799.7970903245404,809.9210296688326
1731143709.1641457,812.4889040009915,809.0311099894815,800.107200887004,816.6217524809754
1731143709.166726,848.8634621957361,808.944202732125,800.4164817681801,830.3753283486702
1731143709.1706257,866.6776154832543,808.8579898178047,800.7248854671141,842.6904596255329
1731143709.1712573,857.8131067521003,808.7724466900281,801.0323654742363,846.4586073835785
1731143709.1745253,834.9629717958658,808.6875653776985,801.3388848748515,841.4053192833445
1731143709.1784248,820.2848496687112,808.6033921005351,801.6444143657224,833.7118456812318
1731143709.1823242,826.4709128246844,808.5200289418561,801.948926984048,829.9685391777301
1731143709.1830063,846.341911356129,808.4375770752913,802.252395094547,831.0019003932002
1731143709.1862235,859.773925574266,808.3560249263326,802.5547908753475,831.4998240360708
1731143709.186843,851.8450356503851,808.2751576308453,802.8560883268784,825.8926982904916
1731143709.190123,826.5483325530881,808.1946377452624,803.1562637738031,814.8070108770427
1731143709.192738,804.2892642932421,808.1143647225794,803.4552929478235,805.6818996789076
1731143709.194023,805.0935175319462,808.0349627592624,803.7531459190403,806.5827833880597
1731143709.1979225,831.4702818513083,807.9578610346048,804.0497852861387,818.6454733250869
1731143709.201822,865.3566937762481,807.8843103137937,804.345174617367,834.0053658285447
1731143709.2018669,882.0611318973271,807.8133543376853,804.6392981032151,841.3504398461289
1731143709.2024286,869.9628628166793,807.7403177709383,804.9321774005379,834.6855091971778
1731143709.2057216,839.7006562666519,807.6586935923709,805.2238573400413,818.1441513034573
1731143709.2096212,815.1631201341819,807.5671959086854,805.5143400025938,802.8854556114933
1731143709.2135208,813.7882956360002,807.4785786849652,805.803494569053,798.4776097658076
1731143709.2174203,832.6150499144242,807.4197460341661,806.0910418795274,805.5457341161616
1731143709.2180145,851.5217866110839,807.4114499574266,806.3767352300921,815.44399015655
1731143709.2207274,850.5464907332654,807.4300360456841,806.6607348577186,817.178047064632
1731143709.22132,826.6673481778006,807.3831106647348,806.9438886232941,806.1336357959451
1731143709.2252195,796.3809437825795,807.1532078824273,807.2273864082405,787.804403535838
1731143709.2276323,782.3567700302416,806.7369155142867,807.5114598187082,773.7030398143768
1731143709.2291193,795.2195771047882,806.406100601939,807.7937509850047,772.8057140695598
1731143709.2330186,825.1170518985007,806.6931211594792,808.0692827644343,785.2791141733196
1731143709.2336,849.7313733234639,808.009394048677,808.3341980168707,803.1417331924677
1731143709.2369182,852.1742561920988,810.0311501164882,808.5928321556992,816.7636815353502
1731143709.2395885,834.1382741054438,811.4945193594365,808.8622598924353,821.6193791818656
1731143709.2408178,813.4179904046575,810.9741792978151,809.1643577223734,820.1040014971867
1731143709.2447174,807.8890535535985,808.1502771844748,809.5003652982018,817.7415597147628
1731143709.2486167,819.6826948129899,804.2453126181687,809.8217259596377,817.6392847467098
1731143709.2491858,833.3863125286724,801.1274570130114,810.0347091791512,817.9804134767755
1731143709.2525165,830.0105240262354,800.0460563366776,810.077060983452,814.4025522844506
1731143709.256416,804.5849910017079,801.1447525910976,810.0512738585766,804.9485836174043
1731143709.2584488,771.936518742645,803.8161536877607,810.297296582518,793.1583190174165
1731143709.2603157,755.3657989920762,807.1666630757393,811.2231005570726,786.3600922538486
1731143709.2625265,767.5268342950108,810.132903768701,812.8318832320822,790.1971303590196
1731143709.2642152,799.3767754409206,811.4988657786907,814.2728959644562,803.7586215030315
1731143709.2647717,826.4923265484508,810.2452294970251,814.1035474661523,819.5217793631462
1731143709.2681148,828.0021823447206,806.1673999237485,811.505565938479,828.5132063747959
1731143709.2720144,803.085112063606,800.2077731220614,807.3795206110005,826.7055636968626
1731143709.275914,771.6141576249646,794.0854795440482,803.8058465102703,817.505817373307
1731143709.2773094,758.1245716369745,789.4320824700698,802.1023135369541,808.4472073770512
1731143709.2798135,771.9849073673323,787.0712163207759,801.6507970994797,805.0874564480423
1731143709.2803574,800.0351479481138,786.8951391665491,800.994032650475,807.2795250856115
1731143709.283713,817.7367338458338,788.2529217178984,800.0296096817341,810.5751454581983
1731143709.287613,809.446110552199,790.428772309911,800.7402169680831,810.9405901993949
1731143709.2915125,780.9650014907132,792.8885475051834,805.4636072835968,808.3829329806306
1731143709.2954118,754.3504142937243,795.2869599138867,814.3703001720811,806.4883827334419
1731143709.295943,749.8827137218886,797.4215272721891,824.6142881779613,808.609117086797
1731143709.2961702,770.2204701207902,799.2612699798274,831.911054711333,814.2068494980138
1731143709.2974207,799.183491560952,800.9861766894052,833.1379825650841,818.6305045148061
1731143709.2993114,815.4323362072436,802.8738899816899,828.0148644004304,816.7778507984142
1731143709.303211,809.6997365460438,805.004001820642,818.9989766489518,807.8165852708364
1731143709.3071103,791.7912238318082,807.0165962428074,809.8296757115078,796.9063086310534
1731143709.31101,781.7945264058911,808.2519326472109,803.7230868653936,791.9426491086269
1731143709.3115287,792.6482474327872,808.299524310824,802.0904903920805,797.4823808212111
1731143709.3149097,818.5261224896319,807.5034442299195,804.2340140496486,810.774770371352
1731143709.3150308,839.0402909946127,806.8420904247189,808.0117388163369,823.451579229457
1731143709.318809,836.1724218449958,807.1136123262567,811.0889775708221,827.7778080424682
1731143709.3227086,809.9718051004091,808.0916645505595,812.1799463804745,822.4965118456388
1731143709.3266082,779.7956370393571,808.4769716469498,811.6502302722618,813.6404400531761
1731143709.3271143,769.689727276743,806.8005051837481,811.0504160412283,809.8007863277982
1731143709.3305078,789.4509449628378,802.5831389038714,811.709554684463,815.6049123806308
1731143709.332315,826.3824003908692,796.8592266600896,813.3067583165703,828.2288336277473
1731143709.3338916,854.360353952198,791.7216220420062,813.7034108002139,839.2856722054989
1731143709.334407,853.5088089125329,789.2322561361248,810.5589716883545,840.6068290816436
1731143709.338307,825.5607215638603,790.3476432849777,803.6498521303029,829.8906018325675
1731143709.3422065,792.8536120789026,794.4193221157271,795.8150220990578,812.3570309809758
1731143709.3427,781.1615616532606,799.5264901530129,791.3288367815605,797.258518333867
1731143709.346106,799.4867726604248,803.471468164207,792.7405792612774,791.7048732538141
1731143709.3500056,833.0961802828467,804.8651450482624,798.7628287462244,796.2644721817616
1731143709.3527522,855.7935683306176,803.6499760043046,805.0859515335227,805.5082037620979
1731143709.3539052,851.4326013012331,800.7999717543081,807.5952476478268,812.8515916223178
1731143709.3578048,826.7197369491269,797.5209843129054,805.4487202426922,815.6956295966204
1731143709.358286,804.7370023007776,794.5676977216405,801.523758975353,816.7383998619548
1731143709.3617043,805.0178690228292,792.0886456129662,799.8247268302292,820.5918567130344
1731143709.365604,827.1120754900323,789.9503346310058,801.9312531699857,828.804897476542
1731143709.3672092,851.1176508216696,788.1839088834008,805.4662126660768,837.7133321947227
1731143709.3695035,854.2694842800556,787.2140072367486,806.0261464786553,841.0511021270862
1731143709.3716128,829.7215233274809,787.7222346503119,801.1324929357847,835.0861996575376
1731143709.3734033,792.3129246333655,790.1857056289359,792.8735519973435,821.818441906977
1731143709.3738716,766.7789176693146,794.3190815742846,786.7719355131894,807.4613283146314
1731143709.3773026,767.9584016074434,798.8440096427452,787.5654210932954,797.5736994593683
1731143709.3812022,789.140010502456,801.9744624171389,795.3996706715874,793.1564572787778
1731143709.3851018,808.3206919971733,802.5070714360633,805.7342549789196,791.1107016903258
1731143709.3890014,807.3754821987202,800.7440668345694,813.0132587764863,788.4234192871595
1731143709.3894572,787.9848063551465,798.3980744358682,814.8261708767675,785.9774006227073
1731143709.3904736,770.5396015946886,797.4344580283828,813.0476722942071,788.2418214303161
1731143709.3929007,776.6522106274849,798.7879626663736,811.3862436220194,798.991265063071
1731143709.3968005,810.0108029243372,802.0030699051157,811.9275332232381,816.9666109159332
1731143709.4007,851.8446410355083,805.931911485988,813.7649077446533,835.5357556439873
1731143709.4021034,874.9862824265352,809.643021457011,814.5457385878525,846.9049037497994
1731143709.4045997,865.0767778058761,812.6675467710548,813.0487289920787,847.538931346501
1731143709.405043,831.7781168906072,814.5891403756538,810.1871885880389,840.5143133646332
1731143709.4084992,801.1755642176201,814.7510093921848,807.6071042113491,833.061051671457
1731143709.4093342,795.6097440705299,812.6675832837143,805.5550818141152,831.2359111974448
1731143709.4123988,816.8794185569102,808.8208751275058,802.4814449455293,835.6667114271726
1731143709.4162984,845.7961614195226,804.9087546371437,797.0648453535908,841.3752711890908
1731143709.420198,858.0650508560007,803.0010179802238,790.6890562422275,841.68953977292
1731143709.4206288,843.6465903846417,804.1091812361651,787.5812282762336,833.3334912911356
1731143709.4240975,814.211989398577,807.3466276841596,791.840296720706,818.9695927744808
1731143709.4279969,793.0598991230113,810.4571120446024,803.6138931203823,805.3771439396951
1731143709.4281948,795.9977837500547,811.3595440145416,817.81289941771,798.7348714543479
1731143709.4318964,818.7063735787069,809.5110083536903,826.8465737835419,800.639672007341
1731143709.435796,840.5067238051595,806.0652875361972,825.573538127936,807.7550960290221
1731143709.4362144,841.1446039395054,802.8295841018444,814.8088335864511,814.8983777020601
1731143709.4369977,817.0318804536031,800.985464370213,800.7960639470557,818.6602847377054
1731143709.4396956,784.1449233695713,800.5774295597971,791.1054116961859,818.7724190359266
1731143709.4435952,765.4855392428619,800.9256366457886,790.0011199683444,816.9461646295742
1731143709.4470556,773.1999109153579,801.3371340941023,796.4798619180768,814.9615584073133
1731143709.4474947,799.6775518411805,801.497715430596,805.9585287844774,813.6289812973995
1731143709.4513943,824.7222462231399,801.4368921965402,813.8754662715559,812.8723756651499
1731143709.4518,832.6648130536563,801.308465711017,818.3592046811488,812.2940655922357
1731143709.455294,824.9044877423536,801.2219297973372,820.254692004028,811.610417939595
1731143709.4591937,817.2682371469797,801.1987866009147,821.0538329083136,810.7652188790757
1731143709.463093,824.767802605463,801.2091070871105,820.8295424735346,809.8354539020244
1731143709.4659162,847.3097932812293,801.2194974936322,818.0061819092674,808.9073050688137
1731143709.4669926,868.949131493558,801.215919021883,811.072736209731,808.0170149930425
1731143709.4673858,871.3883045515271,801.201414911843,800.6549848878135,807.1566431870627
1731143709.4708922,850.177575103812,801.1844640531459,790.0986316197631,806.3041379049469
1731143709.471892,819.815409172391,801.1705800503005,783.9726051181319,805.4450759175123
1731143709.4747918,803.172718793142,801.16055359457,785.4979823848693,804.5772389355225
1731143709.478691,813.5498819437731,801.1526481830567,794.5842229736179,803.7049533623843
1731143709.482591,843.8294440763435,801.1451228739851,807.6406115650468,802.8325668484263
1731143709.4829714,871.7020123976298,801.1373190841591,819.2483916164314,801.9616312106339
1731143709.4847767,877.0958037399394,801.1294511013195,824.8204193311024,801.0914414642907
1731143709.4864905,857.952185510125,801.1219707711787,822.8610242853865,800.220682991646
1731143709.49039,831.5553023647252,801.1151469743322,815.5306870672548,799.3485238596692
1731143709.4942896,820.2169930575775,801.1090007198975,807.0739162561127,798.4747769774507
1731143709.4981892,832.959520080032,801.1034326613423,801.0500080631662,797.5995485960677
1731143709.498557,858.1826656735091,801.0983505419324,798.2836814754356,796.7228835650063
1731143709.5020888,873.1935937771142,801.0937134597604,797.0179423442365,795.8446561630732
1731143709.5036376,862.6600624176639,801.089513347169,794.9856356858741,794.9646870360906
1731143709.5059884,831.080427389918,801.0857503895296,791.4858674039161,794.0829234562756
1731143709.5067863,799.4868570815146,801.0824372579881,787.6760981649446,793.199485880516
1731143709.509888,789.0907127591693,801.079621394455,785.1565976833932,792.3144463764439
1731143709.5137875,804.6419956070226,801.077379331201,784.5324418671704,791.4274025897084
1731143709.514143,830.551843021043,801.075742368739,785.2391991886084,790.5372261614881
1731143709.517687,843.0813573861642,801.0745772131639,786.3300017018643,789.6425657878737
1731143709.521587,829.1879070983729,801.0735457501291,787.197512459471,788.7433478547404
1731143709.522498,796.8577244902065,801.0723129395698,787.7331145281586,787.8424022407875
1731143709.5254862,768.264027418588,801.071029729778,788.1017657401253,786.9450160136317
1731143709.5293858,761.3015428910525,801.0707514008996,788.48015443952,786.0543213633916
1731143709.529729,775.0850650383607,801.0730956126835,788.9387302302792,785.1637013832021
1731143709.5332854,791.705894904814,801.0786281743707,789.4579994991905,784.2532990650961
1731143709.537185,792.391186642251,801.0846358380021,789.9919307901525,783.3011471296187
1731143709.5410843,773.80857135876,801.0847112784719,790.5118554004309,782.3121352020726
1731143709.5413587,750.6771631552713,801.0731580072191,791.0145096422723,781.3463729710223
1731143709.5416806,743.1427757097764,801.054206372254,791.509624895687,780.5049378564479
1731143709.544984,760.0757752886609,801.0490277108173,792.0064762678783,779.8372598541479
1731143709.5453143,791.9331458667428,801.0874366071309,792.508386938979,779.2010258887935
1731143709.5488834,818.3050709080574,801.1760543420979,793.014085408775,778.215887540376
1731143709.552783,823.6080514098505,801.2580583102047,793.5211600594878,776.5045835655653
1731143709.5566826,808.5547839585677,801.212080856484,794.0282566063646,774.2580182838811
1731143709.5602195,788.7715272026855,800.9444463992903,794.5353621399117,772.750407224748
1731143709.5605822,782.0170219875152,800.566493976829,795.0430892365589,774.0442196087706
1731143709.5609002,794.2091562770612,800.5182807590639,795.5519775632496,779.4077551773391
1731143709.5644815,815.2016226876876,801.4067834356804,796.0622393585537,787.3140068611046
1731143709.5683813,827.3997571072523,803.4737441236794,796.5738547102537,793.2028612595511
1731143709.572281,820.0974938277521,806.0593931377978,797.0867576260979,792.3190228788657
1731143709.5761805,798.0450185004512,807.7256245904009,797.600944840025,783.8657092567507
1731143709.576486,777.6360746926456,807.2147460924556,798.1164833946734,772.7015861482985
1731143709.5765748,774.0404403351307,804.480867392735,798.6334699485458,766.4914000361321
1731143709.57908,789.53008014482,800.8206927482419,799.1519947291912,770.2219176810845
1731143709.58008,812.0210507795167,797.9865124980839,799.6721299752621,782.5546712567813
1731143709.5839796,824.8652869775067,797.0980545982426,800.1939360939009,797.1859227483782
1731143709.5878792,820.2365843503733,798.2350166848773,800.7174715517799,808.1542512090547
1731143709.5917788,805.4101271404745,800.8624952753427,801.2427981560844,814.4804689705887
1731143709.5920715,796.486668853205,804.4927677222105,801.7699810188028,820.0045843528487
1731143709.5956783,804.2936114617943,808.8878030380685,802.2990862225494,828.6815658379403
1731143709.5979407,824.2740638305735,813.6736511323498,802.8301789220628,839.9008707813923
1731143709.599578,839.534135425952,817.8864044109537,803.3633227848558,848.3747020873067
1731143709.6034777,835.1801160166623,820.0751668385168,803.8985803211388,848.7454665936941
1731143709.6073773,811.9118175419691,819.0568213450085,804.4360133493622,840.6099265496365
1731143709.6076572,786.8512661490595,814.7614587643153,804.9756831828514,829.3963130524668
1731143709.6112766,780.2852951219147,808.4527532618989,805.517650532994,822.4286170485709
1731143709.611469,799.1553669091643,802.1053363709857,806.0619753162237,823.6497347294501
1731143709.6151762,831.0763223499673,797.4133869185501,806.6087165292903,831.2038912477733
1731143709.6168015,853.9185696327077,795.1613372877374,807.1579322373972,839.3133477228525
1731143709.6190758,853.1046670231119,795.2902256364648,807.7096795992765,842.4898354583651
1731143709.622975,832.5131362084957,797.339863000039,808.264014789136,838.8197627409824
1731143709.6232429,810.3005538488038,800.6929259738757,808.8209927191942,830.310199690668
1731143709.6268747,803.4850689889613,804.4520427671766,809.3806666544207,820.6232887992702
1731143709.6307745,814.3080598825338,807.3732211369479,809.9430880763599,812.2075121968514
1731143709.634674,829.4591570861331,808.3156600585176,810.5083072434059,804.9571499682753
1731143709.635662,831.9952577937985,807.0330134417311,811.076374465527,797.243577016436
1731143709.6385736,815.160442976315,804.5714913895074,811.6473410982525,788.3530840629746
1731143709.6388288,786.5604807625717,802.7787929027626,812.2212583554473,780.2277539772346
1731143709.6424732,760.4857331745067,803.2298210507973,812.7981726961524,776.8190309672725
1731143709.6463633,746.6261944163698,806.3468905191613,813.3781198730908,781.2143680441702
1731143709.6463728,745.0770352152672,811.212447462016,813.9611244467409,792.6915261209629
1731143709.6502724,749.7632180765821,816.0088660485937,814.5472126506238,806.3023972818379
1731143709.654172,754.6786796733502,818.7784290735158,815.1364375476803,815.8049084545887
1731143709.6544144,757.2420607362426,818.2660592491926,815.7288961468817,817.947864580264
1731143709.654523,757.8555963611457,814.5906053256457,816.3247028704885,814.665265295712
1731143709.6580715,757.9196484699745,809.3358857357066,816.9238999814356,811.1863677452031
1731143709.661971,758.3778716921817,804.7748400000982,817.5263515024519,811.4278300307035
1731143709.665871,759.3844840887575,802.5458258217584,818.1317528860473,814.4266758625611
1731143709.6697702,760.656869077926,802.685841579384,818.7398958785001,814.8486836977609
1731143709.67,761.9008470938342,803.765207994104,819.3511420274939,807.3496589241984
1731143709.6733837,763.0009437949861,803.970813121586,819.9666932329617,791.4569873045552
1731143709.6736696,763.9905948261078,802.2236167899647,820.5879967798926,773.0691934047815
1731143709.6775692,764.9463243798731,798.5458466664669,821.2150015830471,761.0389172082145
1731143709.6812575,765.9153488237789,793.6883850320024,821.8442765924817,760.9977736291294
1731143709.6814687,766.9027777035474,788.6126077788541,822.46954373515,770.9998091986682
1731143709.6853683,767.8924277523694,784.2850947669076,823.0870535513332,782.634083558724
1731143709.6855855,768.8690796139143,781.7009601581242,823.7044128094442,787.1736013130585
1731143709.689268,769.8274465504346,781.7503619595587,824.3446100572471,782.0968425676346
1731143709.6922443,770.7698232897794,784.7639563199881,825.0330153595257,772.6962690588302
1731143709.6931674,771.7003330812316,790.0416033236388,825.7636619568286,767.4368310730799
1731143709.697067,772.6213074192191,795.8871962697874,826.4663262951758,771.0047099527314
1731143709.7009666,773.5328572532633,800.3644170530825,827.0232704369923,780.8747693202723
1731143709.7011716,774.4341072619021,802.35158970563,827.3770316815259,790.0106430118568
1731143709.7048662,775.324387820029,802.091157598476,827.6928645903603,792.9793591706299
1731143709.7087655,776.2036359979171,800.7693657047257,828.4107192178232,790.1027586830284
1731143709.7111049,777.0721207871806,799.5125743342787,829.9601277701867,786.3658270026991
1731143709.712665,777.9299550304255,798.7167864839854,832.0913573316501,786.4366558606299
1731143709.7161517,778.7768418794714,798.2393983478487,833.2431881945781,790.2672154514859
1731143709.716565,779.6123401262902,798.0592709181926,830.7829760187551,793.0205979180465
1731143709.7167573,780.4366235568897,798.5606413673796,822.622477043008,789.3828460661863
1731143709.7204645,781.2511920704909,800.1033596333837,809.3785642739779,778.6468449637491
1731143709.724364,782.0585020489609,802.3976175194307,795.0710334588375,766.1948535732944
1731143709.7282636,782.8597123618075,804.4301739681628,785.0772659512322,759.9005706129593
1731143709.7299654,783.651369458127,805.0910884767651,782.5524564598577,764.2836303181348
1731143709.7321632,784.4244405605759,803.9579373129096,786.2719060110182,777.2661796317957
1731143709.732343,785.1701931170197,801.619554669569,791.8344368697014,792.1869745018216
1731143709.7360628,785.8934385089535,799.3743992913599,795.2327733109628,803.2173078169469
1731143709.7399623,786.6236523515353,798.5547039980622,795.7417170886176,809.5435704652954
1731143709.743862,787.4049923854553,799.8415152048186,795.8080958625773,814.9986317846725
1731143709.7477615,788.2517350043742,802.8952390453799,798.3716632333587,823.8310349538422
1731143709.7479286,789.0880360559395,806.5262150807032,804.1724466147963,836.4103872533317
1731143709.7488265,789.738776017343,809.3709593814376,811.2555980624687,848.4587458414056
1731143709.751046,790.0525175680102,810.6701734516159,816.7185601641087,854.3862372756961
1731143709.7516613,790.1529480885848,810.5929545586781,818.9456652506051,851.9900336897196
1731143709.7555606,790.6233095110942,809.8636106723408,818.5446368096776,844.5764440146902
1731143709.7594602,792.2655350451018,809.0295093339769,817.5205983896944,838.4449063213035
1731143709.7633598,795.2161260081914,808.0429685665949,817.577459797874,837.5079916113652
1731143709.7635145,797.8385786638097,806.5521228186678,818.9053754366818,839.6517032768693
1731143709.7672594,796.6687100668853,804.5918117526867,820.2887779329167,838.4294494077401
1731143709.7676868,788.7742967673171,802.9048243749663,820.3117279876188,829.0788175130747
1731143709.7711587,775.9484303889966,802.4485749664433,818.5854618318356,813.63160533425
1731143709.7750585,766.7095422441558,803.514882835252,815.9638777079123,800.2708798611594
1731143709.778958,771.5854230752127,805.383807750526,813.697024233797,797.0797828839442
1731143709.7791002,793.4089686642419,806.9111819757348,812.4584429002987,805.3776631854505
1731143709.7828577,821.7217216034966,807.4398629489822,812.1023320410956,818.2980668837934
1731143709.7859402,838.5797971146378,807.1313438889556,812.0961666953237,825.8593028576603
1731143709.7865474,832.42093388188,806.559357201056,812.0197400599689,822.5191487949077
1731143709.7867572,808.3995513239705,806.1571988638599,811.7460302024526,811.3734997728064
1731143709.7906568,785.7731887729902,806.0172949537016,811.3476290901617,801.8556722993349
1731143709.794556,783.4233084331875,806.0190702945201,810.9356594530764,802.7160985437697
1731143709.7946858,804.7761994321513,806.0228882528263,810.5677167307795,815.5629874388578
1731143709.7984557,834.7518785841453,805.9672351828376,810.2421532317665,833.7795491144166
1731143709.8023553,851.9788122624452,805.8623011786967,809.932770304854,847.5048725234817
1731143709.8054082,846.5641916997952,805.7426204617265,809.6191125667989,850.7149727782887
1731143709.8062549,828.4045417585261,805.6315699100596,809.2959138916824,844.9465887022035
1731143709.8101544,818.6646694463619,805.5331025859998,808.9676706925577,837.0306441471267
1731143709.8102715,831.48098716604,805.4403382529607,808.6402102568964,832.9770317650465
1731143709.814054,861.4955938626659,805.3460271142546,808.3162349282386,833.033175554633
1731143709.8179536,887.8449092420266,805.2472791078254,807.9953592268042,831.7951855143747
1731143709.8208344,891.1601752087558,805.1448728937296,807.6760551320242,823.1855316454177
1731143709.8218532,869.3121044204879,805.0406666747591,807.35720213184,806.3113674252467
1731143709.8242688,839.0268106562353,804.935810896024,807.0384984335017,787.466418546663
1731143709.8257527,822.3577389836322,804.830422365333,806.7201247520032,776.3784012922309
1731143709.8258572,829.2521424387918,804.724090151173,806.4022961231155,779.2668679230181
1731143709.8296523,850.3644729933089,804.6164229030305,806.0850464872581,794.0587390729139
1731143709.833552,865.7483173148025,804.5072719940217,805.7682514269973,811.7562414617856
1731143709.8374517,861.969919754983,804.396675893641,805.4517436828293,823.0862010022822
1731143709.841351,843.2189798840367,804.284719475622,805.1353969290881,825.0900227721505
1731143709.8414433,827.1393964027546,804.1714446905394,804.8191339162171,822.3344453344993
1731143709.8431294,829.1625888451252,804.0568391787391,804.502877708327,822.1081946742883
1731143709.8452506,848.8708548440546,803.9408655570386,804.1864952675204,828.0449377762025
1731143709.8491502,869.987679222273,803.8234898984382,803.8697923903451,837.5262923371087
1731143709.8530498,873.9000088579598,803.7046919654941,803.5526020421996,844.5319245311715
1731143709.8557289,855.3228921095002,803.5844610015491,803.23494024191,844.9728181417348
1731143709.856949,827.155848059095,803.4627878158645,802.9170897528379,839.9202034439354
1731143709.8570287,810.5922766898668,803.3396604720275,802.5994011710725,834.4101744728417
1731143709.860849,818.4266999732082,803.2150650009718,802.2817325713918,833.2988284488397
1731143709.8619902,844.803095463774,803.0889887228019,801.9628654115071,837.7593486248569
1731143709.8647485,869.5272315887947,802.9614224849307,801.6407134707912,845.0187674675253
1731143709.868648,873.6712481367778,802.8323587263378,801.3140713541153,851.0224130073005
1731143709.8725476,854.2570482628734,802.7017849471216,800.9854020656919,853.4572179183358
1731143709.8726144,826.3417399903327,802.5696771608735,800.6619896877509,852.7168798571207
1731143709.8764472,810.7696195238955,802.4360027995684,800.3516130763837,850.5002197306322
1731143709.8803468,817.4343856705627,802.3007408739987,800.0517615110361,847.7139118014207
1731143709.8808508,837.558133773227,802.1639125850253,799.7395010893783,843.5569988551144
1731143709.8842463,851.1238576298399,802.0255916724695,799.3775809792946,836.3561854127731
1731143709.888146,843.3592554728469,801.8858526976052,798.949429318598,825.3642336395123
1731143709.8882,817.0509209011038,801.7446502503819,798.5104384479719,812.2364351784414
1731143709.890623,790.8995967028857,801.6017131243734,798.2024406637242,801.0907323920604
1731143709.8920455,785.1167973854821,801.456627167115,798.1610277286036,796.6648262644625
1731143709.8959453,805.4800252767078,801.3092366438912,798.3068370327784,801.2402636660147
1731143709.8997116,838.4533525498986,801.1602031758947,798.1657974168702,812.3512861862587
1731143709.8998446,861.4492791218692,801.0111187762284,797.0042431704165,823.4515160805336
1731143709.9037442,860.2131527655824,800.863417196004,794.4576662662362,827.7156003522714
1731143709.9037857,839.3570671160564,800.716072124062,791.3220121734047,822.3373422659689
1731143709.9076438,817.5525395781942,800.5638191892974,789.6319559708486,809.9073020219914
1731143709.9115434,811.5955544573609,800.399181582937,791.4429739492357,795.8772174604901
1731143709.9154427,822.7414103357804,800.2204012201167,797.067077155917,784.5172661292848
1731143709.9185722,836.4863236910991,800.0415826638246,804.4999179151267,776.8088680544704
1731143709.9193425,835.4729084136467,799.8932475409829,810.8762738990125,771.5616193699968
1731143709.9193716,814.4492139516551,799.7997990452864,814.6437794135184,768.034525872939
1731143709.923242,785.0227204413669,799.736107708681,816.2325212587427,767.2944040118789
1731143709.925517,766.6379769612727,799.598882332853,816.6183296453225,771.0817659908394
1731143709.9271414,771.258263081538,799.2548237899522,815.6142185190811,779.3954390574975
1731143709.931041,793.9932865214034,798.6997748497117,812.0647698290376,789.2030111952724
1731143709.9349406,817.0725668148813,798.252007760624,805.7470873363917,795.7568541767101
1731143709.9349573,824.0308389367395,798.5662775843995,798.5043761143993,795.7718165245253
1731143709.9374328,812.7827038333098,800.2791270663693,793.0272280620579,789.9727249716495
1731143709.9388402,796.8487031209928,803.4228664865344,790.703473936072,782.7101171928254
1731143709.9427395,793.3617170120667,807.0976323296455,790.9210039497667,778.55795585618
1731143709.9466393,807.5900778536324,809.7545688031742,792.124734704868,778.4628467630935
1731143709.9505389,827.2851436847218,809.9259860169986,793.1248569116601,778.8025878973042
1731143709.9505427,832.3862984883013,806.979388703175,793.5666166222045,774.5577907535967
1731143709.9544384,812.4630047049958,801.5804741544871,793.6545811899414,764.2371200716303
1731143709.9562936,777.1409523082476,795.639688893811,793.6989804249599,752.357200856669
1731143709.958338,750.2041733799443,791.5783301968294,793.8593542122171,746.9994405714385
1731143709.9604115,751.562147391604,791.0788644212284,794.13003846192,753.9317674363289
1731143709.9622376,781.388835900668,793.9973325125011,794.4376452003944,771.6961301676645
1731143709.9661286,819.2170898667247,798.2723987798603,794.7254393524631,791.5526474039748
1731143709.9661372,838.9932864895087,801.0813695145727,794.9792540864632,802.6492344292975
1731143709.9700367,828.4468690041151,800.5234704580711,795.2120502183207,798.9315841754529
1731143709.9739363,797.633762544484,796.6554864532962,795.4403361922836,782.9752649986443
1731143709.9751542,770.1370349683962,791.2685678992256,795.6718192770979,764.0750634635804
1731143709.977836,764.3313511546642,786.823304088559,795.9055987850829,751.990727352952
1731143709.9817145,779.8700225906787,785.4030856810789,796.137629033362,750.7864465163937
1731143709.9817357,799.7482593941616,788.1031724102888,796.3650341681968,757.0446181934542
1731143709.985635,805.2943381129667,794.706494960774,796.5872341040216,763.4891253758254
1731143709.9895346,791.3304818369247,803.5377587959612,796.8049967387707,765.0457404161481
1731143709.9934342,769.5289995901522,811.7660750400084,797.0191903197302,762.603207976304
1731143709.9940147,758.1507067636447,816.3867275227045,797.2301840624838,761.6666662222068
1731143709.9953058,767.0554456110108,815.5554089184423,797.4378990496804,767.2327260877987
1731143709.9973,789.8924582512865,809.5221658247532,797.6421071126273,779.1893662768495
1731143709.9973338,809.2796118174582,800.5892913576776,797.8426567519496,791.9756076887538
1731143710.001233,810.7510330790059,792.0912446741266,798.0395393733606,798.7303296669148
1731143710.005133,794.5411595472143,786.9032354645292,798.2328527928044,796.6058350786668
1731143710.0090325,775.6502613923838,786.1929389147269,798.4227271773541,789.082035709701
1731143710.0128756,771.5909115952479,789.0142634996982,798.609233786256,783.5562225410844
1731143710.0128858,787.4610858938056,792.9489880426488,798.7922924143861,786.1894692179012
1731143710.012932,811.0636457098326,795.4738382154819,798.9716508388616,797.9799311741913
1731143710.0168316,823.045831774902,795.3246722167629,799.147054115112,814.8113611878241
1731143710.0207312,814.0987782065605,793.0989983066514,799.318628961584,830.9768866906887
1731143710.0246308,794.3325623687903,790.7661117296489,799.4872287103501,843.1223695943778
1731143710.0284717,785.8788205457136,790.4261019505368,799.6541919079272,851.6190465089184
1731143710.0285304,804.0925156007951,793.1158736889025,799.820085040186,858.7394292974986
1731143710.0302,843.0328616231513,798.3545607284327,799.9829044201038,865.5855963340625
1731143710.031736,878.0318803294529,804.571025187372,800.1376308045893,870.4922912944887
1731143710.03243,884.2708476039588,810.0206302144941,800.2795786391508,870.1959026018357
1731143710.0363295,856.7585322246034,813.604451948326,800.411706658006,862.7031344908816
1731143710.0402288,815.1551614275312,815.1547468277363,800.5505205118802,849.3749726486077
1731143710.0440574,788.7196910150595,815.1135178069129,800.7201262154604,834.3854013298034
1731143710.0441284,793.1583559177417,813.9383941907791,800.9273814058296,821.9342081847792
1731143710.048028,818.431360062342,811.7468705009093,801.129256995427,813.532078201938
1731143710.0505967,837.7672242781418,808.4464346106172,801.229721486692,807.632737801552
1731143710.0519276,830.3462733400089,804.1038541948066,801.1504536631403,801.887695824368
1731143710.0558271,798.7133198641297,799.1094700671606,800.9724128831338,796.0535224055377
1731143710.059643,766.7293122659814,794.0074905751362,801.0422700322569,792.9267500119352
1731143710.0597267,760.2475425824841,789.2776691949354,801.8602342106608,796.1658121380929
1731143710.0636263,786.4998160909571,785.3438466485736,803.6773178597109,806.4635970121695
1731143710.0650942,828.3729066650815,782.702091752945,806.0784121156222,819.3135971815819
1731143710.067526,857.3383177951143,781.8432642846617,808.028822004505,826.91441877292
1731143710.0694575,854.4854763089809,782.8922833358489,808.4520207555229,823.6165303977349
1731143710.0714254,823.6989988378496,785.292672425762,806.7842904717535,810.9573181950443
1731143710.0752287,787.6066019105391,787.9332108305495,803.0278788419578,797.7873629323791
1731143710.075325,770.0283625567115,789.7464104778674,797.5136036551452,794.4377119310385
1731143710.0792246,778.6910567253284,790.3708338897972,790.8876713070403,804.9633052432898
1731143710.0831242,801.4708252929298,790.3740535545055,784.3896023043804,823.747243526367
1731143710.0870235,818.4391229251729,790.8584936793817,779.9446118420695,839.5861323513948
1731143710.088318,819.0793381819728,792.7293361871858,779.62072491878,844.1253661135263
1731143710.0908144,810.0931850663916,796.1184549003339,784.5399796045376,837.7492963086664
1731143710.0909233,807.737047709673,800.3001017569304,793.8564846632383,828.2633241975126
1731143710.094823,822.0895803157822,804.0839318519775,804.5341409086128,823.8969162632953
1731143710.0987225,847.2634013485815,806.4044493530972,812.3272403623897,826.7665014847237
1731143710.0999885,865.8994666256781,806.7850049547122,813.7271329810429,832.0994489259158
1731143710.102622,863.6157448157905,805.5018237807228,807.9536738835719,833.2474852934215
1731143710.1064,840.4981084026443,803.4608954027325,797.7643008645435,827.549263838461
1731143710.1065216,809.8499400929242,801.8774073179299,788.3063889477913,817.8610197536584
1731143710.1071787,786.6094839797364,801.8071167117661,784.3915261219618,809.1879687532166
1731143710.1104212,777.0127871739726,803.5955283804209,787.7481191454565,804.4652327415234
1731143710.1143208,777.6815869802889,806.5035544261908,796.0745540459831,803.3047362069849
1731143710.1182203,781.7005639852645,808.9258285264331,804.6377603882768,803.6346434275309
1731143710.121986,784.3152300478005,809.3531207561683,809.3769622788341,803.7397510069726
1731143710.12212,784.4627120425172,807.5489294854453,809.3524997341818,803.0602960342007
1731143710.1260197,783.2634602907136,804.9557025154446,806.8860936164402,801.8603623530378
1731143710.1260395,782.0543716629982,803.7867000022538,805.4998354063631,800.5858712136317
1731143710.1299193,781.4229706597374,805.3974441514898,807.3502762354743,799.4799808750693
1731143710.1338186,781.2653322060253,809.2868829714164,812.0277593038252,798.546084347334
1731143710.1348827,781.2445866988262,813.5811669548086,817.3167717155931,797.6822433616137
1731143710.1375716,781.1340583401578,816.4950864773316,820.9330590185613,796.8049567578862
1731143710.1377182,780.8960683851807,817.4398780665213,821.6943658492785,795.8908949060659
1731143710.1416178,780.5977702791183,816.9910521210305,819.4278076430883,794.9572595092493
1731143710.1449,780.3094897848121,816.0966957308531,814.2751068666189,794.0280227697598
1731143710.145517,780.0590538859439,815.3842152924785,806.5663951707761,793.1151880520965
1731143710.1494167,779.8387179395978,814.9911696075138,797.5718331787467,792.2182147902438
1731143710.1531572,779.6303712613868,814.7716371762251,790.1101867866593,791.3316097353556
1731143710.1533165,779.4228495492096,814.553270580135,787.7033078009348,790.4512848889917
1731143710.157216,779.2150371348304,814.2614437023985,792.2681516566939,789.5764126089786
1731143710.1611154,779.0109229162518,813.9106261621687,802.0842104587804,788.7081860853762
1731143710.163761,778.8142869726307,813.5447041101622,812.1091116612752,787.84802409354
1731143710.165015,778.626548403508,813.1928498245568,816.9797713509331,786.996658600242
1731143710.168743,778.4473166821704,812.8597147483633,814.6300212820654,786.1541720343413
1731143710.1689146,778.2757605316197,812.5365247435541,807.628051296048,785.3204196320611
1731143710.1697772,778.1114728071411,812.2142339150146,801.0247246228315,784.4953534513498
1731143710.172814,777.95457819917,811.8893465733709,798.3616047604497,783.6791013087824
1731143710.1767137,777.8054480223038,811.5629507484073,799.0616904283908,782.8718902180833
1731143710.1806133,777.6644243069798,811.2374379691635,799.3314464446491,782.0739500428359
1731143710.1826217,777.5317205654983,810.914278202717,795.821946544106,781.285469258147
1731143710.1843288,777.4074610119826,810.5936386659155,789.0040387133603,780.5066032919699
1731143710.1845129,777.2917550216179,810.2750334107783,783.3834409620002,779.7375039850053
1731143710.1884124,777.1847393854683,809.9580100906053,784.1979145610908,778.9783407240262
1731143710.192312,777.0865781435309,809.6424234873901,793.1163811149348,778.2292979143419
1731143710.1962116,776.9974420430649,809.3283602757149,806.394306954928,777.4905485639308
1731143710.1999145,776.9174928387033,809.0159606863067,817.1127806364241,776.7622213668681
1731143710.2001112,776.8468860351563,808.7053074406418,819.9403015599721,776.0443971995055
1731143710.201482,776.7857902261411,808.3964137536432,814.8625701163676,775.3371717841136
1731143710.2040107,776.7344055702326,808.0892624614465,807.1199794960031,774.6407765971853
1731143710.2046714,776.6929537275873,807.7838428717571,803.4866178656695,773.955658867565
1731143710.2079103,776.6616210467346,807.4801615377148,807.6999729487031,773.2823514363598
1731143710.21181,776.6404793393368,807.1782307518882,818.2925893244923,772.6210441376446
1731143710.2155,776.6294704136951,806.8780513459461,830.1074356396111,771.97108412513
1731143710.2157094,776.6285602521818,806.5796076930877,838.0521378506227,771.331036825922
1731143710.219609,776.6380623285968,806.2828860838907,840.2377489909798,770.6999619873868
1731143710.2203429,776.658883636583,805.9879106925954,838.4360437572662,770.0796612407162
1731143710.2235086,776.6922330549226,805.6947653562656,835.9636133516818,769.4759184092177
1731143710.2274082,776.7385027775198,805.4035527463678,834.9669819596579,768.8955932259202
1731143710.2310858,776.7958518204263,805.114270113167,835.2849266441824,768.338292599176
1731143710.2313075,776.8601552872032,804.8266730033146,835.4706620056695,767.7875338040848
1731143710.235207,776.928204507051,804.5403090388925,834.5648685620969,767.2135722015128
1731143710.239107,777.003818043895,804.2548975792143,832.812250721888,766.5992586354366
1731143710.2392037,777.1018410711058,803.9709616829884,831.0296207175322,765.9818954949383
1731143710.2395656,777.2414177965258,803.6901282772158,829.7367382761103,765.4714938232024
1731143710.2430065,777.4240868827453,803.4142201970134,828.9163173100155,765.1876655051208
1731143710.2466714,777.6084095854667,803.1428575722114,828.288091397974,765.0992005769809
1731143710.246906,777.7134147474209,802.8710782024041,827.6199260264457,764.8711948461523
1731143710.2508056,777.6840821369974,802.590461697739,826.84089172474,763.9542851641881
1731143710.2547052,777.6059771719315,802.2967721050968,825.9922020724324,762.1145491316814
1731143710.258064,777.767625084045,802.0016591364312,825.1370497561664,760.2401980022896
1731143710.2586048,778.5107217394392,801.7368016226711,824.3084411295769,760.6868771658802
1731143710.262257,779.8047814157036,801.534474194707,823.5057395488988,766.2546670102532
1731143710.2625043,780.7999168354524,801.3816039820365,822.7142337035464,777.8749064693535
1731143710.266404,779.9816562162301,801.1792216605631,821.9223526532633,792.796226569568
1731143710.2703035,776.5099548254575,800.774279721873,821.1271053972821,805.467109137211
1731143710.2742033,772.3931940634372,800.1162620458567,820.3310578327765,811.1979814353288
1731143710.2744598,773.5257895808268,799.4847084298874,819.5375603110845,809.8683920251663
1731143710.2769248,786.9565267355047,799.5744686502613,818.7482047876344,806.3969446599716
1731143710.277843,814.4255619325403,801.1810202914359,817.9628288848527,807.1624088922858
1731143710.2781026,847.3241057099041,804.4879053328025,817.1806122038507,815.014389552062
1731143710.282002,869.6361562028453,808.4339944060667,816.4009577126939,826.9973426507543
1731143710.2859015,868.9889767048281,810.8453210254925,815.6237309989018,836.8972905496255
1731143710.2898011,847.2366766044056,809.5586613888108,814.8490744021447,840.5959483587055
1731143710.293429,820.6550208416752,803.9328843367871,814.0771530371924,839.5839997426091
1731143710.2937007,808.1619551640135,795.6968233638135,813.3080265301745,839.4779719212659
1731143710.2957854,816.7100591994093,788.4237957110529,812.5416515524792,844.8416410026853
1731143710.2976005,836.2710147058407,785.7718485717345,811.7779413060247,854.9419163411661
1731143710.3014998,849.0853884145064,789.4210084781508,811.0168245476992,864.2183395613505
1731143710.3053994,845.4520549770227,797.9463096864181,810.2582850833464,867.0699771136742
1731143710.3090143,832.3370456332927,807.4581622260184,809.5023726380132,862.8147658672877
1731143710.309299,827.1505325377121,813.7772921295704,808.7491621704573,856.5341898695111
1731143710.309354,841.9798444308301,814.7871900986645,807.9986453441916,855.0099892681632
1731143710.3131986,871.9929818497776,811.3615842023958,807.2506030400097,861.1575589393636
1731143710.3146462,898.347060331769,806.2959932719443,806.5046069512864,871.7731323312959
1731143710.317098,903.6742393216207,802.21373568931,805.7603175635123,880.7028676476642
1731143710.3209977,887.3135938065599,800.1193536454213,805.0180424717233,884.7274419337423
1731143710.3246002,867.0284528322828,799.5208216776022,804.2790926847917,886.6576670391005
1731143710.3248973,864.8099829149236,799.585833252516,803.545152483681,892.2890268110942
1731143710.3287969,887.9819423561314,800.0193304490303,802.816269884648,903.6174436237486
1731143710.3326964,921.6069262686998,800.9103466324218,802.0885582194495,914.8360324655097
1731143710.3335068,939.3533101269568,802.0114298804307,801.3545663709543,915.6987158143844
1731143710.336596,924.5263582145488,802.4918473808934,800.6093198161011,900.1015839539314
1731143710.340186,884.1511298512538,801.5986872928527,799.860774315712,872.4757112768436
1731143710.3404956,844.4920516471702,799.5903623002091,799.1353422108577,845.9944049542413
1731143710.3442483,831.4815943364416,797.9246973267748,798.4639296348353,833.5529133282577
1731143710.3443952,851.5542226966431,798.3483337420269,797.8429541795621,838.6883491052694
1731143710.3482947,887.7221685696143,801.5474622439597,797.1938984870302,853.6412756704408
1731143710.3521943,913.4004540563972,806.4348192239362,796.3784893166365,865.8419470583597
1731143710.3523674,912.6630698646219,810.6570595658126,795.3219484504948,867.4536014949289
1731143710.3557715,891.1222316770937,811.9851300921489,794.2107314090568,860.5750277582191
1731143710.356094,869.534291599106,809.636069118284,793.58295472738,854.4636343991559
1731143710.3599937,865.9362133913139,804.6794405138991,794.0587525903851,857.3677959592876
1731143710.363893,880.8556273335075,799.354907126034,795.6896413009292,869.5134958921411
1731143710.3677926,897.3159648378225,795.8287447694945,797.4539473347448,882.7307163334306
1731143710.3712282,895.3859476511218,795.1458763581993,797.6781870576634,887.0038309519466
1731143710.3713572,869.3745152847902,796.8343276608298,795.4054206719076,878.7421423001819
1731143710.3716922,833.6304201903038,799.1868039609227,791.5182505773959,864.0387613207741
1731143710.3755918,811.9640140627564,800.0544990714778,788.3120521478055,854.0452001993222
1731143710.3791423,818.875070254074,797.9608879698415,787.609653051215,856.0118990706808
1731143710.379491,847.6677741447236,793.1443323438953,789.0292533558493,867.3492981507895
1731143710.383391,875.4280016430891,787.8157056837082,790.1218365412711,877.8173563128449
1731143710.3869429,881.2979872419421,785.0544690698831,788.5629689837541,878.1481935074456
1731143710.3872905,863.2452340257419,786.7277894192507,784.6685571087539,867.7516554388517
1731143710.3900888,839.2581847975753,791.9356198099543,781.9396288223278,854.8103269731944
1731143710.39119,831.7324512913916,797.4614367371203,784.8193319944953,848.7409318591399
1731143710.3950896,848.197560148665,800.1333785760629,795.2287768642709,851.7798125479211
1731143710.3989892,874.8413021278205,799.2071448696317,810.6530856071115,857.1611076625339
1731143710.4025288,888.2614162910724,796.7433432833817,825.4320209941488,855.3743212771246
1731143710.4028888,875.1769986263427,795.7489782436534,834.3659145540254,842.8306637623281
1731143710.406788,843.374350592383,797.8133953772078,835.9077257318074,825.3438426418428
1731143710.4089494,815.1768287849955,802.1880712628159,832.558172085071,813.5563239293754
1731143710.4106877,809.4661946528636,806.7293235511171,828.2949693405492,814.3264102025852
1731143710.4140368,827.0650484373792,809.5315466488502,825.2186604297759,825.2137873925183
1731143710.4145873,850.7971676423198,809.8624657111044,822.2402971820846,836.3684284651525
1731143710.4181144,859.6665118617144,808.0236925451883,816.9222447516639,838.126040744411
1731143710.4184868,845.7362754037625,804.7688947049429,808.746682094394,828.3028562710681
1731143710.4223864,820.282189514852,801.0011239973032,800.595138870191,813.63986890842
1731143710.426286,804.1599457110483,797.8048250021966,796.7094678823064,804.4575965166621
1731143710.4278102,810.065360903808,796.3145516757991,798.7917833043897,806.7768831340962
1731143710.4301856,831.4002214962555,797.1097847923576,803.9796529053747,817.999504752842
1731143710.4337,847.3732305277165,799.5323836984345,806.9324809185871,829.3318675264319
1731143710.4340851,840.3707175162154,801.7182706330335,804.386768639896,832.8067228534261
1731143710.4379847,811.0316678986974,801.6525971968929,798.0210279650387,827.2677442234495
1731143710.4418845,778.2406055966702,798.574239396207,792.8885609414531,818.7306407032637
1731143710.445784,763.9915304031383,793.5860901290165,792.7666443763312,815.1031309818604
1731143710.4466708,775.7238095925181,788.9400774819779,796.6404261136471,819.5967270241739
1731143710.448931,800.5897555446176,786.5955087571195,799.5132079885809,827.9900271385181
1731143710.4492855,816.0817403069135,787.1816964353014,796.854217592979,831.815247146459
1731143710.4496834,808.1853047238062,789.9864944107219,788.7950474582688,824.9951835763809
1731143710.453583,782.34771687541,793.6816822804215,780.3834754101149,808.7707907495419
1731143710.4574826,758.4739889490867,797.0876663005523,777.5541810991149,790.9394167466612
1731143710.4613822,754.2019613869865,799.5625508183257,782.1737637928835,779.8299669235827
1731143710.4648716,770.4334246686243,801.0431147512331,790.416601507644,777.823446398444
1731143710.4652815,791.2338719361762,801.8971054464453,795.9247363289884,779.8399064114874
1731143710.4655316,797.9832754830626,802.6501830359462,795.060239943027,778.1306550598907
1731143710.4691813,785.503825113653,803.6506220586691,789.786446918477,769.2431789679841
1731143710.4730809,766.3914090166555,804.8607323072476,785.887638401614,757.0781574276563
1731143710.4769804,760.0519868868984,805.9502326829046,788.2500701889307,749.4325851458765
1731143710.4804573,775.8435106763781,806.6104641280176,797.143676989178,751.1905336573012
1731143710.48088,804.3408101731686,806.7918707720079,808.2058532624329,760.1171287038901
1731143710.4838252,823.8349189063292,806.6779225056783,815.6818758730877,768.68443695378
1731143710.4843922,817.0231942437073,806.4964764799876,816.2260577292237,770.1218365310697
1731143710.4847796,785.0224130040705,806.375963808293,810.6489376512895,763.6182877056787
1731143710.4886792,747.7763855420609,806.3295841986451,802.7772218475735,754.6807308463442
1731143710.4925787,729.981209298338,806.3152742544725,796.5605559295484,750.6569073725838
1731143710.496043,742.7402948182931,806.2943107432008,793.5475848874231,755.0545521414047
1731143710.4964783,775.0670667174398,806.2538592779799,792.4209665294842,764.9954991621174
1731143710.500378,802.3439536810641,806.2003103373105,790.7411999395334,773.630976090382
1731143710.5032527,805.551850373916,806.1443442898693,787.4322523538412,775.5136228375761
1731143710.5042777,786.0529057690592,806.0918126677083,784.0273761676051,770.6222967630658
1731143710.508177,763.8890691010024,806.0428298982565,783.6617167180627,763.8087893494426
1731143710.5116286,760.906439791508,805.9949657648417,788.4966643027068,760.1842420673315
1731143710.5120766,782.5689729105088,805.9462070535169,797.4710525295436,760.4111996121859
1731143710.5159762,813.4210279413877,805.8959698908262,806.1948139946154,760.0538258750989
1731143710.5187197,829.7582993297892,805.8446418159828,809.4221588285534,753.7274314003743
1731143710.5198758,818.7808736004596,805.7927780647432,804.6329868124916,740.5616249875854
1731143710.5221136,788.3283111231217,805.7406514209217,794.1256642251177,726.0918379105218
1731143710.523775,759.435349632371,805.688235305329,783.789384024018,718.5254683085464
1731143710.5272143,748.4401687766122,805.635383642636,779.1750566709711,722.2194649373898
1731143710.527675,754.031967503989,805.5819829164535,781.7823143779558,733.9766135266004
1731143710.5315742,760.1274161895475,805.527997256418,788.507586181106,745.6895730368165
1731143710.5354738,751.6218748090706,805.4734393714391,794.6413984389023,751.3431931971747
1731143710.5393734,728.8732838774374,805.4183277675378,797.7871435928381,752.2393573373786
1731143710.540974,708.0914763500873,805.3626647984223,799.3356905252263,755.5624893207355
1731143710.5428002,707.3420554489607,805.3064373818938,802.3837316443106,767.2763332903036
1731143710.543273,730.3685948432243,805.2496270080821,808.1821736287657,785.6015092090119
1731143710.5471723,762.0967834805866,805.1922174856313,814.4698479686126,801.0913150534374
1731143710.551072,779.6520497821407,805.1341968735175,817.306290049342,803.6866148947306
1731143710.553614,769.9408420633231,805.0755557050319,814.8347991330096,791.0534628701629
1731143710.5549717,739.7564089717447,805.0162847265376,809.5576066647477,771.2612141707389
1731143710.5583858,710.5367486791788,804.9563738397214,806.8301858217394,757.3895784864064
1731143710.5588713,701.9921847629024,804.8958122215869,810.528926907376,758.0667816181646
1731143710.5598347,717.3879149074282,804.8345888755928,819.4960869386966,771.1288891869381
1731143710.5627708,741.9139389296695,804.772693023994,828.0168297578248,785.2773020559574
1731143710.5666704,755.3463338240332,804.7101141873802,830.2666494188466,788.6324316205498
1731143710.57057,748.8270679944555,804.6468420810005,825.1089638925412,777.810503599095
1731143710.5739715,732.089950565193,804.5828664983791,817.0764540546155,760.57385041738
1731143710.5744696,725.1030071256992,804.5181772637638,812.5757307862243,749.935862461746
1731143710.5783691,740.9530927761525,804.452764245753,814.5355289589949,754.2750212867534
1731143710.5786955,774.109865348704,804.3866173908773,820.0481037781589,771.1545896876844
1731143710.5822687,803.7730934226701,804.3197267472323,822.8668718620894,789.5220464035904
1731143710.5861683,809.7333064744234,804.2520824717967,818.4842585342585,798.2999700710425
1731143710.588508,788.2909420087971,804.1836748291561,807.5862199742661,794.5320388321305
1731143710.5895572,755.8750555873818,804.1144941905754,795.3348335206455,784.9107612999292
1731143710.590068,737.4340582654213,804.0445310372953,787.4062694245478,779.8345900595717
1731143710.5939674,748.1032887711467,803.9737759673087,786.0725737426499,784.8369258887349
1731143710.597556,781.8370075081621,803.9022197033348,789.2236789127122,796.0647404530424
1731143710.597867,815.8348594026743,803.8298531004435,792.7148737714386,803.2560108373631
1731143710.6017666,827.8019684497447,803.7566671530549,793.8929693950328,797.8615360288894
1731143710.6051433,812.8698136780494,803.6826530017787,793.4899984509259,779.9587386253976
1731143710.6056662,786.723093354828,803.6078019406443,794.6053625968551,758.5345377410572
1731143710.6095655,772.3133405142083,803.5321054249912,799.8592296042814,744.9412956856055
1731143710.6134653,781.0981435725113,803.4555550799201,809.0910073561605,744.7120438459156
1731143710.6164167,804.3536857035958,803.3781427088562,819.301494045655,754.0859675608419
1731143710.617365,821.4703093879,803.2998603016231,826.6457035426713,763.6834771041397
1731143710.6207287,817.7756559188391,803.2207000417594,828.8000878530996,766.1338198442396
1731143710.6212645,796.7912870971978,803.1406543138185,826.0240937746715,761.6177605929286
1731143710.6234024,777.0019260816302,803.0597157125853,820.4516048143971,757.1870309795393
1731143710.625164,776.241187473882,802.977877056112,814.454531115605,760.5993271532683
1731143710.6290636,796.7956914235739,802.8951314016296,809.3840531396752,773.5694598097192
1731143710.6329632,823.5071538037606,802.8114720581525,805.4803374785274,789.8166451124694
1731143710.6352775,836.4113393830489,802.7268925863417,802.7481279653181,799.6815243598293
1731143710.6363144,827.4106500675692,802.641386782319,801.8131177063973,797.8930481536082
1731143710.6368628,806.9431408595673,802.5549486611408,803.7667098519735,788.2339717149387
1731143710.6407623,794.8391727645271,802.4675724770168,808.90775976148,780.9613161954131
1731143710.644662,803.0562680930922,802.3792528131544,815.4944222431943,784.6764344865509
1731143710.6485612,825.2235143731527,802.2899847164916,819.9977150956652,799.2299979828006
1731143710.6519,842.1906875277339,802.1997637544738,819.2412478868905,815.723510742927
1731143710.6524608,838.7982371950081,802.1085858213117,812.95783755746,823.7834429484722
1731143710.654138,817.307148971567,802.0164466563184,804.4602341703522,820.079312000384
1731143710.6563604,795.9730991720136,801.9233414057089,798.4492781187508,811.0238096213521
1731143710.6582966,794.0388031104652,801.8292649354836,797.5926495759334,807.5382526883286
1731143710.66026,815.6881040972335,801.7342134496398,800.8818227265465,816.2953872019208
1731143710.6641595,846.1498098526779,801.6381868053927,805.1164658323302,834.5229401433322
1731143710.6674857,863.19679442295,801.5411890966143,807.7246055820675,852.3045621657122
1731143710.668059,854.8787351577187,801.4432243719929,808.1954864613825,860.1437420040959
1731143710.6719587,829.153582060587,801.3442872700001,807.4719305420621,855.4735456277772
1731143710.672999,807.3610971820831,801.244355452705,806.6491329537772,843.085872006873
1731143710.6758585,806.5704561371434,801.1433972343455,806.2414075794554,829.8548753535692
1731143710.6797578,825.2407462386233,801.0414034817322,806.2043684838964,818.8875271715988
1731143710.6830716,844.2597804107061,800.9384296203243,806.2852352604724,808.2601469749725
1731143710.6836574,842.7972389465903,800.8346000968487,806.3009087343387,794.9794299336498
1731143710.687557,815.9957328705398,800.7300190172621,806.2130758681952,779.9663956889472
1731143710.6914566,779.8797911076732,800.6245924115893,806.0697385354467,769.0690569584109
1731143710.6918595,759.336024339055,800.5179032756475,805.9260556919314,768.898134623119
1731143710.6931908,768.7235304529236,800.4093910580158,805.8058169580418,781.0333786627143
1731143710.695356,800.4733848286368,800.2989785370074,805.7044733940517,799.6531617554181
1731143710.6986573,830.7065826065874,800.1878282862497,805.6081434188521,814.8457414464526
1731143710.6992557,837.6582917623756,800.078300974219,805.5076120055438,819.3112470761199
1731143710.7031553,818.5869310897647,799.97211734491,805.401431736548,813.4503141968801
1731143710.7070549,791.6415255296838,799.8670129764364,805.2924024399041,804.9153259386617
1731143710.71072,780.8477922006066,799.7547495648067,805.1834042607867,802.7925835839861
1731143710.7109544,796.2202129279661,799.6251737234074,805.075555399681,810.7082123378049
1731143710.7142427,825.4607510069862,799.4784469135287,804.9685186664253,824.1015588140513
1731143710.714854,844.2840391791549,799.3385122326886,804.8615398079272,833.7675276495995
1731143710.7187536,836.700090934416,799.2498776282803,804.7541544999356,832.9026743261987
1731143710.7226532,808.2025354261712,799.2403078409899,804.6463173016962,822.1997509434653
1731143710.7265527,781.0874473100647,799.2585821801111,804.5382062820228,809.2186347994559
1731143710.728085,776.318296165903,799.1451719427847,804.430004849143,802.8715135822107
1731143710.7295809,797.1291522750454,798.7235130113936,804.321788915318,807.5017609942723
1731143710.7298286,827.3015664970752,798.0434116559679,804.2135028721797,820.8223778047254
1731143710.7304523,844.726390899124,797.6376204534083,804.1049875248915,836.5219630363489
1731143710.734352,838.9423471012117,798.4762623903073,803.9960733411922,848.8368731417077
1731143710.7382514,818.7082393164306,801.3790883063251,803.8867595366427,855.4973987276045
1731143710.742151,803.7790787736661,806.1202285265827,803.7773948396284,857.3400058957822
1731143710.7454145,807.7290277147484,810.9852937473605,803.6686196938471,855.7065140547921
1731143710.7460506,826.130753707577,813.4363360914564,803.5608270075984,850.3930079701688
1731143710.7484417,840.2541286299835,811.6542837266451,803.4532695389885,840.2214759693807
1731143710.7499502,833.4573105076838,805.8430149830072,803.3436334265008,825.7601423600266
1731143710.7538495,806.3709918730308,798.2248615862572,803.2293160249197,811.3530916249084
1731143710.7577493,777.6447069321771,791.6900324556162,803.1108151475303,803.7359473670252
1731143710.7610002,769.2192434195975,788.1637912908017,802.9951067795939,807.4576130680472
1731143710.761649,788.2904029598278,787.8991105843589,802.8940865599104,820.6005602522047
1731143710.7629793,820.9261692758683,789.9787293705075,802.8137915028924,834.6956841963759
1731143710.7655485,842.5996392430069,793.2688099762262,802.7378378409499,839.6349067462081
1731143710.767302,837.2034760108214,796.9142896848955,802.6214746901081,830.4059088588945
1731143710.769448,809.5205665541182,800.2060496300408,802.4189688546547,810.8745359076863
1731143710.7733474,781.4019398796698,802.3789653428751,802.1486926544059,791.7672794884841
1731143710.7765858,774.6564555424887,802.8603367165281,801.951206639224,783.9818623237793
1731143710.777247,794.1020665507316,801.8158218303984,802.0462875766887,791.6248779449822
1731143710.7811463,824.2083072624938,800.3168990049306,802.5163246321877,809.4924574481976
1731143710.785046,841.955774097587,799.6882723957617,802.9975771187225,826.7409044359379
1731143710.7861629,835.3960125614466,800.4220664713769,802.5964918925492,834.1922738523995
1731143710.7889457,812.7566939523545,801.6456837085876,800.422380842333,830.1207713286549
1731143710.7921717,794.8219062158668,801.7900856196527,796.6908333716168,820.4390570651815
1731143710.7928452,797.1816659614597,800.0081673010264,793.4549747201155,813.3379223502835
1731143710.7967448,817.2028274614145,797.0821684052412,793.7296061387931,812.6799505385455
1731143710.7978735,836.4446259981863,794.9343450283978,799.1635100198754,815.4744000512615
1731143710.8006444,836.3076209974864,795.1461451933128,808.3105597861254,815.4510592414221
1731143710.804544,813.760622677136,797.8127533613783,817.3683417417745,809.5572011515245
1731143710.8050234,784.053064184932,801.6650415278206,822.8565729843442,801.5397975522274
1731143710.8077571,768.2157775942906,805.1448117714909,823.8480749277315,799.1929172133468
1731143710.8084435,775.7860923458636,807.3613763024659,821.9838334609493,807.4442936228855
1731143710.8123431,797.1510548470357,808.2549835906652,819.6567453385715,823.3299684873886
1731143710.8162427,811.9444467669605,808.1887316168694,818.1843692569712,837.5187847024948
1731143710.8201425,806.5693053551506,807.5628155557193,817.3894591407744,841.4503335134012
1731143710.823343,786.1799170011375,806.7038082694613,816.5229059898419,834.1831814116186
1731143710.823884,770.8796281532002,805.851274738654,815.3912710637906,823.1248969546992
1731143710.8240418,778.9405739801474,805.0582520596657,814.6608891819902,817.9491703901358
1731143710.8279414,810.7385327157618,804.1118289363775,815.2292391940982,822.7549818732582
1731143710.831841,846.7734676595649,802.7073103096524,817.3752909345841,832.9297616650117
1731143710.8327675,861.8241199472703,800.8615946479392,820.4810212297882,839.1238822628322
1731143710.8357406,844.2161306087962,799.1854987843059,823.4855772167006,834.8281588508205
1731143710.8389287,805.011254945102,798.615545280144,825.5277746966234,821.3172275119268
1731143710.83964,769.9453892311724,799.6854860233736,826.1723940136133,806.2581271304551
1731143710.8427448,760.5478077143534,801.9624827080509,825.2628637300497,797.6055091496709
1731143710.8435397,779.1547346212003,804.2468907260894,822.9885557530027,797.9517445695051
1731143710.8474393,809.0848702908645,805.445479477418,820.3848705045162,803.6088293093894
1731143710.8513389,829.0643870054486,805.348592831347,819.5310306203862,808.5368634795593
1731143710.8545144,829.9088034130012,804.6199612924943,822.5053592355492,809.443855770339
1731143710.8552384,820.2774240871336,804.0933032531617,829.3756255831374,807.9396180272194
1731143710.859138,817.6486211971874,804.1127701184886,836.9837689210252,808.494039392729
1731143710.8616054,832.6050983046284,804.4714512972095,840.1587263081547,814.3830895893939
1731143710.8630376,859.4153090182292,804.8015845205936,834.99814122965,824.9928476747077
1731143710.8669372,880.3162237538421,804.9147702546431,821.8903227764877,836.3064784942256
1731143710.8676622,879.8144819758431,804.8457518292485,805.9455012986974,843.8472053445132
1731143710.8701,857.4868698962263,804.7169583734614,794.3725630479231,845.7585561287235
1731143710.8708367,828.9854909116756,804.6164033179889,792.3708896196723,843.8495199409148
1731143710.8747363,814.2145640181266,804.5637514456544,799.9650604363662,841.9510962290749
1731143710.878636,821.9427927054012,804.5374795778927,811.737552263703,842.8475888895641
1731143710.8804662,843.3119175820636,804.5119741655063,819.9414134350375,846.1298195990596
1731143710.8825357,859.7374230335347,804.4759309550818,819.4175874912225,848.6737286758275
1731143710.885686,858.7560318469012,804.4312896289874,811.1262997486964,847.3786213636864
1731143710.886435,844.4221762866063,804.384489839228,801.4842747659574,841.9064131511415
1731143710.8903346,833.2500376610167,804.3398975331162,797.5860638870263,835.1046833334124
1731143710.894234,839.0872401086668,804.2982739140094,801.8450943434649,830.7189947668119
1731143710.8981335,860.0188206732411,804.2583692551938,810.396471417726,830.280808063804
1731143710.8993268,878.8388231744592,804.2188642316478,816.5307883044968,831.7413509339259
1731143710.9012716,877.0910847455898,804.1792476825862,816.0702508802802,830.9854423285205
1731143710.902033,851.105038347974,804.1396887624642,810.0743635865206,825.0687579713597
1731143710.9025564,816.510493456793,804.1005567060164,802.9510682724449,814.6852663047976
1731143710.905933,796.9040965130583,804.0620891923105,798.2035022005888,803.9054994424779
1731143710.9098322,805.3197406765278,804.0243318764952,795.7674124674274,797.2157469730521
1731143710.9137318,833.5404601054889,803.9872324108504,792.9665161819955,795.9910022617681
1731143710.9168572,858.4662527005946,803.9507422150793,787.7288706245649,797.2236872078656
1731143710.9176314,860.7989352269921,803.9148578005164,780.9884093277149,795.8501369499261
1731143710.9181874,840.6625962786891,803.8796097160551,776.309827368179,789.1737498560452
1731143710.921531,816.9259041017664,803.8450352367893,777.2889261938521,779.8219127891575
1731143710.9254303,810.6624579542603,803.81116124486,784.9021385371227,774.3564093029426
1731143710.92933,826.782044056129,803.7780039102072,796.6639883268476,778.0419781133237
1731143710.932443,849.513735467642,803.7455787436297,807.9239269411519,789.8336057228556
1731143710.9332297,855.6275112787052,803.7139103413444,814.2821360404652,802.1216890432974
1731143710.9370482,834.2721544840408,803.6830318715743,813.6998852056657,806.1822625117933
1731143710.9371293,796.8416402492259,803.6529693831828,807.287195444897,799.3061523870772
1731143710.9374506,768.6377277966587,803.6237180119474,798.4823482800758,787.6178094513738
1731143710.9410288,769.0366932088637,803.5952340482429,791.0791448090673,781.7765100187262
1731143710.9449284,796.2054708620678,803.567473641477,787.1426994184739,788.699107763617
1731143710.9480286,828.7626892203298,803.540482238693,786.0219523262763,806.0406585604642
1731143710.948828,843.0619656436669,803.5144715994782,785.1407991982952,824.0682955071126
1731143710.9527276,831.9674187596387,803.4897562370876,782.1385512109347,833.3906823761178
1731143710.9559088,809.6650011183467,803.4664556218764,776.9103143921676,832.1078223414695
1731143710.9566271,798.6338124295376,803.4440845362575,771.9987511872596,826.5901073785408
1731143710.9605267,809.9022442125301,803.4214786925087,770.8729072847512,825.6036845761448
1731143710.9636145,833.3608219500492,803.3976083688583,775.2377928142483,832.9812249820245
1731143710.9644265,846.2530196535578,803.3732751705653,783.4461513304273,844.8741057927468
1731143710.968326,832.5262444993563,803.3523967501328,791.4523612589264,853.4316563836793
1731143710.9722254,796.8432971430832,803.340465113235,795.7971101276507,853.3912796656217
1731143710.9723449,761.9311756331462,803.3386696903551,796.295905210748,846.0202370011658
1731143710.9747694,751.6746908139318,803.3364755820196,796.1021850164328,837.4722933028196
1731143710.976125,773.28187401637,803.3113904657196,798.9330410388073,833.3621348042434
1731143710.9792,811.9371876547435,803.2457759408186,805.7661246247588,834.265411593735
1731143710.9800246,841.632883543676,803.1588161403347,813.8797385623725,835.7822640518269
1731143710.9839242,843.9176198192849,803.1270972406295,819.0500321045092,832.8332573729316
1731143710.9878235,820.5431733145774,803.2482184377869,818.9051706207905,824.2778615643261
1731143710.9917233,790.6274410722251,803.5230544843861,814.5044795759326,813.763044069077
1731143710.9936302,774.908786465106,803.7146590967604,808.9658766330563,806.1718871525585
1731143710.9947858,779.8048472813408,803.3417727393332,804.6556306372153,803.115601945135
1731143710.9956229,793.9364273023579,801.9452136214028,801.5872271216515,801.7834407831673
1731143710.9995224,799.4053848764829,799.5210594863795,798.3563509751062,798.2262779079234
1731143711.003422,788.0275300554322,796.7511052052284,794.4976353629096,791.8776979318255
1731143711.007239,768.8595450888402,794.7645781416143,791.8040595685392,786.9093697395423
1731143711.0073216,760.7116302325115,794.565182984852,793.0996025375698,788.9671187719109
1731143711.0103714,775.7954724332275,796.4699725094823,799.3935387372678,800.0784972696292
1731143711.0112212,808.1473664829887,799.8268619869664,808.0899372962413,816.1703408173476
1731143711.0124907,836.9102438483969,803.1858661626535,814.2596303975071,829.3997432937459
1731143711.0151205,842.5603326473206,804.9974295322603,814.2769463847687,833.5367377693949
1731143711.01902,823.1435354546094,804.5822277727704,808.7637605910234,828.2652278031262
1731143711.0229197,796.7476568896421,802.7073134823422,802.1254217462756,819.197650141461
1731143711.025957,787.2876802355858,801.1472446077123,798.9499719227802,813.7008914809714
1731143711.0268192,804.793724365972,801.3529836452882,800.4181774666088,815.7146547626742
1731143711.0307188,836.610216025873,803.2357832746851,803.7967765389762,823.3147608967181
1731143711.031351,857.1454447255677,805.1549862247049,805.1642097144205,830.5369739893632
1731143711.0346184,848.3422444539274,805.2122164977618,802.7216443745042,831.8227628675157
1731143711.038518,814.2355711203701,802.7722464950215,797.962225110484,825.8104433395825
1731143711.041543,778.0746450234656,798.9289915521776,794.2077445994937,816.0262303222494
1731143711.042133,764.6192747635212,795.616838092174,794.1120872618383,808.3221893806825
1731143711.0424175,781.5726896688105,794.2356043077682,798.013465115805,806.9339625046262
1731143711.046317,814.256657942638,794.9139977765652,803.921603973432,811.7169288265324
1731143711.050212,837.2941590419762,796.8026123231825,808.7941914951821,818.3353615672098
1731143711.050217,834.2511645876099,798.9109826595011,810.2722197186815,821.3520295367631
1731143711.0541162,810.151287789344,800.7509251799182,808.0313644384873,818.1577839233618
1731143711.057129,787.0466957680045,802.4251420075713,804.0855747852315,810.8103041930569
1731143711.0580158,785.9300659811046,804.2944444201358,801.7747216099355,804.1700967355791
1731143711.0619154,809.3348151899999,806.5743584868185,803.839084166205,801.6867328135037
1731143711.065815,838.8051555049672,809.1305107877096,810.6498739041292,802.3978741429897
1731143711.0690727,849.5318721158163,811.5296108475555,819.7686830899445,801.8540585679899
1731143711.0697143,830.401828867778,813.2246694209382,827.2354543273096,796.17724142542
1731143711.0727143,793.2427588492724,813.7271988939103,829.7743921636946,785.5354800020281
1731143711.073614,763.8376224678117,812.740618066822,826.4566775049476,773.8987453461694
1731143711.0770276,761.9512875368848,810.3161989161587,818.8613027293478,765.4977550268778
1731143711.0775137,786.2714572750679,806.9863306734525,809.9311152938765,761.4263108603133
1731143711.0814133,816.0896622405052,803.6690053844324,802.4541951131998,759.4666333485919
1731143711.0853128,828.1155108911402,801.2367184316697,797.9335051526095,757.0557977729289
1731143711.0879335,814.7120537824013,800.0159390586989,796.0694730854625,754.4395391470453
1731143711.0883,788.8268762919403,799.6950821124423,794.8981601010034,754.9593870109035
1731143711.0892124,771.9706168928841,799.7973696189785,791.762211934297,761.9746942899419
1731143711.093112,775.7220207982075,800.2662058874854,785.0526931458368,774.9326720248541
1731143711.0970116,792.4873836086043,801.5028066154237,775.8237457261235,788.1430040629364
1731143711.1009111,803.0421050364097,803.7309230621466,767.8509001131473,793.9326703651408
1731143711.103886,793.8708457932141,806.3482316324571,765.5488817601498,788.3135150763509
1731143711.1048107,769.2030413402101,808.0763761037242,771.008020163128,774.861609447778
1731143711.106794,747.7058940027855,807.9552004991684,782.426276606749,763.365710862566
1731143711.1087103,747.0463022184194,806.2777311814467,795.1774842079425,763.5874448341727
1731143711.1119218,769.3759704250267,804.4727951539659,804.5984325763436,778.3630546314497
1731143711.11261,799.509817175006,803.9089466167316,808.3786895949265,801.1677966658962
1731143711.1165094,816.9958662690602,804.6830887687762,807.121288905756,820.2238697883888
1731143711.1194715,812.1637780841306,805.5484565599573,803.2158882310301,826.3439765243603
1731143711.120409,793.188340902781,805.0868810182926,799.1229723135799,818.7305438264067
1731143711.1243086,778.5413435056771,803.0409138129737,796.0731317462547,804.4829000989838
1731143711.1256547,781.2176641432694,800.5553438254976,793.6726585211958,792.5993638826776
1731143711.1282082,798.035498229759,799.121873273381,790.5358510890266,787.6158324771961
1731143711.1321075,813.0684904959497,799.28321584649,785.7097921926145,787.8817561579467
1731143711.1350572,812.1444847608097,800.3836657358133,780.0824436201566,789.0471703457447
1731143711.1360073,795.7458119077121,801.5678344893834,776.573396712475,788.810928269409
1731143711.1399066,779.0448512929988,802.8875470071923,778.4564639419536,788.4859634834954
1731143711.1438062,778.9602509908319,805.2123907823153,786.6646949398535,790.5311102629654
1731143711.1445155,799.196895577376,808.933740376994,798.1794692510052,795.0866130826998
1731143711.146816,825.8726405984783,812.8752333694187,807.2166871913485,799.1127494767413
1731143711.1477058,837.6384833508065,814.7718854036074,808.8512475169425,798.911990386935
1731143711.1506429,822.5524560217679,813.0886608361129,802.5740287327822,793.5943219315075
1731143711.1516054,788.4005408310161,808.4702778482114,792.9687178115119,786.2690792971397
1731143711.1555047,757.8489417583891,803.3550595097354,786.7277092051614,781.8026802166734
1731143711.1594045,751.5415626250128,800.0483096744248,788.1006407421395,782.9447156029579
1731143711.163304,772.2160917411682,799.035770661035,796.2001684197874,788.0266878103856
1731143711.163376,802.7083685152218,799.0402786234854,806.1356097925581,792.1707169177164
1731143711.1662288,819.700904528723,798.625454728658,812.8565509590171,791.091704243768
1731143711.1672037,812.126932611474,797.7393916744539,814.5191146286268,784.5044967054505
1731143711.1711032,789.3630407948779,797.7684579450462,812.8879631270086,776.5096181970229
1731143711.1750028,772.9395542905686,800.1406549417652,810.9860570295252,772.7102739039442
1731143711.1789024,778.9322351619332,804.8316948226445,810.397564531398,776.2171041271096
1731143711.1817105,805.2198974375351,810.1137171932361,810.4797987937847,785.3433514958875
1731143711.1818144,833.2631593842111,813.68246395478,809.707099716645,794.4905431431389
1731143711.182237,842.4875804724351,814.1081475597889,807.5242101784165,797.6481284089414
1731143711.182802,825.9691075730658,811.4443049231915,804.9771671102624,792.3465792507029
1731143711.1867015,795.4468185697312,806.7525036521176,803.7468154872328,781.4807087860853
