timestamps,eeg_1,eeg_2,eeg_3,eeg_4
1731143574.6890316,818.8255259302393,798.9583043946915,799.7104084185924,804.335379008433
1731143574.692937,799.7159283028154,789.3660810394946,812.9294035375431,816.5671044247613
1731143574.6968417,787.2456389613659,781.0532451159132,822.3719922355453,824.3671455318167
1731143574.7007468,784.1101920754402,775.0355048461897,826.0135686265203,825.8978363957657
1731143574.7046518,788.1954479549033,771.8653984217666,824.388594101938,822.8701298631844
1731143574.708557,794.7342959079652,771.5223230691919,820.2601375302823,819.1921522333931
1731143574.712462,799.1389212153197,773.411530844432,817.5710025972095,818.1651993252832
1731143574.716367,798.9720353140009,776.5601545657203,819.9680478914431,820.3036245829398
1731143574.720272,794.982434485775,780.0668961250722,828.9696850356312,823.4899675060831
1731143574.7241771,790.7727764624841,783.591372299988,842.3681736285174,825.1402760062091
1731143574.7280822,790.2509813530116,787.4109191271745,854.2905477923853,824.2134861495159
1731143574.729715,794.073003057708,791.8148513943918,857.9612239871362,821.2920913761438
1731143574.7319872,798.6588879609887,796.3123119795772,850.0715343273487,817.1659038872709
1731143574.7358923,799.6372727388533,799.5026444388204,833.5722543226149,811.7702539889772
1731143574.7397974,796.4853696927394,799.9000912986045,816.2214992804755,804.4595293255134
1731143574.7437024,793.1032022582483,797.041663856864,805.5342050562177,794.91107582683
1731143574.7476077,793.6103913541904,791.9181067609013,803.9538337938301,783.7175121009866
1731143574.74857,798.5570509133248,786.4321111346311,807.970564881489,772.760921794063
1731143574.7515123,806.1308198810576,782.4000264051019,811.5889092032254,765.6117063329974
1731143574.7554176,816.0934480094088,780.7748727267591,811.1107422149088,766.9576422655987
1731143574.7593226,830.1068915376765,781.3868242896093,807.5431383210168,779.8567749713158
1731143574.7632277,846.902455992775,783.1739378938089,805.1707827215471,802.0710348740661
1731143574.7671328,858.6840522925232,784.7895719199959,807.7927762828464,825.292665116144
1731143574.7674243,855.3399002845681,785.3446567863406,815.6211074021643,839.5727739394761
1731143574.7710378,833.9027553813783,784.8462983292151,825.0892013887998,840.0699486879842
1731143574.7749429,803.1602384845183,784.0001334414422,831.5287766735736,830.0614572859591
1731143574.7788482,777.4066292006654,783.5467560191865,832.5029219656044,817.3267610254177
1731143574.7827532,765.1025774275273,783.7139090487105,829.197196091381,807.5859255072435
1731143574.786279,763.9724217631659,784.2307845253855,825.0047789650167,801.4130750200767
1731143574.7866583,766.9153761895723,784.8255713109496,822.7642659464474,796.9035170844928
1731143574.790563,771.2467563072714,785.7219822716787,822.9516484609189,794.1008898383581
1731143574.7944684,780.6908653422149,787.6530262278094,823.9428106321355,795.753339193761
1731143574.7983737,798.3324245128823,791.2655527506521,823.6439548601713,803.64215336232
1731143574.80082,819.1900643955388,796.2948976519867,821.0272144759907,814.9927715370565
1731143574.8022785,831.6951115309024,801.2385962784545,816.6971474378323,823.4878778963503
1731143574.805133,827.7289514670342,804.0601012678411,812.5163021285017,824.3522127289702
1731143574.8061836,811.3227677470459,803.6149266508072,810.6406177587287,818.501984846764
1731143574.8100886,796.5949809068826,800.6461735371935,812.2609345410242,811.5767198790066
1731143574.8139937,795.7617142961514,797.3275305469348,816.562106168974,808.7615502528444
1731143574.8163598,808.1500159556012,795.6067364620585,820.75668359232,810.3669741226745
1731143574.8178988,820.9460761508242,795.8250672634916,821.6577999424885,812.2359276122097
1731143574.8218038,821.5139134489168,796.8624104071497,817.9463874472438,810.3267633080649
1731143574.823988,809.7841032268674,797.5150706121347,811.2927043027613,804.932339727771
1731143574.8257089,798.7073864057941,797.6293942796509,805.161377237356,800.5138380837648
1731143574.829614,802.0330497569546,797.9571279665339,802.1321901522277,801.3830107580782
1731143574.8318996,820.9270290790068,799.1373210910067,801.9957532911325,807.3897345281066
1731143574.833519,842.2019873889998,800.9795880454275,802.262685866856,813.7142016835049
1731143574.837424,849.9045413759513,802.6515922772204,800.591535949819,814.9697163767609
1731143574.841329,839.3605377496725,803.3653269943406,796.9613920456933,809.8549923929752
1731143574.8428426,820.6219094828721,802.8462007847118,793.6822184245357,802.2526388899615
1731143574.8452342,808.4321670892062,801.3218705282003,793.2855135515863,798.0218521622077
1731143574.8474398,808.4131458009964,799.2551193290766,796.2654142159328,800.4148588578882
1731143574.8491392,812.3094400240465,797.1052371315936,800.8260688500359,807.8140232689015
1731143574.8530445,806.3194222192872,795.2036395589596,804.9405130173959,815.1772545112001
1731143574.856949,784.5537527067571,793.706688158393,808.6980832933148,817.6563889012274
1731143574.8608544,755.5606533406703,792.6262128752325,814.370529932659,813.66990558728
1731143574.8614185,736.5396957714419,791.9977602271541,823.6926829070493,805.6110100841644
1731143574.861697,740.374547966826,792.1740264625146,834.7859822082645,798.1070708084079
1731143574.8629797,765.8717594148115,794.0189466490436,842.0206139474566,795.0728460963649
1731143574.8647594,798.4551593994155,798.6378902461284,839.7135770635862,797.3175286706036
1731143574.8686645,820.5873776345827,806.502925822814,826.8980827831488,802.1840762998303
1731143574.8725696,824.1650649191276,816.4290743348871,808.9773576547309,805.5482509990935
1731143574.8764746,815.5337239454691,825.3423495519841,794.4899833761981,804.8088582781022
1731143574.8785195,809.0673265713987,829.5137082593673,789.3931198108208,800.5161186387699
1731143574.8803797,814.336259466875,826.8339035996164,793.3553933592478,795.2711550488974
1731143574.8805516,827.6296514465912,818.5858725949925,800.7102296454038,790.9955957464495
1731143574.8842847,835.361428051729,809.1626567287174,804.8639462618108,787.291347484432
1731143574.8881898,826.6481843321844,803.5937310874298,802.5724130862862,782.562936990295
1731143574.8920949,804.0249579171083,804.5172531776948,795.2501640505274,776.7385316869579
1731143574.8940594,782.6199224661966,810.7606014339157,787.1165272354018,772.6741902929259
1731143574.896,778.1568040598155,818.4183017424566,782.1148928700408,774.5058747220952
1731143574.8963337,793.9470293202712,823.3983787542259,781.7994133172976,784.1842488671348
1731143574.899406,817.9914900828043,823.5382785694098,785.1469327661832,799.2853257288415
1731143574.899905,832.792215021916,819.128941110345,789.8112871841274,814.1955489054652
1731143574.90381,829.8057835804613,812.1063353223999,793.6684004924191,823.8732394535684
1731143574.907715,816.4746614472393,804.9660973352013,795.7200557023218,827.1585663322512
1731143574.9095995,809.7641911834208,800.1271794159137,796.0891764812345,826.9367003301186
1731143574.91162,821.3589374900782,799.5957687696291,795.4577469945348,827.0596644943336
1731143574.9155252,846.8610228169679,804.3878979940823,794.542349911334,828.6251698561058
1731143574.9182606,868.2462683292217,813.7077319212826,793.9636851720952,828.7661554206975
1731143574.9194305,867.8869039631793,824.6842021986159,794.3602969275433,823.0808503343239
1731143574.9233353,842.8693481085137,833.4331488723418,796.2954617207994,809.8520744224388
1731143574.9251394,808.0840940427596,837.1129663084185,799.7375602671434,792.5995124693591
1731143574.9272404,785.5927567812992,835.545299022194,803.4702326032361,778.6068334385116
1731143574.9311454,788.5536692756286,831.0991001106805,805.1313604758423,774.204590389851
1731143574.9312484,812.042463696396,826.8950775933833,802.263158230125,780.3791617408863
1731143574.9350505,837.5870180045792,824.7445996282065,793.9343067956545,792.2709078201107
1731143574.9371152,847.6288460797782,824.369874385656,781.8306013408313,803.0251307138436
1731143574.9389555,838.55780683941,824.2961837214727,769.8444416977972,808.7848931426427
1731143574.9406793,822.2167788844998,823.4291643751127,762.1714037249196,810.6552522659473
1731143574.9428606,815.0076656346658,821.9149254295305,761.0530793752342,812.1969272045444
1731143574.9467657,823.8189210586776,820.7040633394508,765.6643913939852,815.0078038954821
1731143574.950671,840.6198620719463,820.4676596152219,772.869275582991,816.5806314996516
1731143574.954576,850.1456581855306,820.9828762064506,779.233815103733,812.4290038968807
1731143574.9559696,843.7632859270997,821.4561811962552,782.8415901625613,800.5346818751373
1731143574.9562192,827.3254215783703,821.2752322171455,783.744138019767,784.0698221625298
1731143574.9584813,816.2309835097082,820.4170979690456,783.0198628685282,769.8404367781478
1731143574.962386,822.022045620726,819.3050422407891,781.4745426328952,763.5481495820816
1731143574.9661634,841.9483807339451,818.4769554796404,779.171423583337,765.6771873967683
1731143574.9662912,860.3592945662224,818.3731181836198,776.1427735406636,771.3931206514962
1731143574.9701962,861.0786270097518,819.1660054440888,773.502661427187,774.5868380933434
1731143574.971759,840.9261931095052,820.5101712897941,773.6828006425851,772.7017270824786
1731143574.9741013,813.241782939191,821.4478578587959,779.1140100721565,768.2563738370789
1731143574.9748242,797.9017776287062,820.8533842390148,790.0222287964626,765.8795546326571
1731143574.9780064,805.3512694174437,818.3288328755777,803.1041869703805,767.7571812306993
1731143574.9819114,827.729547111724,814.8129077386699,812.653782386979,771.8055032499158
1731143574.9858165,844.8367190655043,812.1697019319837,813.9875097557078,774.1346230356411
1731143574.9872992,840.109340354641,811.8787249692015,806.9061509393871,773.1107508734536
1731143574.9897215,812.9527785293728,813.8466056869621,796.3643155246339,770.8820423133102
1731143574.9936266,777.3746819440572,816.3493815806975,789.4227229439902,771.0367541169562
1731143574.9936786,749.7282540058665,817.1742608664009,790.5497933634873,775.0602521879484
1731143574.9975317,737.502929914372,815.0793578228106,798.770355904189,781.1983019441938
1731143575.0010784,737.6672309897261,810.5482366603677,808.7028024535025,786.4307476455774
1731143575.0014367,742.6674570158797,805.4432046481302,814.4889112950158,789.0536579604361
1731143575.002839,746.7608424217563,801.9286829566074,813.5865762002916,789.4191433149961
1731143575.0053418,748.2171764449145,801.4183409608938,807.8351931045835,788.8800878019598
1731143575.0092468,747.9970240021822,804.1565370570365,801.458301048173,788.5176998097078
1731143575.0125332,747.5800293088698,809.5200395461275,797.8454345364335,788.6676134239276
1731143575.013152,747.7323959905689,816.5782521515005,797.5158351801031,789.1506139367982
1731143575.0170567,748.4311146797037,824.336377025369,798.4414459967736,789.683283370162
1731143575.018379,749.3271907185602,831.5546569010272,798.040318944168,790.1162933558064
1731143575.020962,750.1493057547201,836.6197296450806,795.1165846114354,790.451965885
1731143575.0248673,750.8290700108429,837.9676775634935,790.434142038837,790.7567143685867
1731143575.028772,751.4281555472421,834.9524191888149,785.8559879039452,791.0832481949569
1731143575.0313878,752.0257408224516,828.4824246519804,782.965546792262,791.4456598592743
1731143575.0326772,752.6592042328584,820.8216462138856,782.2064330099935,791.8328335603259
1731143575.0339189,753.3247553807374,814.5551316265705,782.9706595300557,792.229955176336
1731143575.035993,754.0034324444101,811.2960567691966,784.2976675936324,792.630066813088
1731143575.0365822,754.6817577808849,810.8929995645215,785.5154705322358,793.0341233606108
1731143575.0404873,755.3571908929018,811.646131462945,786.4321204865737,793.4460717436336
1731143575.0443923,756.0336395218367,811.4472988320058,787.1607151321333,793.8688653714257
1731143575.0482974,756.7155021684979,809.0984892071353,787.8678946618817,794.3033706959397
1731143575.049459,757.4048018883567,804.8710060328119,788.636938683864,794.7491999319818
1731143575.0502422,758.1014400012847,799.9606902054411,789.4625217395015,795.2058513253012
1731143575.0522025,758.8046325800125,795.4221106765085,790.304314865831,795.6732692106946
1731143575.0561075,759.513957455716,791.5386683258685,791.1320567610327,796.1518048036827
1731143575.0600126,760.229578235216,788.0602855908807,791.9386885965314,796.6419436539319
1731143575.0639176,760.951972598326,784.8960094211017,792.7315197032938,797.1441022607876
1731143575.0649989,761.6816165861369,782.5126408321343,793.519458966368,797.6585803149418
1731143575.0678227,762.4188504261161,781.6790238932427,794.3065296916444,798.1856091982829
1731143575.0690968,763.1639136585712,782.8224123344287,795.0921361630521,798.7254132011082
1731143575.070908,763.9170374145074,785.544438055775,795.8740652768665,799.2782419280315
1731143575.0717278,764.6784979612637,788.650345406561,796.6507881221839,799.8443734608254
1731143575.0756328,765.448594650616,790.6766602263225,797.4220225272426,800.4240998591055
1731143575.079538,766.2275743127759,790.6559728936776,798.188196647247,801.0177001857905
1731143575.0805387,767.0155737077123,788.7582850765764,798.9497753823498,801.6254059388884
1731143575.0834427,767.8126749691228,786.4216688598347,799.7069486752962,802.2473812882915
1731143575.087348,768.6191188064711,785.716316840299,800.4596699742657,802.8837595916114
1731143575.0879512,769.4355602572306,788.1109432880822,801.2078209771348,803.5347596272507
1731143575.091253,770.2630502128608,793.3571388754605,801.9513276630486,804.2008225623757
1731143575.095158,771.1024106272336,799.3682193724384,802.6901832223409,804.8826004329579
1731143575.0960786,771.9531115784749,803.4001148340418,803.4244173808423,805.5806157746207
1731143575.0990632,772.8126228122163,803.8479905130821,804.1540624348635,806.2946496068541
1731143575.1029682,773.677810554714,801.36215681254,804.8791384531767,807.0233858383514
1731143575.105823,774.5490603951462,798.3694658646554,805.5996533855478,807.7651685059094
1731143575.1068058,775.4347478620201,797.2746531056862,806.3156061584807,808.5202470468861
1731143575.1068733,776.3500185816813,798.6922399992833,807.0269888248004,809.2932194792782
1731143575.1107783,777.304102623125,801.0936940199249,807.7337941930393,810.0923841697443
1731143575.1116188,778.2793942955875,802.1283671283414,808.4360352587435,810.9228413390236
1731143575.1146834,779.2217860307381,800.4957652168309,809.1337673536627,811.775081131567
1731143575.1185884,780.0712392344873,796.824753049515,809.8270828711246,812.6196604857502
1731143575.1224935,780.8415357918905,792.9533611127156,810.516047091062,813.4237849405295
1731143575.1256604,781.6985436860377,790.4328236924821,811.2005886919427,814.1947518471422
1731143575.1263988,782.9213385133519,789.6499836252393,811.8804439189992,815.0227465166275
1731143575.1271586,784.6475717060565,790.1759056556562,812.5553073495049,816.059958297501
1731143575.130304,786.487866809225,791.6697760917576,813.2252446623685,817.3820186610574
1731143575.134209,787.3986059721046,794.2200906797298,813.8911150836103,818.7774447305904
1731143575.138114,786.3486497099793,797.7891443480611,814.5544021392769,819.6767801702941
1731143575.140738,783.8881145678332,801.5209852509743,815.2159137054706,819.5131715552545
1731143575.142019,783.6095953695769,803.8592056243838,815.8737410972739,818.5730404004115
1731143575.1426983,791.4635509209867,803.5222306331686,816.5224611501151,818.7827074805379
1731143575.1445148,811.655380027873,800.4363526764496,817.1563901173696,823.327058326283
1731143575.145924,841.2882012301123,795.7788164076052,817.7775340499251,834.4732967465106
1731143575.1498291,869.2489624454839,791.2033159611707,818.4029080563945,850.8628082685939
1731143575.1537342,882.9087001730122,788.0192138487054,819.0597464919779,867.1486670861786
1731143575.1576393,878.6404405024203,786.8684464369079,819.7595014081501,877.524428172422
1731143575.1582384,866.5138879655912,787.7568136046823,820.4602817382239,880.6551224196323
1731143575.1615443,863.1887911509825,790.0700501105376,821.056977580175,881.0786900260496
1731143575.1633694,877.7623517996153,792.5983420460941,821.4500778119635,884.8705031675772
1731143575.1654494,902.8593245037895,793.9025214718705,821.6973052678655,893.1640214984192
1731143575.1693544,919.700979824232,793.0683448190293,822.1368050571172,899.9385753163284
1731143575.1732595,913.7885386727894,790.3707524643482,823.2629380605088,896.9274604757444
1731143575.1737783,888.0353917041496,787.280204507575,825.200494412908,881.6978118388579
1731143575.175653,861.7390163942437,785.6987469228803,826.988751443946,861.4815728812335
1731143575.1771646,855.6263290385983,786.8573681207685,826.4017521603494,848.7134943157034
1731143575.1810696,875.1850804784001,790.542679804973,821.1006893090829,851.5820312975725
1731143575.1822238,906.3076338328846,795.1779195429507,810.9024415805491,867.6044159219659
1731143575.184975,927.1623939065945,798.8027120246763,799.3275014496305,885.875499285162
1731143575.1888795,926.4562932939187,800.3369542476948,792.2921045700439,896.0664609205954
1731143575.1893184,912.5502807425282,800.1699038710482,794.0467251514272,896.2562220144597
1731143575.1927848,905.5302347888706,799.5939218900845,803.4106829444662,892.9126175086182
1731143575.1966898,919.0925861374346,799.6406495576217,813.736505233237,893.7141576407962
1731143575.200595,948.0395406450025,800.4181083839891,817.0968337541563,900.3233440539814
1731143575.2010784,972.2176377948051,801.4299481414431,809.666797148151,907.6158100541461
1731143575.2045,973.368164542794,802.2699464403069,794.353994541147,909.3094685917188
1731143575.2048583,950.4799479781724,802.8096871757505,778.9087404872548,904.1651852632357
1731143575.208405,921.0311210908975,802.8083211651419,770.9699532529326,897.1529117122951
1731143575.210568,907.5619433353161,801.7015387246187,773.4256021794181,895.0824603381124
1731143575.21231,920.6498625092629,799.1327287756594,783.0745676567946,900.9086662087193
1731143575.2162151,951.4755903745684,795.8216196200176,793.2997398570567,911.3919630875737
1731143575.219933,979.1138211622069,793.7821336111331,798.7475699048576,919.5502241171592
1731143575.2201202,986.3704621828414,795.3769855864211,798.6690329309092,919.6432930908585
1731143575.2203982,971.9195629565623,801.7411907320379,796.6424543444781,910.9765353485192
1731143575.2240252,949.7829028166814,811.7187743674674,797.1327534686075,898.0370399137482
1731143575.2279303,937.1365847482339,822.1479557062631,801.6426151189804,887.1390036537833
1731143575.2318354,940.4762198226899,829.4076036072385,807.3518579927404,882.1087477681252
1731143575.2357404,951.2606085510811,831.2762528113632,809.1829045375187,882.1209671121834
1731143575.235938,954.2560928249254,827.9269679705765,803.7610457255096,883.1193417049165
1731143575.2387874,941.2699055263354,821.4804139298489,792.4376661330515,881.4401555918782
1731143575.2396455,918.5609036416237,814.5821432244315,781.1072698072836,876.5579416286774
1731143575.2435503,901.6571383763534,809.1241567676177,776.6132564273365,870.7931558115886
1731143575.2454827,902.0130771046478,805.9036791898299,781.9794956553316,866.5799688266824
1731143575.2474556,916.932234348307,805.0415370482367,793.9067800291501,864.0075755799771
1731143575.251361,931.549872481268,806.375709113104,804.672684892338,860.9358755329222
1731143575.2514782,931.4600601294892,809.3790935182103,807.2921694876395,855.4911971311188
1731143575.2552657,915.2775106194454,812.9206225245703,800.1085197923145,848.4772251525562
1731143575.257642,896.077249639603,815.4507472294513,787.3923151275409,843.233460170224
1731143575.2591708,889.9421222526522,815.6916535237809,775.8095214026902,842.7536704792416
1731143575.2630758,901.1352608553198,813.3051512006577,769.8342642770934,846.4753287213222
1731143575.266981,916.8908972811538,808.9946906611233,769.5668047497647,849.7605776801688
1731143575.267018,917.0014736827,804.0214926016133,772.0082862960687,846.987055117874
1731143575.270886,890.6810159545468,799.5676817452057,774.0796624850501,836.0011611670291
1731143575.274791,846.671865095768,796.3573070627581,774.8073483270401,820.2609953923652
1731143575.2764964,807.9973832275133,794.6126341812891,775.3271012945827,806.7352587774691
1731143575.278696,795.321085994167,794.174419466276,777.2210875394394,801.072618182766
1731143575.280398,811.837748144957,794.6190184193439,780.7447890564126,803.7017486232495
1731143575.282558,841.0900199524567,795.3447500779178,784.2957659730866,809.6803354273492
1731143575.282601,859.0805998567349,795.705797069416,785.4572199916556,812.2549071487151
1731143575.2865062,851.4972397715466,795.2693299343786,782.8217115431345,807.5346939315382
1731143575.2904112,823.2983452367299,794.1601547424768,777.2248508781958,797.0577185107784
1731143575.2943163,793.7320734060456,793.287321448717,771.3936971552617,786.5273842801819
1731143575.295351,780.9760149874345,794.1466616137428,768.1624204626032,781.6387965354637
1731143575.2980978,788.6225655151768,798.0371279635672,768.5333822226107,784.013462132784
1731143575.2982216,804.5670017208603,804.969957806686,771.0819033048934,790.2572272647337
1731143575.3021266,812.5415148631778,813.0238314256483,773.25064423542,794.8227759667377
1731143575.3060317,806.1552459221462,818.9014438979312,773.576378551126,794.352079024431
1731143575.3099368,793.6477437077307,819.7073279355498,773.0010885590763,789.9498296617094
1731143575.313638,789.8157650638792,814.924515130035,774.0248085987365,785.5546203867029
1731143575.3138418,802.3793008894569,807.132510185615,778.2916554641995,783.8884158593579
1731143575.3142056,824.3341794171163,800.7261839301758,784.7464499315382,783.5555263124604
1731143575.3153126,838.605154920813,799.329069042661,790.1913733091494,779.9137958358881
1731143575.3177469,831.3596178606933,803.6333480175216,791.9278958593096,769.148478894666
1731143575.321652,803.4919443969368,811.1716110478828,790.1038471753262,752.2070847880447
1731143575.325557,770.9962878032474,818.1295578197097,787.5168440705853,735.18461268785
1731143575.329178,753.3508703809548,821.8096733008086,787.0285172031281,725.490164057513
1731143575.329462,758.5679769954617,821.9797444533982,789.0817550081924,726.5443700853675
1731143575.33306,776.7664291405688,820.3748224795645,791.6450849787037,735.119101063436
1731143575.333367,787.8376304567893,819.0881282462303,792.4080444036952,743.5423142902972
1731143575.3372722,777.487239129342,819.2059973714539,790.9057855762437,745.1916933098626
1731143575.3411772,748.8442818860859,820.4954391387723,788.6360326308785,738.9578196373647
1731143575.3447175,720.1534418519576,821.9983789304864,787.4420295638096,729.1417202070487
1731143575.3450823,710.2972843350785,822.8678529121772,787.9620150091434,721.307323884161
1731143575.348987,723.70340846216,822.8678256062813,789.4380847407513,718.1766286604441
1731143575.3502276,746.5343443892391,822.3331832257331,790.6407598446806,718.8760555618443
1731143575.3519146,756.9424758342708,821.7604066132011,790.8553812969186,720.9831759558298
1731143575.3528924,741.1437111465056,821.4128703493737,790.2694194013729,722.6874513509362
1731143575.3567977,702.8086593187595,821.2374075368912,789.7985278695865,723.4958258552296
1731143575.3602576,659.0559482083061,821.0543627396169,790.5758873122542,723.7645506000837
1731143575.3607025,627.4336442912679,820.7572863142341,793.2054383569322,723.9841028131606
1731143575.3646076,615.0810089532013,820.3579476038177,797.0614767934745,724.3934325022806
1731143575.3685126,617.6775850131445,819.9212467311241,800.3147631874887,724.9731030321739
1731143575.370769,626.157227927957,819.497504171952,801.1656826390152,725.6043759480585
1731143575.3724177,633.7108515524019,819.1003417807383,799.6492987211335,726.1998315123604
1731143575.3757975,638.2349002718126,818.719414581784,798.3505642507657,726.7400120812713
1731143575.3763227,640.7939186682177,818.3406331049154,800.8614435288703,727.2467348048781
1731143575.3802278,643.0940793911213,817.9571212786709,808.859219900933,727.7458450845681
1731143575.3841329,646.0333595628616,817.5693946514839,820.3762059852337,728.2487000042452
1731143575.3851426,649.5953990366158,817.180809905482,831.0737369904476,728.7532707854749
1731143575.388038,653.3791048667339,816.79383035706,837.4491129224833,729.2529887359096
1731143575.3896236,657.0679609844011,816.4089773211944,838.9826447781817,729.7433921784723
1731143575.3913376,660.5793237528859,816.0255917035926,837.5937541485165,730.22367489108
1731143575.391943,663.98260405412,815.6428979936198,835.6025166772891,730.6950755210665
1731143575.395848,667.3691432205451,815.2605334892168,834.2760490342912,731.1589155800469
1731143575.399753,670.7826028902559,814.8785170212564,833.7101431980502,731.615712574285
1731143575.4036582,674.2188516722642,814.4969963244508,833.4610264650842,732.0653097633335
1731143575.4068775,677.6557917401428,814.1160581345921,833.1380359522601,732.5073618940186
1731143575.4075632,681.0774151264826,813.7356839234006,832.6199751040025,732.9416697313102
1731143575.4084785,684.4803435457225,813.3557959104761,831.9780451675156,733.3682390287057
1731143575.4114685,687.8687475849572,812.9763131502452,831.3219520226295,733.7871829173105
1731143575.415373,691.2474470540277,812.5971769264522,830.7095203752261,734.1986190911175
1731143575.4192784,694.6185554149592,812.2183471089197,830.1402014563024,734.6026339975424
1731143575.4200575,697.9817686274788,811.8397883280207,829.5887359004349,734.9993048902257
1731143575.4224174,701.3360513436115,811.4614604365044,829.0350553196851,735.3887337473176
1731143575.4231834,704.6808345314839,811.0833168052166,828.4738878250758,735.771050855401
1731143575.4270885,708.0161615545325,810.7053070883984,827.9096393363183,736.146374491975
1731143575.4273326,711.3421990717718,810.3273802188593,827.3481448648158,736.5147562867425
1731143575.4309936,714.6588251143269,809.9494856525074,826.7922286258986,736.8761823151964
1731143575.4348986,717.965804902304,809.571573081042,826.2416753541507,737.2306972560262
1731143575.4379573,721.263562071154,809.1935916546157,825.6951153040814,737.5786259863489
1731143575.4388037,724.5538800125738,808.8154895074214,825.1515537655858,737.9206949037977
1731143575.4427087,727.8393739309059,808.437213833675,824.6107923183628,738.2577430564152
1731143575.4461873,731.1209757156546,808.0587113664659,824.0731114441552,738.589900250939
1731143575.4466138,734.3945565386053,807.6799288906747,823.5388351660857,738.915720900501
1731143575.4505188,737.6504917769494,807.3008133011087,823.0081170829725,739.2324739736408
1731143575.4534974,740.8806896278883,806.9213108267081,822.4809526024789,739.5387003479933
1731143575.454424,744.0927383313511,806.5413656498499,821.9572756091952,739.8383267827845
1731143575.4549725,747.3200320383168,806.1609192103657,821.4370275652773,740.1424201724649
1731143575.458329,750.6078184870717,805.7799121445472,820.920177094356,740.4629010693392
1731143575.462234,753.9635142415508,805.3982895751211,820.4067244240765,740.7966881466389
1731143575.4650416,757.2961138389637,805.0160065777765,819.8967181701904,741.110628069111
1731143575.4661393,760.4182932828547,804.633026203591,819.3902647067845,741.3501581908617
1731143575.4690373,763.1912720129851,804.2493031530511,818.8874740349617,741.4905873372346
1731143575.4700444,765.7910892224608,803.8647578908048,818.3883154124056,741.6129708756653
1731143575.4739494,768.8698661101613,803.479266232948,817.8924699171224,741.9268719557373
1731143575.4778545,773.2370828557085,803.0927001490213,817.3993969511499,742.6363600552409
1731143575.4817595,778.8836643938831,802.7050284839383,816.908808573184,743.635775331087
1731143575.4838965,783.8840343870138,802.3164107487871,816.4214057270458,744.2507276398975
1731143575.4845772,784.5742384308177,801.9271385253428,815.9391527751736,743.4578458843661
1731143575.4856646,778.3289074660336,801.5373076000847,815.4640771347205,740.8896882523671
1731143575.4895697,768.0060613923862,801.1463403278403,814.9953815352058,738.1771632789599
1731143575.4898877,763.517305762087,800.7528539643857,814.5268284689955,739.1802195910817
1731143575.4934747,775.9702466497231,800.3555253867585,814.0485606813642,747.8325850003113
1731143575.4973798,807.1291515557313,799.9550169744045,813.5565964999,764.582504043959
1731143575.5001173,844.5917256515177,799.5555717291411,813.0663785191159,784.7243013726847
1731143575.5012848,869.692686468471,799.1635200568809,812.6160589398149,801.0100622682546
1731143575.5027509,872.486390962271,798.7807719648525,812.241137010584,809.0344832726495
1731143575.50519,860.3464900905433,798.3961024200145,811.9193339412227,810.9603677135169
1731143575.509095,852.0841732170074,797.9839688893821,811.5264157151383,814.174625580949
1731143575.513,862.3395029165874,797.5225655593672,810.8818800762638,825.5319292914671
1731143575.5156572,889.3894241480856,797.0303680466685,809.93783389788,845.528504510546
1731143575.5169053,916.4708137097062,796.5925134820875,809.0280779527958,867.0949571006802
1731143575.52081,925.3889914548525,796.3250033302868,808.9002177191358,880.3419181527363
1731143575.5216053,911.2686198184917,796.2457318218206,810.2118150731128,879.9680546682347
1731143575.5247152,886.6545441374631,796.1145186759179,812.5597898822602,869.6889838838639
1731143575.5248024,871.8146666923448,795.4283199581121,813.8480631701702,860.0123765123309
1731143575.5286202,878.9645433652267,793.7682692765952,811.0024285013735,860.7339000275185
1731143575.5311973,902.8640215631149,791.4110631817321,801.9457286926624,873.8005536635487
1731143575.5325253,925.2717611473638,789.619945868976,787.3355781939702,892.1365622304124
1731143575.5364304,929.798097340243,789.9722439091038,770.6182262018007,905.4080820803238
1731143575.5403354,915.2472693970833,792.9914947804863,756.3958775891243,908.0871667157598
1731143575.54046,896.5632571799749,797.3696935416316,748.2966376224141,903.2677649718939
1731143575.5442405,892.5360098055324,800.7148565507871,747.5685578212838,899.2938128044516
1731143575.546737,910.307938529638,801.2447217540224,752.89003194152,902.3715029359886
1731143575.5481455,939.2658186519031,798.9234324357333,761.173844800993,911.5734840700924
1731143575.5520506,959.0585306387884,795.1587186899809,768.8679549495763,920.2147649811927
1731143575.5559556,955.0823534096912,791.5406758519665,773.3148844736934,921.9139682239175
1731143575.5593145,929.2706017762063,788.8279716346855,773.7858378729322,915.9174682814263
1731143575.5597174,898.3129900518215,786.9381582701756,771.7680148672364,907.4280139823827
1731143575.5598607,881.2906893597132,785.6825148180776,770.2081743036002,903.1493019529272
1731143575.5622768,886.27513608658,785.3721278216194,771.898701405572,905.9769286810744
1731143575.5637658,905.5928750876952,786.6648648045627,777.8044582490006,913.0010303585073
1731143575.5676708,922.7587191873001,789.8081244284172,786.3498724269726,918.1062342108689
1731143575.571576,925.4494721214655,794.0336855193092,794.2109948347373,916.9315961909386
1731143575.5754807,914.4146984829451,797.7535971119213,798.2298697914607,910.3092628103043
1731143575.577817,901.4229503378568,799.5067294229253,797.3099322684552,903.5784170767946
1731143575.5781689,898.2048249620526,798.9538369588488,793.084014839628,902.3932247287513
1731143575.579386,905.8967844160724,797.1621347393458,788.8594648300123,908.3946089224462
1731143575.5832913,914.1279641519965,795.9417939598536,787.4655374754338,918.1899319572905
1731143575.587196,910.5675502238262,796.6545799081624,789.4600874020734,926.312051876428
1731143575.5911012,892.59173954567,799.282640832042,792.9923746813956,929.4976747186661
1731143575.5933568,870.824079361625,802.4241465006961,795.3734100210024,928.6554945464604
1731143575.5946324,861.2669438972692,804.2990175228796,795.0080767985597,927.1168057075985
1731143575.5950062,872.391541700358,804.1029313455604,792.1143334359571,927.0633567123675
1731143575.5970235,897.7686646359011,802.6803536853098,787.8982241986116,927.4436420855288
1731143575.5989113,920.4290916997726,801.9024883574314,783.3310441243112,925.170951485026
1731143575.6028163,925.7941108684157,803.1411056441736,778.8437570587481,918.4474763148577
1731143575.6067214,912.9531419202444,806.0402830200063,774.9850251433329,909.14914608182
1731143575.6088967,894.9833125446168,808.6529621901628,772.8673925733692,901.8650416379378
1731143575.6106265,887.7406480219478,808.9315028117251,773.4950358242032,900.0088644451505
1731143575.6145315,896.3309953999162,806.4085373328007,776.5361193376405,902.2260785498489
1731143575.615878,910.8008230145538,802.689007521909,780.0229514310835,902.5804107775257
1731143575.6184366,914.9114541895044,800.3224357157407,781.6587434849023,895.0386220790772
1731143575.6223416,900.5798925094302,800.9396011506526,780.6941504466702,878.8587848927682
1731143575.6244366,875.6009192494286,804.1081478178666,778.5966988287047,860.2078907791226
1731143575.6262467,857.9736078565529,807.7351022188205,777.8039851468726,848.1947883445707
1731143575.629547,861.4768207921192,809.5913856426572,779.6424194097553,848.1925208716943
1731143575.6301515,884.3579099824627,808.7233429227306,783.2373447788469,857.7150758013347
1731143575.6340568,910.2889680251006,805.7783229521896,786.2876664502226,868.1249384744726
1731143575.6347325,920.7091613106963,802.2612382028417,786.9127467205727,870.8471345259799
1731143575.637962,908.6205515643627,799.5149444952581,784.9496588781436,863.3596110432502
1731143575.6399765,882.9699418585601,798.1716208840579,781.745425431028,850.5565086755674
1731143575.6418672,860.4785736697984,798.2076621547884,778.910299134206,840.6471522036519
1731143575.6457722,851.8971028650902,799.2574077562936,777.3039929856154,838.7982816998186
1731143575.6496773,853.971111629623,800.8641065707335,777.0251925353795,843.3354559633062
1731143575.6535823,853.4135885504076,802.624373163911,777.9993282576754,847.3476214087771
1731143575.6535869,839.1694773891255,804.3059910953818,780.2079250869828,844.3964005397537
1731143575.6555166,812.6343370303384,805.9094438012831,783.2555998166961,833.8213280022934
1731143575.6574874,787.468111370913,807.5420998104837,786.0226197144767,821.3975595858584
1731143575.6613925,779.1289066133058,809.0851218117093,787.2711929789896,814.7427290665557
1731143575.664462,792.3299116780931,809.8946333752091,786.9562131671221,817.0800063284008
1731143575.6652975,816.3323660059773,808.9297365975548,786.8543670716394,824.4021290600826
1731143575.6692026,832.2288778840336,805.4991545143015,789.4477866237364,828.4966847135553
1731143575.6710565,827.1956730715705,800.264418069718,795.7479558776647,823.5780354021454
1731143575.6724415,804.758737295199,795.6088665905987,804.1211175427686,811.1416308074449
1731143575.6731076,782.4151832161891,794.5974781139702,811.4276859464984,798.8337617314427
1731143575.6770127,777.6768000131984,798.7987010721597,815.4317982522537,794.0040422110606
1731143575.6809175,793.5119507612332,806.5465013095642,816.1498290184217,797.300633861601
1731143575.6848228,815.5464820844497,813.4134311557815,815.1644715390876,801.9637976702672
1731143575.6865964,823.9663983825226,815.0646121579122,814.0723961383686,799.6887291647654
1731143575.688728,810.3919152774852,810.45061884356,813.5847952535593,788.102548193173
1731143575.691296,785.3666923209237,802.6746969284937,813.6165955453079,773.3571443333207
1731143575.692633,769.9222239424766,796.7019646892463,813.8029565649556,765.542059112765
1731143575.696538,778.1187632572953,795.7615101432779,813.8897824180318,770.7304175343942
1731143575.6993773,804.9807187432918,799.3331506709941,813.830328774156,786.1432051891859
1731143575.700443,829.8118076250643,804.1382321473563,813.6965015462335,802.1742247626968
1731143575.7021365,832.4341609207082,807.0253836586286,813.5663782899311,809.4977123259172
1731143575.704348,809.4345341754656,807.26983185836,813.4719357982686,805.6896166764786
1731143575.7082531,777.2283624105231,806.563934239962,813.4053646372525,796.4402241350255
1731143575.7101505,759.1090271816983,807.0093793762398,813.3466355557583,790.7174946748896
1731143575.7121582,766.5303648606505,808.9937539334234,813.2829810050048,793.7840929293709
1731143575.7160633,789.9902408883147,810.7631326741966,813.2127305258332,803.3917793693103
1731143575.7176764,807.216222072464,809.9747399942866,813.140025253231,811.8284980382816
1731143575.7199683,801.8529880220211,805.8458187497147,813.068914982127,811.946323455001
1731143575.7238734,776.9330219388812,800.0726886920799,813.0008782554007,802.4227822925537
1731143575.7277784,751.9966186777455,795.7714748366707,812.9353627634838,788.4158046193029
1731143575.729005,746.7304874104826,795.3018384732592,812.8712852123284,777.4939970112752
1731143575.7316835,765.0461443198797,798.6401881363311,812.808005593834,774.198576521832
1731143575.7332163,792.4415817531841,803.450635262061,812.7454676879775,777.2835750841108
1731143575.734292,808.0858368293979,806.7335980149406,812.6838969899911,781.4127606705906
1731143575.7355886,801.328300919131,806.8776131936559,812.6235017367575,781.7514645727632
1731143575.7394936,779.3870793045961,804.7064363247722,812.5643622706234,777.810947096573
1731143575.743399,760.4634871178164,802.7811383018699,812.5064601535873,773.480643485522
1731143575.7473035,758.32009605877,803.4353659693039,812.4497293196298,773.1735142115144
1731143575.7478597,771.1755609674818,807.0234719208248,812.3940715885127,777.3582126390647
1731143575.7487562,784.0475320210732,811.7711884438982,812.3393686689074,781.610091837143
1731143575.7512088,782.3225487943528,815.3022573946739,812.2855559894349,780.4433465700403
1731143575.7551138,764.8606620312607,816.4604304994486,812.2327595946041,772.7466751279736
1731143575.759019,745.4555591115678,815.8752438370659,812.1813645253754,763.7644038008395
1731143575.762924,741.4588793213826,815.0162079076616,812.1317998977999,761.3567705480793
1731143575.764296,759.1629897214606,814.873947708817,812.083964546579,769.3956021304697
1731143575.766714,788.042759532929,815.489537796079,812.0366516198053,783.8931363960659
1731143575.766829,808.5162122611813,816.440297268338,811.9878128700957,795.3188040868704
1731143575.769207,807.0199567447785,817.4442401415128,811.9363967762698,795.4771389628739
1731143575.770734,786.5352408927752,818.4185793236995,811.8851772832733,783.6175693006652
1731143575.7746391,764.2801175930981,819.1890307882526,811.8417740344026,767.028374085982
1731143575.7785442,758.2225495759808,819.4767370675222,811.8139803405695,755.6633719920075
1731143575.7798362,772.8997137380907,819.316881959622,811.7986380294049,754.9869237154763
1731143575.7824492,795.8444667163624,819.3273181698177,811.7716685327821,762.5507221915291
1731143575.7855687,807.6903748995093,820.2182764915606,811.6952768764825,770.7363188538154
1731143575.7863543,798.0381190666111,821.789395287305,811.5546085720484,773.1183827855635
1731143575.7902594,774.3315901106289,822.4808934271924,811.409554834822,769.1699554539852
1731143575.7941644,756.4231488552138,820.2631068681095,811.4062241691679,763.7564794356289
1731143575.795376,760.9226941584577,814.3321756553844,811.6770763160123,762.3978491919967
1731143575.7980697,787.6367800391348,806.0827636477426,812.1246655225143,766.6286389954219
1731143575.8019743,818.8643957860037,798.3573964578917,812.2411710689846,773.2246649083835
1731143575.804122,832.3219538263129,793.598085512199,811.2495498531589,777.4381962418279
1731143575.804423,817.8554792065946,792.534687770033,808.7139742541468,777.0742103450066
1731143575.8058796,784.9937359616766,794.3678025072115,805.2458826195424,773.9464284200792
1731143575.809785,755.2897345627964,797.846150573575,802.5248771938085,771.8101050525034
1731143575.810916,745.3608611854348,801.9271592423398,802.3067415639223,772.8468629320217
1731143575.81369,754.3230941820492,805.5304987869679,805.1128416876123,775.7711090876356
1731143575.817595,766.0412481316033,807.1791645842387,809.6614054204401,777.0742942409281
1731143575.8215,764.1661307350837,805.5257222185427,813.435692302104,774.2565118753416
1731143575.8232777,746.7943509699666,800.6309050949507,813.9588009988163,768.2759192656587
1731143575.8254051,727.965402201525,794.7132380599262,810.0665592723607,763.1048961208337
1731143575.8264558,724.9790820744722,791.2898614711538,802.6050155804714,762.6425641177465
1731143575.8293102,742.932918836875,793.0531166087189,794.2007696611715,767.4162571605948
1731143575.8332152,769.8885868115715,800.0344707821406,788.0881230273247,773.7773365630975
1731143575.8371203,786.4929707894979,809.4420849229994,786.5039739732274,776.3978560115983
1731143575.8390367,781.6199073806974,817.2673837172006,789.5385042086805,772.2504642500526
1731143575.8410254,761.0162100378506,820.5222174408051,795.1022056912334,762.9884778022589
1731143575.8419957,742.1516987409727,818.6818015662177,799.9623656929668,753.813417712666
1731143575.842132,739.8081892207388,813.5682763594197,801.2475465078772,749.6740463720025
1731143575.8449304,754.2862450494879,807.9400837207355,797.7583328609636,751.8133067957015
1731143575.8488357,771.8932688561813,803.8237615181276,790.6011813359416,757.4459225290062
1731143575.8527403,777.3129437114301,801.7063283888685,782.8145422482262,762.7326460545559
1731143575.8566456,767.4024269040954,801.0216618959422,777.9507140213478,766.3131300181076
1731143575.8575358,754.3964797747,801.3447182823805,778.1838081780695,770.1176283356552
1731143575.8605506,755.3695544818672,803.1322097564132,783.0458367780911,776.7214686093205
1731143575.8609867,776.8122178354743,807.250105322768,789.698817704296,785.8448031251945
1731143575.8644557,807.6518700513647,813.6518654093572,794.655861557976,793.4630621230546
1731143575.8683608,826.9180793836754,820.4728110773904,795.816380629872,794.5269731089377
1731143575.8722658,819.9274231106696,824.615459415009,793.4574030738177,786.969826677706
1731143575.8730755,790.0105363296362,823.6511827817478,789.6029288352361,773.6349589109262
1731143575.873952,756.6744415087637,817.608450447425,786.3524592991515,760.6558590059877
1731143575.8761709,741.7590330213477,809.1483361289626,784.4534419351297,753.6499437503342
1731143575.879841,753.9910996055013,801.9081609011703,783.2046438190239,754.4941756605924
1731143575.880076,783.206378541415,798.31349265052,781.79070201376,760.740251162627
1731143575.883981,808.3503566339233,798.5412889136759,780.9476199465067,767.8111035308492
1731143575.887886,813.3114057911649,801.2219542226345,783.3163881007521,772.3489528969623
1731143575.8886156,798.6867465141187,804.9366516778503,791.6517707504925,774.4244195500659
1731143575.891791,780.3918544564381,809.0517665945433,805.9297427037102,777.1015126098054
1731143575.8956962,776.1660359599125,813.3595995571883,821.8170210414722,783.6684813385716
1731143575.8986957,790.8703235522391,817.3030275008332,832.3349675993594,794.5675169863338
1731143575.8996012,812.6913431259455,819.853863978228,832.0040886454306,806.4185934097957
1731143575.9035065,823.3768713946149,820.1966630470984,820.4709622510735,814.0623893818992
1731143575.9041555,813.7918706790331,818.3914633341726,802.8087917908965,814.1808319886591
1731143575.907411,791.6083945130713,815.2490859734901,786.2835462754215,807.6720964771389
1731143575.9088666,774.7483420421785,811.5809961631817,776.0732638072245,798.8605373756986
1731143575.9113164,776.3334946957765,807.6650669462783,772.9670469666981,792.1904571018478
1731143575.9152217,793.9199034325825,803.4640455470263,774.2808378505451,789.1091615691788
1731143575.9175503,811.9407075895207,799.256216581768,776.8059014654614,787.619072236266
1731143575.9191265,815.1028449028867,795.8874160634888,779.3878666908499,784.7148422908442
1731143575.9196956,801.4071128248339,794.2928005866668,783.3416985747658,779.5641630627989
1731143575.9230316,783.8853907934099,794.749133588144,790.6556651709253,774.7438811598008
1731143575.9269366,779.6000727083155,796.6282627932403,801.5456881671122,774.4642005612397
1731143575.9308417,795.0827173812323,798.9236588311808,813.3372169988312,781.1521130188963
1731143575.9347467,820.3613063171584,801.0489558492288,821.6310186019972,793.0906861614455
1731143575.9352355,836.5801356410082,803.1437445318985,822.9823878760999,805.0299636355913
1731143575.9364047,831.0138985546707,805.6057290954425,817.1561341191942,811.4542337176825
1731143575.9386518,807.3309004423263,808.3043617502932,807.3048885033811,810.1955819667818
1731143575.9425569,782.917320188801,810.2316296330074,797.9581148315432,803.7569652458051
1731143575.9437816,775.4524824320658,809.9778279342399,792.3310978985957,797.3219582997316
1731143575.946462,789.4020136678025,806.7380014409946,790.9047646718034,794.9284275109443
1731143575.950367,813.0771964287658,801.1196425531695,792.1234650883155,796.8105300724295
1731143575.9507754,828.4403885242315,795.1428661320181,794.301641226367,800.0587558617163
1731143575.954272,825.6161973278258,791.370025138918,796.9215657865382,801.9483082262559
1731143575.955259,810.3214157496427,791.6619106667905,800.250827136373,802.8659220953208
1731143575.958177,798.2661069675851,796.2725956292326,803.91903848328,806.0030931645052
1731143575.962082,801.3059837024604,803.7723171004093,806.1614984896512,813.874878402505
1731143575.9659872,816.9598182757652,811.7832913618975,804.835833993183,824.7817721710293
1731143575.9663153,830.1669229719779,818.0256020650174,799.5592291554321,832.7542230535234
1731143575.9698925,826.022652768475,821.0386798855229,792.9999514334128,831.7045563774512
1731143575.973797,803.0246884400767,820.3132773175671,789.7727552325917,820.7094506528751
1731143575.974114,775.7077178615862,816.1216688153045,793.3448152776579,805.8770051897332
1731143575.9777024,764.0360056929424,809.4782728200466,803.2350538277174,796.6784934938802
1731143575.9786966,777.7063626242606,802.2178237989813,814.8537287235184,799.1913374005575
1731143575.9816074,807.9125344167877,796.7087926964133,822.345695265691,811.5619745919377
1731143575.9818554,833.5113005662873,794.9090620574661,822.3964770922562,825.4808091795138
1731143575.9855127,837.1216601170247,797.2259526612926,816.2015787947511,832.5902259355723
1731143575.9894178,818.4367868438651,802.1158649767083,808.2868512711952,830.6178879990322
1731143575.9929683,793.8749854270279,806.9193176051562,803.2605958975232,824.3045676700871
1731143575.9933228,782.7312069585438,809.4145520138185,802.9369336673257,820.7128406367971
1731143575.997228,791.3353281891609,808.9573360921711,805.7266343851468,823.2340834384195
1731143575.9973953,808.5067059090859,806.4421827267875,808.4044964698479,829.3564987789658
1731143576.001133,815.9049531271761,803.3021288000887,808.7206463258376,833.6057184819559
1731143576.005038,804.1190039843792,800.462438574893,806.9009009679982,832.6097459711914
1731143576.008943,780.7789793077618,798.0385020728687,805.0504605979681,827.8824039230396
1731143576.0118227,764.2833736134723,795.8521987772127,805.0850653443445,824.3298707085152
1731143576.012848,768.8998560404232,794.1814153480823,806.8932954862604,826.0895801114535
1731143576.0129352,793.4943564476107,794.0211457130268,808.2103290211295,833.1499416213866
1731143576.0136116,822.4525822515762,796.5520087064845,806.351644059511,841.2977234623495
1731143576.0167532,837.5641163224751,802.1697837956096,800.5087353457457,845.3553301905224
1731143576.0206585,831.524045043381,809.8557696329187,792.8040990490487,843.2267424195568
1731143576.0245633,812.8100168796196,817.4843085783106,787.139431161246,837.5510965963781
1731143576.0284684,798.4577297139832,822.9309740677073,786.5111531331648,833.4507498770814
1731143576.028475,800.8306391849584,825.1650083978247,790.7305392785121,834.0311211932698
1731143576.0306773,819.2309330086713,824.5365213986324,796.343062981439,837.4691821166742
1731143576.0323734,842.5910575944783,822.1935073167136,798.9517505907384,838.5141119149647
1731143576.0362785,859.3973218444145,819.2588110927919,796.2558952399322,833.444325279597
1731143576.0401835,865.362841109496,816.4090397775806,789.4876195980199,824.2006547722469
1731143576.0440147,863.4954594867637,813.9475566856692,782.2374172111162,817.7543850115333
1731143576.0440886,859.2139652595195,812.0158349151922,777.8553608134728,820.774528785077
1731143576.0479937,856.1003730590329,810.6466772632544,777.6614471080067,833.8658929265532
1731143576.0485263,854.8840970223009,809.7049088616436,781.1016441814517,850.2609204653411
1731143576.049532,854.6696837491318,808.9207935434374,786.9883059250799,860.2591847064841
1731143576.0518987,854.4414194420924,808.0602999930893,794.2234981352369,857.9987485281862
1731143576.0558038,853.7727136809327,807.0721894527339,801.5109634093736,845.2694960688057
1731143576.0595553,852.7588492958132,806.0821089096288,806.9614635176254,829.5612195651232
1731143576.0597088,851.6606727051856,805.2826606796164,808.5275675257501,818.3129823964626
1731143576.063614,850.647562630972,804.8161682470142,805.0743252972417,814.286261868172
1731143576.0675187,849.7439614446428,804.6449356148935,797.1346963346455,815.3882332349348
1731143576.0683866,848.8969053955196,804.4188191116705,786.8007457482395,817.8551602194406
1731143576.071424,848.0533984295712,803.5291526492058,777.0109335425827,819.2443211489064
1731143576.0750947,847.1936811888319,801.513509821883,770.6940126631854,819.1726911011442
1731143576.0753293,846.3247582842524,798.5594406115672,769.8933233144965,818.3886978011096
1731143576.079234,845.4608889373634,795.5485167609053,774.9189111391966,817.6617644272089
1731143576.0831392,844.6106644830788,793.465971808994,783.9633083997925,817.29042246362
1731143576.0834415,843.7749914736017,792.7176583614441,793.7646511251681,817.1846359017017
1731143576.0870442,842.9510224425815,792.9919852761839,801.2372477190169,817.1438176381671
1731143576.0872407,842.1361869802223,793.6691264621006,805.0171005613546,817.0453498860873
1731143576.0906348,841.3297471087437,794.2851331541214,805.7590971359887,816.8768773770137
1731143576.0909493,840.5323166265987,794.696685641984,805.1208245844335,816.6812835442157
1731143576.0948544,839.7448055838408,794.976035893813,804.4834615896243,816.498519968702
1731143576.0987594,838.9677771333637,795.2391088322987,804.3763260861436,816.3424312564155
1731143576.1026645,838.2013834396544,795.5469132831213,804.674093926206,816.2071027097854
1731143576.1060956,837.4455904801335,795.8983197912908,805.062098990393,816.0819314701915
1731143576.1061747,836.7003865128517,796.2660555321937,805.3453696899899,815.9610302786607
1731143576.1065695,835.9658532238243,796.6285998134399,805.5036589206815,815.8443194436923
1731143576.1104746,835.2421333553464,796.9803282942247,805.6049447825419,815.734363870583
1731143576.1143796,834.5293740344798,797.3259500775767,805.7128071317285,815.6333575742234
1731143576.1182847,833.8276950531296,797.6716630644195,805.8492607621257,815.5420558759799
1731143576.1183565,833.1371876986087,798.0204231077794,806.0047180173996,815.4602120826194
1731143576.1217148,832.4579274548493,798.3719367003375,806.1620064853543,815.3873879063451
1731143576.1221898,831.7899847025006,798.7246883080903,806.3114282467725,815.3234177106473
1731143576.12495,831.1334277798901,799.0775754348634,806.452561469142,815.2684332042829
1731143576.1260948,830.4883207190994,799.430353420055,806.5892386359556,815.2226835048066
1731143576.13,829.8547200725606,799.7832907033684,806.7247299362411,815.186380740664
1731143576.1339047,829.2326735598538,800.1367001336329,806.8600244372396,815.1596557113163
1731143576.1372547,828.6222208522341,800.4907098576963,806.9945166712292,815.1425909563391
1731143576.13781,828.0233952151412,800.8452803473734,807.1272980734382,815.1352648482216
1731143576.141715,827.4362241219382,801.200316579846,807.2579015579023,815.1377643150493
1731143576.1438046,826.8607273637036,801.5557510064222,807.386346097485,815.1501637868471
1731143576.14562,826.2969130053041,801.9115621006259,807.5128529073428,815.1724995688386
1731143576.1495252,825.7447746428787,802.2677536223222,807.637597747081,815.2047809648977
1731143576.1527946,825.2042956580191,802.624329996046,807.7606326095391,815.2470602362716
1731143576.1532714,824.6754633999119,802.9812854927811,807.8819275951929,815.2995249417781
1731143576.1534302,824.1582857622407,803.3386061679323,808.001437480165,815.3625023255562
1731143576.1573353,823.6527892790741,803.6962759783147,808.1191394124306,815.4362535517157
1731143576.1612406,823.1589771133745,804.0542805461056,808.2350404530395,815.5205813123322
1731143576.1626592,822.6767549361518,804.412607157413,808.3491734174428,815.6145758678264
1731143576.1651456,822.2058899592804,804.771243145039,808.461587960855,815.7170527582929
1731143576.1683345,821.7461067458655,805.130175519403,808.5723269395061,815.8279628218133
1731143576.1690507,821.2973620490416,805.489393101172,808.6813824488385,815.9500139463092
1731143576.1729558,820.8601367351555,805.8488894691475,808.7886591891842,816.0884276639965
1731143576.1768608,820.4353431996783,806.208662382002,808.8940094393048,816.2467103572777
1731143576.180766,820.0234729234259,806.5687057321926,808.9973888437016,816.4192999719701
1731143576.1815135,819.6232155066338,806.9289962190887,809.0990703311146,816.5876332768875
1731143576.1838746,819.2308557075888,807.2894874660211,809.1996829792963,816.7298888423123
1731143576.1846707,818.8423571871035,807.6501301167623,809.2997861577978,816.8483857315521
1731143576.1881864,818.4586679717656,808.0109230868368,809.3989805014478,816.9982356074456
1731143576.188576,818.0908089634501,808.3719626812623,809.4952332627752,817.2772782896642
1731143576.192481,817.7570606566468,808.7334152807616,809.5856832805946,817.7406300331282
1731143576.196386,817.4658556922033,809.0953519042479,809.6697184177387,818.2642380110877
1731143576.1994145,817.1902841447518,809.4575019375288,809.7528664124429,818.4886893160473
1731143576.2002912,816.8601455346866,809.819176833948,809.8469217328095,818.0330908204963
1731143576.2003682,816.4063728750791,810.1797002394455,809.9611297356736,817.031504353217
1731143576.2041962,815.8627075361987,810.5393912517638,810.0853771373562,816.6558237348753
1731143576.2081013,815.4527177841612,810.9004058139928,810.1792093708012,818.8956667172037
1731143576.2120063,815.5160718491625,811.2660268146784,810.190334606677,825.0793530035671
1731143576.2149544,816.1675494868598,811.6373828583509,810.1147219923533,833.8497894671395
1731143576.2159114,816.8285436958759,812.0089725945819,810.0657724081625,840.6127802153287
1731143576.2192228,816.138623051187,812.3679715891911,810.2630177451787,839.9203915866435
1731143576.2198164,812.8665395493332,812.7035168086418,810.8468720707348,829.6476557470793
1731143576.2231011,807.7811171916147,813.0262299308613,811.5482717847923,813.6694533764171
1731143576.2237215,804.9093936375572,813.3847876653717,811.4710815274095,800.3390798468581
1731143576.2276266,809.5689474701331,813.8564770933424,809.3612777505592,797.1504542813981
1731143576.2304945,822.8544969164031,814.5061633658731,804.4306926523159,805.2585540846699
1731143576.2315316,837.5992625121377,815.3492624148695,797.1729934966484,818.3000514211328
1731143576.235437,842.1571436174978,816.3382287587182,789.3774589641238,826.9638015256804
1731143576.2380772,830.7862136458571,817.3022126173415,783.1881011758275,825.9829471859192
1731143576.2393415,810.7012423999907,817.8123628954271,779.9457161364822,817.8594140271888
1731143576.2432468,797.5136452614242,817.1897436243017,779.67337443115,810.2351564792945
1731143576.246034,802.0713132941406,814.9088723448041,781.3427814544833,809.31725153563
1731143576.247152,820.6400633985128,811.2032661870006,783.4081290389223,815.099732843879
1731143576.251057,837.7376449991734,807.2573232569969,784.2482109061868,822.2548736807023
1731143576.254962,839.4587205783556,804.6335073048855,782.7259025665351,825.4225742327434
1731143576.2569318,825.7303206168459,804.3377202788172,779.04863439094,823.9875764882257
1731143576.258016,810.839715187702,806.2897906448352,775.3234884255428,822.25522972942
1731143576.258867,811.4481386072055,809.5198819276112,774.773600457052,825.0525419768129
1731143576.2615745,831.706760629162,812.7235636398617,779.532603909026,832.6045562892115
1731143576.262772,857.8950087208425,814.6737461706431,788.5795614552619,839.1963940244632
1731143576.2666771,867.975917138245,814.430780624636,797.8148944331771,837.2332789472786
1731143576.2705822,849.5009037415881,811.6180676668179,802.6293377258295,823.8931318739872
1731143576.2744873,811.5424831456601,806.7898048886924,801.0452651471415,804.938225414614
1731143576.2757862,779.8387993807635,801.4905090267694,794.9539858530687,791.8708016497432
1731143576.2771142,777.5430576720439,797.6642661619389,788.6778321403928,793.7953764973992
1731143576.2783923,806.4301616963337,796.6592296121053,786.2196981256077,810.0634005380433
1731143576.2822974,844.0947848641019,798.52771562357,789.1480636630264,829.771017507858
1731143576.2862024,860.160874969094,802.1078826186712,796.0816768065873,838.9932940069233
1731143576.2901075,839.0514143119996,805.7241635373626,803.5949286052064,830.4510304596213
1731143576.292654,791.5552119265108,807.952802766658,807.9444932945343,808.3633771020341
1731143576.2929313,746.5455057776351,808.0881508160855,806.9765109120669,785.0796674130335
1731143576.2940123,729.7241673581087,806.3379938177821,801.3810494267223,772.3164741871559
1731143576.2946408,745.6462504477084,803.8352573345583,794.394213332869,773.4997031239067
1731143576.2979176,776.0385656390428,802.2971159241207,789.7781647624565,782.4723270759807
1731143576.301823,794.8976286565828,803.1405699074594,789.2809805732552,789.0430414546411
1731143576.3057275,788.4302973916385,806.3863510731369,791.5141479328745,786.9709059850746
1731143576.308194,764.5567641120492,810.2581483338938,793.2207312287306,778.3487503744583
1731143576.3096328,745.0783331081535,812.1629529749833,791.8858327596886,771.236589891729
1731143576.3134954,747.4367088880078,810.5939696843466,787.5006013363619,772.7560771541835
1731143576.3135378,771.0941958671426,806.445121301454,782.1667518506927,783.3892422574161
1731143576.317443,799.1765451755841,802.4720700833733,778.2090806277026,796.945443313902
1731143576.321348,813.0315237653135,801.1767965956835,776.6493091506691,805.7660025766567
1731143576.323734,806.9760947042615,802.8309600214142,777.3134163628969,806.5635239818554
1731143576.325253,791.2754337461606,805.2836653925873,780.1563991090072,802.2776748879198
1731143576.327846,781.9519380048707,805.6796194697472,786.1322355327252,799.0263723558845
1731143576.329158,786.9139183603862,802.6636920104592,796.2955827640766,801.1396137056004
1731143576.3323498,800.169817982796,797.383179040024,809.6510771019623,808.2470195945531
1731143576.3330634,808.390587006447,792.6632670883835,821.9543036769378,816.2126120445066
1731143576.3369684,803.5539993792961,791.0980806290248,827.3483152468309,820.6174680905091
1731143576.339274,790.5123804637714,793.4299016971279,822.2260363501433,819.9049708427491
1731143576.3408737,782.8779108407444,798.2064739914202,808.2454427071935,816.0248127298295
1731143576.3447783,790.766983186268,802.7796711429118,791.6356663309049,812.5061147621426
1731143576.3486836,811.1295923786256,804.9230000706278,779.0240067330113,811.7209284455778
1731143576.3512044,829.3238742819079,804.1025552527093,773.1768180433313,813.463960138482
1731143576.352589,830.9111863937757,801.718699982447,772.1698698019534,815.7532651844998
1731143576.3548138,813.7689467316069,800.198503555131,772.3911689509711,816.9316453513981
1731143576.3564937,790.2846813489027,801.4221111821573,772.3960521914502,817.1521375491567
1731143576.3603988,777.7564266905233,805.4046475225737,774.127438203845,817.9680156348595
1731143576.362761,784.8814191765343,810.161574937531,780.6599509616934,820.4688713299763
1731143576.3643038,805.2425719348948,813.0411422830325,792.7579673913708,823.7113647232175
1731143576.368209,822.8436965538319,812.7282390721887,807.3228414772069,824.9533906530631
1731143576.3700588,825.0741546924544,810.4067154766551,818.9062442784968,821.6486640834165
1731143576.3703537,812.7121409976377,809.0072552902227,822.9540731246583,813.6343697013245
1731143576.372114,799.0026361415454,810.9467942432196,818.430561857527,803.6972471020588
1731143576.376019,798.4982193417537,816.0881235307548,808.275533065434,795.9157892242772
1731143576.379924,814.6312268418991,821.5700139239883,797.6787436964914,792.9123534710168
1731143576.383829,836.3172559211371,823.6596243492361,791.3429689058478,794.0781915597414
1731143576.3858938,846.752234241825,820.1804509666426,791.3156109975855,796.1958284283763
1731143576.3877342,837.4158145203007,811.7569965705179,796.5344643805969,796.0869323122938
1731143576.3889134,815.6635478892701,801.2197457779316,804.1528780079906,793.283053834362
1731143576.3916392,799.3617789295404,791.9156055632011,811.5814458487002,790.5232212232254
1731143576.3955443,802.6542211733693,786.2085090968802,817.7742347265546,791.4431258659581
1731143576.397676,824.2918227610346,784.9361428759436,822.9355414562298,797.1725677546003
1731143576.399449,848.0381427091908,787.7036635860526,827.1103538887802,804.8409203466318
1731143576.4014337,855.085224944572,793.4219815009518,829.0971402111575,809.724941182028
1731143576.4033544,838.7827857982969,800.6595430681625,826.916714536879,809.5339576494723
1731143576.4072597,809.9437698160192,807.8155182223787,819.6540755653693,806.9515291434145
1731143576.407768,788.3576364361471,813.3466337744198,809.0044077250809,807.6888757791687
1731143576.4111643,787.2379442050069,816.132511560083,798.8297558908592,815.3580450902202
1731143576.4150696,803.139867083939,815.8098743678403,792.7809972089708,827.6554480101107
1731143576.4169736,819.4286169829404,812.87015381067,791.9644556318408,837.4248484033646
1731143576.4189746,820.2354963523494,808.491556304976,794.700168004747,837.9065987444316
1731143576.4228797,803.3273626293701,804.1906178451419,798.4464870186464,827.8606520015757
1731143576.4266224,781.4868684712648,801.3213088935942,801.9646777380447,812.4512038504301
1731143576.4267848,771.6217256440223,800.4560366489425,805.7717147084751,799.349229766577
1731143576.4306898,780.7228672474727,800.938804656168,810.7319958482369,793.2656154980865
1731143576.4325137,800.0141485802751,801.1245341793946,816.3556874615662,793.1532464741259
1731143576.432591,811.8298581543286,799.5038014688802,820.4792032723591,794.0635901778471
1731143576.4345949,803.656289983134,796.0696691446684,820.670172484801,791.9543386285675
1731143576.4385,778.2308753364673,792.7200351777914,816.2084573669438,787.4067987817982
1731143576.442405,751.6994143216692,792.0441855785014,808.9899156653983,785.0760478773807
1731143576.445477,741.1842033920038,795.2799121593002,802.4944040531784,789.2603304607801
1731143576.44631,751.5483368924968,801.1807202446312,799.4793046961859,799.4269655930748
1731143576.4480534,771.9230838151592,806.8778443876986,800.1592725975413,809.7899033217565
1731143576.450215,784.7888299863857,810.0421741510977,802.3389876171168,813.5745512154089
1731143576.4541202,780.1896902385286,810.4748692665255,803.3745158793707,808.3769679064305
1731143576.4580252,763.4565561439645,809.832787453743,802.270675153261,797.9671333653836
1731143576.4619305,750.222686511013,809.9004853794431,800.1303732780016,789.0647391510836
1731143576.4635935,753.0195856237592,811.0053707118897,798.6992284324118,786.0114458056187
1731143576.4643314,770.5380066411304,811.8661343420729,798.4914259776317,787.801323343794
1731143576.465835,788.2938743624645,810.8377474621926,798.3287305186874,789.5427814115509
1731143576.467506,790.1893012177306,807.3902729452824,796.7721432933623,786.6934664624246
1731143576.4697404,771.7527752253543,802.5886467453836,794.1029676947397,778.5506315091461
1731143576.4736454,744.3400976825042,798.267437614138,792.8604823844,768.5003926347406
1731143576.4775505,726.5493919227231,795.7005108429466,796.12670404378,761.1652663493827
1731143576.4791334,729.4513455100372,794.9075310361832,804.8178284853335,758.8534035796166
1731143576.4814556,747.6870054610109,795.0464478190778,816.341370490272,760.1087839325585
1731143576.483186,764.0204030280448,795.3228983844087,825.977612180261,761.3975243105178
1731143576.4853606,763.7715133670183,795.5143967277477,830.0082325650344,760.3634969529375
1731143576.4892657,747.145151416006,795.7945474111336,828.0540813842218,757.8607805977203
1731143576.4931707,729.2177171556904,796.290858204647,822.8082430362981,757.2439303756377
1731143576.4946733,727.761850235062,796.9073039950463,817.6989488760931,761.8940057631416
1731143576.4970758,749.092558854848,797.4670679226342,814.6657071214166,773.2032499718804
1731143576.5009809,783.2594785754509,797.8869863557024,813.649391371951,790.2025688843041
1731143576.5020406,811.7873760783641,798.2009779411719,813.5526369282514,810.1705027252847
1731143576.502421,821.1766322466547,798.4837882325785,813.3972437395147,829.0831315900399
1731143576.5048862,811.6136453254596,798.7848174740749,812.8224181833923,841.9435519423323
1731143576.5087912,794.924701649945,799.1129514274566,811.943543614994,844.0099845487314
1731143576.5102131,784.3117274033599,799.4545228798889,811.0038243012564,833.1307075899243
1731143576.5126965,784.311761612698,799.7948529971136,810.1478979403258,811.6413837290596
1731143576.516601,788.766454448493,800.128054467636,809.3871599953823,785.9498405474859
1731143576.5205064,788.0697214091767,800.4557233873464,808.6684522890703,763.7983204870021
1731143576.520895,779.3714475026738,800.7816919224191,807.9440321740489,751.199585789446
1731143576.5244114,770.7176385941724,801.1083727768503,807.1982986983365,750.8717663189991
1731143576.5257533,774.9698319105833,801.4360739827096,806.4392083305456,762.1296059885964
1731143576.5283165,798.2112478776025,801.7640192021269,805.6798692852697,781.1877151539467
1731143576.5322216,832.6344569846915,802.0914637877491,804.9274122898906,801.7621926692256
1731143576.5361266,860.6041546311604,802.4181547105603,804.1819420302247,816.9045209162011
1731143576.5373356,867.2337550851728,802.7442210968762,803.4404764270685,822.1603686241101
1731143576.5397496,851.5001714294408,803.0698884151706,802.7005683218913,818.1478913584451
1731143576.5400317,826.9458771477091,803.3952954384562,801.9615276526739,810.1334284245067
1731143576.5412931,811.3737111824612,803.7204697463424,801.2238485763335,804.3258149907346
1731143576.5439367,813.6448855260121,804.0453866817112,800.4882230224498,803.5530117764521
1731143576.5478418,827.8807916860937,804.3700273372687,799.7549929911404,805.7775859459151
1731143576.5517468,839.4828473229184,804.6943998611283,799.0241338520296,806.6084320380463
1731143576.555652,838.0003968740906,805.0185316105379,798.2954763690263,803.592989341641
1731143576.556833,826.295732080162,805.3424535957352,797.568892268714,798.6147132039273
1731143576.558604,818.2639115389209,805.6661913252648,796.8443474511346,796.3517805151386
1731143576.559557,826.6581008393089,805.9897642849579,796.1218644851481,800.0045285540812
1731143576.563462,851.0309932460373,806.3131897466553,795.4014702031029,807.779919480438
1731143576.5673673,876.2913898880252,806.636486209297,794.6831722272104,813.2389312396175
1731143576.571272,883.9155936557474,806.9596741116336,793.9669659427578,809.7643541364818
1731143576.5722506,867.0846200274068,807.2827737670735,793.2528504518518,796.0474894177352
1731143576.572373,837.1343314931441,807.6058021795577,792.5408311249283,778.2107241560155
1731143576.5751772,815.4498823169375,807.9287717694353,791.8309005693293,766.3175754194341
1731143576.5774586,816.9161349503856,808.2516942752895,791.1230125495937,767.3101903351892
1731143576.5790825,838.2205551633765,808.5745901536503,790.4170841919777,779.6130290681406
1731143576.5829873,860.6201434619975,808.8974968650615,789.7130595884022,793.9236342900531
1731143576.5868924,865.1303446100592,809.2204626859068,789.0110199215445,800.104055875825
1731143576.587913,847.9206167525393,809.5435160562647,788.3112391467541,794.9982278501342
1731143576.5907974,823.3856389519682,809.8666226557855,787.6140316502191,784.8400584046752
1731143576.5947025,812.3350307352312,810.1896762859258,786.9193381731874,780.1334944342854
1731143576.5963132,824.9323534565567,810.5125815720083,786.2263055523812,787.1255005241553
1731143576.5986075,852.3731815793599,810.8354299963572,785.5334633174792,802.8400451516583
1731143576.6025126,874.1402625197945,811.158637139286,784.8400320815972,817.6062855853451
1731143576.6034527,874.8123428824172,811.4827901522993,784.1479628714553,822.7772738235644
1731143576.6064177,856.4520923116628,811.8080427971295,783.4627123192605,817.2103383086211
1731143576.6071656,836.2731197178514,812.1333372978544,782.789949900904,807.3883885675434
1731143576.6103227,831.6565941155948,812.4563544440787,782.1275877246907,801.5100037115991
1731143576.6142278,845.295361138651,812.7752305291782,781.458514630967,802.8172328633783
1731143576.6151676,863.163061258477,813.0918890270358,780.7555321969782,807.7580070353263
1731143576.6181328,867.0762928720653,813.4142859271712,780.0075062782339,810.1444583009625
1731143576.6189928,851.0433749539554,813.7528641161481,779.2568696812126,807.2126302075454
1731143576.622038,827.1493543510313,814.1086906585049,778.6090433833172,802.0449542808233
1731143576.6259427,815.5669957508413,814.4594934665903,778.1629133287772,800.3701409315394
1731143576.629848,826.9926947353964,814.7611235441319,777.858963030517,804.9443454281288
1731143576.6337533,852.5470633795009,814.9828237508117,777.357389836964,812.765884367678
1731143576.6340222,870.0337129941547,815.1700151393936,776.16559623843,817.5751661496979
1731143576.6345327,861.715616251322,815.4802486586632,774.1680198872447,815.2635370254354
1731143576.637658,829.1493069628717,816.1057448093321,772.3448572820915,807.3961649234901
1731143576.6415632,792.9590407855608,817.0486248824799,772.9563580415172,799.9313772390141
1731143576.6420803,777.5257039446107,817.8923049748632,778.4339750193368,798.3903043916927
1731143576.6454682,792.5761809974916,817.8869805586803,789.2609499292686,803.5481037998021
1731143576.6493733,826.0944475684859,816.4986158920561,802.5538111368124,811.0748179462717
1731143576.6500726,853.9569544321708,813.9973076551145,813.0148610461843,815.2652615617287
1731143576.6528766,858.4396084128065,811.3887637587859,815.9961536301566,813.7744293354068
1731143576.6532784,840.8934628011592,809.6309313620616,810.541831066207,809.5535886371022
1731143576.6571834,818.8992631065454,808.9444871677196,800.171608695182,808.4513942335828
1731143576.6610885,810.9150880098379,808.9514305508176,790.7278852073213,814.466769999097
1731143576.6649935,821.3944170511367,809.4012208970971,786.7036940568132,826.597765280783
1731143576.6656127,838.3713533350233,810.559621708863,788.6402408797853,839.8228673993568
1731143576.6688986,844.5596955583574,812.7507264625112,793.3980935233521,849.0525369546377
1731143576.6717312,831.6741481473306,815.560850056156,796.8967226581462,852.4153636173338
1731143576.6728036,805.8378627588006,817.6629412120905,797.1461612147497,851.4386504245012
1731143576.6767087,780.8296110710264,817.6025900561029,795.4439170851178,848.903644375846
1731143576.6769955,766.8385027257409,814.8904224049704,795.1508981139972,846.7724585528741
1731143576.680614,764.8416455682235,810.4226140975505,799.113704852015,845.5690358692947
1731143576.6811526,769.3751027032123,805.8822717230684,807.5288904359537,844.9172983266017
1731143576.6845193,774.5532005948096,802.6718979467532,817.6497957510761,844.3041351842667
1731143576.688424,777.610194124238,801.2392211704979,825.5251955335045,843.4830012324378
1731143576.690586,778.7378733824706,801.1944513663742,828.5528244943496,842.4775910657323
1731143576.6923292,779.2431522157805,801.8981069884909,826.9757367009083,841.4135087819839
1731143576.6962342,780.0838832837117,802.8795911854334,823.2495532442622,840.3818954131748
1731143576.6966925,781.4655811967443,803.7602623202022,819.9710141403564,839.4022336727905
1731143576.7001393,783.1407556427822,803.9714280149665,818.1879730223386,838.4510973837652
1731143576.7040443,784.8214633499108,802.8530494076907,817.3179632508912,837.5013063229742
1731143576.7079494,786.3821806857367,800.3098050259173,816.2982109432903,836.5410962359629
1731143576.7094402,787.8456049986701,797.4197086867742,814.6710142082312,835.5727233507014
1731143576.7118545,789.2839650178629,796.1180715237768,812.792322596716,834.603102049286
1731143576.7119105,790.7456598284562,797.8245703929448,811.375857640875,833.6368683310458
1731143576.7122324,792.2386172024504,802.0420232064814,811.0114401962663,832.6748202791127
1731143576.7157595,793.7484288402189,806.3025779699555,811.9810802288354,831.7156443221246
1731143576.7196646,795.2601028152388,807.8290006620032,814.2709102134448,830.7579752488725
1731143576.7235696,796.767778416193,805.7306727662999,817.580056496328,829.801312215521
1731143576.7274747,798.2731925480929,801.9018706560665,821.269862037561,828.8458699532935
1731143576.7277725,799.7802629572778,799.7255831008806,824.3481074831832,827.8920645790705
1731143576.7282948,801.2913844581934,801.4884179656858,825.6568133393185,826.9401640054997
1731143576.7313795,802.8067863193564,806.5566237236591,824.3691401789481,825.9902298232614
1731143576.7352848,804.3256326872014,811.8329534873237,820.6204036338665,825.0422241799747
1731143576.73919,805.8472081684712,814.1782510936991,815.7638004993781,824.0961218329757
1731143576.7430947,807.3713834462036,812.8332528925998,811.8065497576614,823.151948433301
1731143576.7433124,808.8983962356298,809.8324918288143,810.2238237736209,822.2097495735744
1731143576.7468257,810.428353758189,808.0820021278337,810.9982771176004,821.2695378441634
1731143576.747,811.9608957550893,808.7834882937185,812.6298947404413,820.3312735101141
1731143576.7471492,813.4953614003965,810.454500044315,813.062997094248,819.3949173610797
1731143576.750905,815.0315599671391,810.3597989633786,810.8424173464357,818.4605438196444
1731143576.75481,816.570718005436,807.0108925972991,805.8635236763507,817.5284196932769
1731143576.7587152,818.1155136189504,801.5168423635994,799.4454746627046,816.5988936346923
1731143576.7588522,819.6680263498994,796.7569022884335,793.6645058386238,815.6720143976956
1731143576.7626202,821.2258669228859,795.3139217111906,790.1280185467396,814.7470777319393
1731143576.7660038,822.7796996450774,797.9165630813626,788.9081282313708,813.8226660629267
1731143576.7665253,824.3175863916601,803.2944645180911,788.6278065286522,812.8977751045952
1731143576.7704303,825.8388697201642,809.0769585666944,787.9196173103167,811.97382998391
1731143576.7743354,827.3700624063238,812.9036095973881,787.0615156667401,811.0558396341872
1731143576.774392,828.9623092511279,813.2505684798094,788.0926118983433,810.1498686053203
1731143576.7782404,830.6496687055059,809.877406746628,792.9864907878327,809.2556170014471
1731143576.7817404,832.3768824064867,803.8949787660661,801.4017554806652,808.358406274277
1731143576.7821455,833.9611389683162,797.4077047630524,810.1460636692449,807.4314335277021
1731143576.7848585,835.1884500624489,792.7259583286512,815.0800187272963,806.4586404718201
1731143576.7860506,836.0829224443399,791.3475268346799,814.0484546877511,805.4723038813418
1731143576.7899325,837.1862789591697,793.1861510951725,808.4863468431332,804.5702474195942
1731143576.7899556,839.4531628928927,796.6136601243376,802.3891043258583,803.8606711719592
1731143576.793861,843.3994419392556,799.4906578009586,799.4645843814184,803.3189359050631
1731143576.7977655,847.7343816502673,800.5999848815991,800.7381698104683,802.6481712419362
1731143576.8016708,848.7302380766233,800.4131937398737,804.4281207190548,801.3528666374216
1731143576.8037128,842.0695130458249,800.5183599200763,807.8970035233323,799.2054663196708
1731143576.805472,827.2962907414216,802.131067232511,809.7244258796061,796.9627692904356
1731143576.8055758,811.1940592401425,804.9380594522531,810.1125835857652,796.6643944153661
1731143576.809481,804.7100938805122,807.2620181832755,809.7105629466469,800.668308612148
1731143576.813386,813.4684121200506,807.3767901408089,808.5065868193009,809.453729207892
1731143576.8166552,830.3791674661239,804.8229032823455,806.039000722427,819.8372370169136
1731143576.817291,839.2353141476257,800.6777582910306,802.4195625450014,825.782823720175
1731143576.821012,828.0592709237856,796.7394742093135,798.7119679165983,822.157926947192
1731143576.821196,800.8299237480022,794.4477187979597,796.1577264967365,808.9610505754404
1731143576.8225677,776.4747491276381,794.3336146722373,795.2105776305431,792.4605310648083
1731143576.8251011,774.5742458233997,796.1254692745725,795.4051261293168,781.635630940924
1731143576.8290062,798.9953486139316,799.1319982107831,795.9591578142458,782.0505742142768
1731143576.8329113,833.4186226527121,802.5465697876494,796.3545445721883,791.8201403983724
1731143576.836552,853.40328645773,805.5884270928093,796.4815590978351,803.1064788719898
1731143576.8368163,845.6055007469145,807.5702032011517,796.4651778841568,808.1461607348348
1731143576.8407214,818.2510663676879,808.0112253491413,796.4500956876612,804.9299409203533
1731143576.8414218,794.1244573207766,806.85523442184,796.4980546719385,797.9918750521921
1731143576.8446264,792.0667989561849,804.6750780379604,796.5962136374113,794.0554479778995
1731143576.8485315,812.3187271826519,802.5734980330011,796.7075645531992,796.5458063237867
1731143576.85157,837.232282474661,801.6180428184717,796.8077735706772,803.4781574003146
1731143576.8520918,845.9445030735243,802.1066325482111,796.8931199123738,809.9341671821705
1731143576.8524368,830.7518127418533,803.2725890175951,796.9710360685572,812.4657533721164
1731143576.8563418,802.4306249372747,803.7647597524603,797.0490754415283,811.5684622680172
1731143576.860247,781.0268834177648,802.5872538876283,797.1300957424818,810.4552956195853
1731143576.8602765,779.9578003443063,799.7944749563576,797.2131228672098,811.6416870691573
1731143576.864152,796.0588914534445,796.4506210653817,797.2961161589668,814.5329963968608
1731143576.867632,813.1136079303983,793.9282814226981,797.3778231339662,816.0584636693011
1731143576.868057,815.5630570321999,793.0645255126719,797.4580847377144,813.6009651375268
1731143576.871962,801.0871251418124,793.7472259029082,797.5372852249329,807.5095580491911
1731143576.8758671,781.9646970707149,795.1895979916522,797.615778803964,800.989153892523
1731143576.8791313,774.4983466015192,796.6657435407036,797.6936627078406,797.563172101025
1731143576.8797722,785.5038952625786,798.1220811272761,797.7708359345891,798.398727355091
1731143576.8831718,806.9033106467824,800.13680026822,797.8471389629954,801.7565948904515
1731143576.8836772,822.472274792285,803.2195512924703,797.9224431276018,804.8432741164636
1731143576.886485,820.9260678014816,807.0642099922059,797.9966784591562,806.2563135425206
1731143576.8875823,804.7664696467496,810.510968607014,798.0698425668081,806.8236075600715
1731143576.8914874,788.0169903144205,812.38857480159,798.1420053550924,808.1751529539979
1731143576.8953924,784.863518953237,812.5465566045253,798.2132689857174,810.4661955580846
1731143576.8979857,798.3349199178714,812.0895977782278,798.2836365197265,811.4957386983231
1731143576.8987117,818.0511682142849,812.4751227521334,798.3528346601536,808.2792641919423
1731143576.8992977,828.7959964312147,814.1840406446698,798.4202872862408,799.8911533024702
1731143576.9032023,822.9153753832529,816.1355627236677,798.4854887128524,789.0526892809236
1731143576.9071076,806.3790086140169,816.4338081306223,798.5487727831052,780.8108298463206
1731143576.9110126,793.5567252729452,813.9167208790225,798.6118872104853,779.0963490178627
1731143576.9142516,795.195755199326,809.2906367125199,798.6772781947093,783.8210420964024
1731143576.9149177,809.7460001835252,804.9190951964678,798.7454120362452,790.8024374292871
1731143576.91684,825.1414407063608,803.3279644590249,798.8114222102805,794.6009458793156
1731143576.9188228,829.088814729653,805.4436959545151,798.8650614879772,792.2574834955701
1731143576.9214,818.7847803618126,809.8374842031425,798.8984140237401,785.4159933621847
1731143576.9227278,801.9537136514132,813.6052344060339,798.9204521070258,779.4004225823284
1731143576.926633,789.2425383041025,814.3494427228266,798.9663606050041,779.6608940613592
1731143576.9297917,785.7536257155126,811.8532534223237,799.081146433319,787.7573633386004
1731143576.930538,789.1354301904485,808.1782643333552,799.2672883537472,799.7480680191685
1731143576.934443,794.001865483002,806.0784906550524,799.4249506958607,808.5643954593681
1731143576.9356945,796.802485735921,806.9267065150068,799.3621898874959,809.0068589174074
1731143576.938348,797.1496881032667,809.7177235344462,798.9543401484269,801.6293306158867
1731143576.942253,796.3597221755659,811.836681190613,798.4223882925473,792.3972850124179
1731143576.9453316,795.6919621553618,810.919993975495,798.4946348486887,788.4234752787542
1731143576.9461582,795.6052134909362,806.4128158542235,800.096037040742,793.2423943681538
1731143576.9500632,795.9309867586448,799.8156290216112,803.4955769026074,805.0897560785396
1731143576.9539683,796.337559819667,793.6441508540513,807.5744378662334,818.7860059549862
1731143576.9545493,796.6306664278861,789.9540543312098,810.2164646718475,829.0532320443904
1731143576.956315,796.7966029757682,789.4008363820953,809.8330380861314,832.7894925160084
1731143576.957873,796.907854730805,791.2906958425443,806.6086400549888,829.5163386250418
1731143576.9608717,797.0286521802208,794.3680513296042,802.1764254169121,820.7224177654333
1731143576.9617784,797.1795267968348,797.6509605553697,798.1171107450123,808.9374554675737
1731143576.9656837,797.3493794404313,800.720590967188,794.8644938405201,796.8042316902522
1731143576.9695885,797.5204330508029,803.3970226675951,792.024193486055,786.298156483579
1731143576.9734037,797.6831328990035,805.2814239292463,789.5467924311745,778.4768181446883
1731143576.9734936,797.8374140450859,805.749145149592,788.3132670340357,773.8551988858842
1731143576.976411,797.9873128787464,804.5019024582579,789.3649906018263,772.7347794183233
1731143576.9773986,798.1360813736381,802.1352050380098,792.5200776715297,774.7431108156327
1731143576.9813037,798.2845740723429,800.0239865271838,795.8818014078415,777.9853662202721
1731143576.9852087,798.432064613977,799.4399430795902,796.9509836871644,779.2626422280836
1731143576.9891138,798.5776153851848,800.6323244727664,794.4950445354667,776.1288825522862
1731143576.99123,798.7208299230944,802.7358179399198,789.5543193608241,769.4780989932151
1731143576.9919512,798.8618270969852,804.5931427115008,784.7020618075104,764.1095319561753
1731143576.992258,799.0008149021717,805.686871933172,782.171718618174,765.9486254062712
1731143576.9930189,799.1377043886355,806.314177459822,782.3710697155145,777.5006869552053
1731143576.996924,799.2720716079474,806.956873319385,783.9279338497938,795.1229040361607
1731143577.000829,799.4035864082423,807.620977997974,785.1590864198097,810.7768463739359
1731143577.004734,799.5327152865647,807.8998797293868,785.7208833680945,817.4314213340058
1731143577.0074914,799.6610592877765,807.6823700258061,787.0298044557255,814.0356901553146
1731143577.008639,799.7904481642216,807.6413227066021,790.9894717123625,805.9964504769116
1731143577.0111127,799.9205271927026,808.7666217215688,797.9626097625226,800.7000141225977
1731143577.0125442,800.0463595138557,811.2279170946109,805.6936171245886,801.7845166232269
1731143577.0164492,800.159531739665,813.74644454459,810.3100027512652,806.8848159385366
1731143577.0203545,800.2557818589439,814.3532112674055,808.9277594353496,810.5012020740796
1731143577.0230312,800.346703789683,812.0400943106189,801.9896704713617,809.2118256865675
1731143577.0242596,800.4639231477183,807.7767050099702,793.4670601701725,804.5756511429709
1731143577.026145,800.6396916275833,803.8751042813684,788.5491117937642,801.3516577021204
1731143577.0281646,800.8608306824922,802.2782167620164,790.2984362208283,802.9465971520436
1731143577.0299673,801.0276204868455,803.3358875455446,797.5700201095149,808.3905038235052
1731143577.0320697,800.9839461758211,806.0155141800751,805.6990548511676,813.5324243265451
1731143577.0359747,800.6693719113109,809.0406788778397,809.6047816139456,815.1451238154939
1731143577.0385711,800.33372204322,811.7195405072756,807.2398351153093,813.9768760338213
1731143577.0398798,800.5848671271598,813.8385399167562,800.9198146346898,813.8978988999703
1731143577.0437849,801.9781128882428,815.1200886310328,795.454095208303,818.0164356773544
1731143577.04769,804.1333191078342,815.1240318067684,794.3856467267829,825.4433340163191
1731143577.0488217,805.0284097443065,813.7925566522531,797.2516520150198,831.7140110557443
1731143577.051595,801.704766150637,811.9544212193714,800.1137488996197,832.4955441965704
1731143577.054111,793.1534923806475,811.0302002710299,798.9782055746069,827.278206149274
1731143577.0555,783.8383295886428,811.9802733150558,793.2835216466964,819.8362341087186
1731143577.059405,783.4932640747642,814.3461839159907,786.5543885543352,815.1454669146802
1731143577.06106,800.1442417989838,816.2559218750514,783.7292338480971,815.5617724692469
1731143577.06331,830.7916266158738,815.5268751568169,787.4348426570848,819.5782379376362
1731143577.0672152,859.8204976533959,811.1706956973601,796.1992006892618,823.8447969419606
1731143577.0676763,869.498402663307,804.2879940323548,805.7825530854075,826.0480965087179
1731143577.0696511,854.5610186665357,797.6943731931365,812.2232076218761,826.0339632711167
1731143577.0711205,827.7268567569236,794.4083942982274,814.0748695775796,824.942791190599
1731143577.075025,810.4404098387187,795.905299976807,812.3734502976977,823.8797027688219
1731143577.0789304,815.9189177021767,801.2839380891859,808.9212167385858,823.2834294568145
1731143577.0828354,838.4201649534447,807.9249467384449,804.7068958650136,823.0449107982981
1731143577.085191,857.7710046517077,813.145327827769,799.8188634341958,822.891930443566
1731143577.0865307,855.6316580463588,815.6221075843558,794.6465175543578,822.6535850534808
1731143577.0867405,830.3055121226339,815.6313488849479,790.9117460743389,822.3097446617313
1731143577.0906456,798.2343088701246,814.1943140957344,791.194314647484,821.9178074185393
1731143577.0945506,781.2776591676935,812.0707407133281,797.0034205153835,821.5326782838235
1731143577.0959747,790.1596356519087,809.4514534510738,806.9101025578688,821.1739000151443
1731143577.0984557,817.0251827804129,806.3822894219535,816.4966034109891,820.8336100424457
1731143577.100731,842.3632304690897,803.2596130450469,820.5980795491485,820.4970804162449
1731143577.1023607,850.1980727429857,800.8008960151242,816.482955243719,820.1558344543
1731143577.1053853,839.3780754760368,799.5436762949324,805.7225229202345,819.8093776814441
1731143577.1062658,822.4448643878457,799.4391018626882,793.3377429371853,819.4609535934219
1731143577.1101708,813.8511253499398,799.9540445241313,784.7942276683237,819.1133831449305
1731143577.114076,817.965673572453,800.5171206833033,782.9611337199992,818.7675398592327
1731143577.1162708,827.1387813510757,800.8501044683678,787.0065242367943,818.422910590909
1731143577.117981,830.969272324823,800.9732861434233,793.6013176912321,818.0787023660198
1731143577.121886,827.6692540630123,801.0254736576164,799.2012652990943,817.7344923452895
1731143577.1242397,826.4430413237162,801.1106258972168,801.8023589665446,817.3902752854763
1731143577.1257913,838.172600717919,801.2530742358331,801.371815984051,817.0462223658618
1731143577.129696,862.8244008405204,801.4278237246726,799.1841721299919,816.7024666380933
1731143577.1308897,885.5815098912838,801.6043308862928,796.7712075756057,816.3590339820398
1731143577.131811,886.4163164886473,801.7687654043513,795.100830657037,816.0158797690223
1731143577.1336012,856.0643844068625,801.9231285232299,794.3068926407028,815.6729480869287
1731143577.1375062,805.2936779409397,802.0749795356265,794.0055750906176,815.3302036677068
1731143577.1414113,759.1991722725109,802.2295461877754,793.9192929996433,814.9876320756244
1731143577.1430943,740.1591000792879,802.3877899416648,794.2663552283612,814.6452260112121
1731143577.1453164,752.3753724580259,802.5482398276189,795.4862813295781,814.3029741122594
1731143577.1473508,779.9089163853405,802.7093003003201,797.483625798213,813.9608579510121
1731143577.1492214,799.5465333739985,802.870320777206,799.1954518091845,813.6188548930799
1731143577.1531265,798.289477681253,803.0314646238795,799.1711792657052,813.2769422772313
1731143577.1570315,781.9869777313284,803.1931440659587,796.9025023809679,812.9350995906341
1731143577.1609366,768.9906042560879,803.3556218251856,793.7224415043612,812.5933071459335
1731143577.1619487,774.484649123659,803.5189335260636,792.2175416791429,812.2515416150237
1731143577.162891,798.005115883648,803.682996337267,794.3455631507748,811.9097713741943
1731143577.1648417,823.6811668590999,803.8477290916305,799.7843099058421,811.5679573854841
1731143577.1658046,832.778713113808,804.0131012874205,806.0882533739582,811.2260647893987
1731143577.1687467,818.8003475044227,804.1791206356673,810.5958047092078,810.8840822138833
1731143577.1726518,793.3179318652628,804.3458037954177,812.2637323613073,810.5420310877364
1731143577.1765568,777.4716903130234,804.5131622043932,811.8499708294518,810.1999384335886
1731143577.1784306,785.1819326788036,804.6812065740248,810.7617134277855,809.857764438425
1731143577.180462,811.30904220443,804.8499534317533,809.9540300554102,809.515330166387
1731143577.1808033,834.9032902001204,805.0194147958581,809.6390419992789,809.1723506808247
1731143577.1843667,835.7664639553792,805.189568836976,809.5926538963249,808.8286652508557
1731143577.188272,811.2101555182833,805.3603383653874,809.5483975442444,808.4845914583361
1731143577.1921773,779.0435966446184,805.5316241311101,809.3897587389002,808.1410528515476
1731143577.1939704,763.8399799156439,805.7034174875146,809.1380318782709,807.7989942363735
1731143577.1960824,777.3715806881645,805.8759318258735,808.8606293586785,807.4579896720188
1731143577.199658,809.0245461299833,806.0495848247087,808.6027365333929,807.1149958584647
1731143577.1999874,833.9444559954667,806.2246588769863,808.3717848769222,806.765256012529
1731143577.2007196,832.4777912720868,806.4007067568846,808.1543551873162,806.4068929956378
1731143577.2038925,805.5902146516358,806.5762290626607,807.9364667189841,806.0474086003503
1731143577.2077975,774.1191399113835,806.7494531313163,807.7126470820873,805.7051694792505
1731143577.2095106,762.3990113571762,806.9205423044082,807.4845135533612,805.3970687372728
1731143577.2117026,779.240071792693,807.093921390549,807.255732855386,805.1119593432937
1731143577.2156076,811.5155116855319,807.2774923143011,807.028573685117,804.7895996916086
1731143577.2185123,835.414829905736,807.4757562453146,806.8032979512221,804.3430140598439
1731143577.2195127,835.8262038538467,807.6787615377916,806.579152527551,803.7493047398269
1731143577.2234178,817.6840917423805,807.8574196989131,806.3554292583701,803.1675545359217
1731143577.2250504,800.2639828972231,807.980486220089,806.1318919643895,802.9478947738593
1731143577.2273228,800.0064445876318,808.0573844032958,805.9086645536574,803.3727470403126
1731143577.231228,816.7220397019911,808.1792821495753,805.6859574053741,804.146692297468
1731143577.2351327,834.3737907325246,808.4975634133355,805.4638951958632,804.0294869697499
1731143577.2356346,835.0396836786709,809.0915483370806,805.2424958998342,801.2937599546066
1731143577.237367,814.1698772191115,809.7819348578805,805.0217278847549,795.3073020039566
1731143577.239038,784.9164164488504,810.0901053272177,804.8015648906173,788.2556189384215
1731143577.2405903,768.323295573042,809.506715503216,804.5820057409322,784.991409693107
1731143577.242943,777.0748399086596,807.9071371643411,804.3630665726698,790.0817417691661
1731143577.246848,805.4035530918911,805.7015470823894,804.144766107342,803.9588028669439
1731143577.2507532,833.2259932037998,803.5533888518073,803.9271171378939,821.6098562591322
1731143577.2546582,841.6429289715419,801.9816852592841,803.7101260130959,835.45740241862
1731143577.2561302,827.6856702357337,801.2506565660731,803.4937958811911,840.4775975655971
1731143577.2562215,806.3091531501517,801.5440264629162,803.2781295037425,837.471770012956
1731143577.2585633,797.7687518590096,803.0529510863477,803.0631300902023,831.7725606578879
1731143577.2624683,810.6541426804412,805.7466559895848,802.8488007349781,828.5071783961025
1731143577.2663734,834.658453194242,809.0815760066255,802.635143642427,828.4827429086387
1731143577.2702785,849.130411910918,812.1140952537397,802.4221598732571,828.112783841116
1731143577.2705495,840.2948676833329,814.0789371991391,802.2098496291436,823.1686505294879
1731143577.2716703,812.8772714826019,814.8982743142093,801.9982125855756,812.8505053464227
1731143577.2741835,786.5988236980729,815.034241865446,801.7872476678529,800.6199063739538
1731143577.275076,780.4299191716493,814.7692514156348,801.5769520506539,791.2654933736851
1731143577.2780886,797.3757870239646,813.7111152675488,801.3673200443169,786.9668771351281
1731143577.2819936,822.1241000994335,811.2091797585928,801.1583434494946,785.8497609315316
1731143577.2858987,833.529927065023,807.3873845745692,800.9500148050453,784.2030653536075
1731143577.2872102,821.8212595091319,803.6481494337531,800.7423325958283,780.2654603385884
1731143577.2898035,796.4264114734916,801.8433219742761,800.5353034177601,776.1365036485763
1731143577.2937088,778.0301769003487,802.6881416441547,800.3289339174182,776.0657810495063
1731143577.2939303,781.5744965697074,804.9687799724613,800.1232106790562,782.5684552071777
1731143577.297614,804.2830968074936,806.4705190817809,799.91808133023,793.7108368595782
1731143577.301519,828.2667095407501,805.8553964140677,799.7134659634726,803.9545050794136
1731143577.30275,835.0828019103699,803.7282838675737,799.509322493843,808.0264825794363
1731143577.305424,820.1882162903412,801.924114997294,799.3057424965701,804.7973496512138
1731143577.3054645,795.9193733892508,801.7972523423498,799.1029786464903,798.0742274042357
1731143577.309329,781.1822652339905,803.1813849673572,798.9012731471785,793.629268414811
1731143577.312785,786.4550650011599,804.8555350045198,798.700472576927,794.7949431315922
1731143577.313234,806.0217945592724,805.7830099963093,798.499705731513,800.1263985272228
1731143577.3171391,823.3565138550248,805.8160726771494,798.2976763578617,804.9450989192098
1731143577.31829,825.0438234148115,805.4357171014318,798.0939609162427,805.3810379854182
1731143577.3210442,811.7760773186765,805.1325207482711,797.8907580377206,801.4939172900242
1731143577.3249493,797.3932016768,805.0834385030338,797.6931457072159,796.918753459807
1731143577.3288543,796.8870201907245,805.2104375606078,797.5054927871978,795.5014311182333
1731143577.3316395,813.5507462381908,805.3715088057388,797.3241401154507,797.9303467991151
1731143577.3327594,836.082731696968,805.4848502399988,797.1320423366413,801.2503793031027
1731143577.33383,847.9441397719771,805.5453097266926,796.9057613655106,801.5740869307327
1731143577.3366644,841.0210134328989,805.5837818123724,796.6410323973109,797.5814732119647
1731143577.3403797,822.2443180686005,805.6273046942148,796.3843818391631,791.79566545956
1731143577.3405695,807.7943670681319,805.6843419662905,796.2328852048271,788.5382717326485
1731143577.3444746,809.7434907619069,805.7500699554438,796.2602234296345,790.2924085728689
1731143577.3483796,826.1916206226971,805.816955097341,796.3789765170507,795.6257706426027
1731143577.34937,843.1273121372151,805.8809943467469,796.2554157843629,800.5928652425143
1731143577.350494,846.5525869733458,805.9421916880685,795.4723378302673,802.5171319598956
1731143577.352285,834.6610005635326,806.0022592279508,794.038528805026,802.769111720281
1731143577.3561895,819.4816897024161,806.0625616904747,792.9833393694752,805.7667783373047
1731143577.3600948,816.1921218465325,806.1234499073317,794.3442180210637,814.6965105937387
1731143577.3639998,829.1288048329159,806.1846079535883,799.9424124314052,827.6248701435825
1731143577.36491,846.8783890224729,806.2456192909675,809.4484030186925,837.7316227035619
1731143577.367905,851.310707765455,806.3062733293241,819.5745551194034,837.9922955602752
1731143577.3693483,833.3452687673221,806.3665684138391,825.8201299982742,826.706107903374
1731143577.3718102,802.1614236361132,806.4265815651128,825.7041819033223,809.3553757054805
1731143577.3752944,779.6755524214283,806.4863617171169,820.5881516079609,795.1846794257995
1731143577.3757153,784.0457442623494,806.545900702516,814.3693956064678,791.0315800337371
1731143577.3796203,815.0231208750712,806.6051589991356,810.2696178472007,796.9492753832631
1731143577.3804498,852.9761542488062,806.6641027751085,808.5778021522123,806.6853956737814
1731143577.3835254,872.951914707463,806.7227223863688,807.1587249668653,812.4670102252678
1731143577.3874304,863.1528914336055,806.7810219233814,804.0131906636026,810.48783979261
1731143577.3882031,833.3055191417815,806.8389858144129,799.4455515084746,803.1396793569785
1731143577.3913355,806.2297866259751,806.8965464696158,795.876675221289,796.5770558605195
1731143577.3952403,799.5124735853447,806.9535935652721,795.556480078461,795.7246901867285
1731143577.3959897,812.2408650645493,807.0100579077174,798.381910513199,800.6228955983668
1731143577.3991456,827.2893072897076,807.0660431872406,801.898578667013,806.724152685562
1731143577.403051,826.5122828561886,807.1218784319566,803.4674501506063,808.5805094492126
1731143577.4069557,805.8167289004939,807.1779119795896,802.5402203108848,803.9097415152686
1731143577.4070575,778.0765983197244,807.2340050729924,800.9537670584225,795.0781883520814
1731143577.4102092,762.4807064471304,807.2890630182847,801.0492294132371,787.2278089674829
1731143577.4108608,769.5916867928958,807.3413348546886,803.3659375111124,784.7320985032201
1731143577.4115298,793.8289421277468,807.3900649242107,805.9461019162043,788.6343893179741
1731143577.4147658,818.5351071261301,807.4378886331416,805.8647266880984,796.7134655957097
1731143577.418671,829.0283391829657,807.4914768998658,801.7919964850504,805.7160201843591
1731143577.422576,823.2630089634282,807.5571691704782,795.5764337678577,813.6829260133992
1731143577.425912,811.8946580671274,807.6312947182608,791.4862657468507,820.4293613889968
1731143577.426481,808.048690330362,807.6922034715392,793.3829722844837,826.0393954873336
1731143577.4270697,815.4386346477764,807.7078512212523,801.7004027981237,829.1577906087033
1731143577.430386,824.8572158632485,807.6685225858163,812.560480736289,827.1130115434469
1731143577.4342911,822.0803057359828,807.630396464292,820.0541230957677,818.1544302446023
1731143577.4381962,800.6009732856164,807.7207839266817,820.252160884269,803.9191114073052
1731143577.4421012,768.5042212636736,808.0458978702395,813.8237803931245,789.7114539218587
1731143577.4426095,743.6255808753832,808.5038311756988,805.0930874170454,781.8330197318692
1731143577.4447668,740.6546737358726,808.6424021650042,798.5238193727315,783.6217967994355
1731143577.445124,760.1816812235799,807.8081324299968,795.8738167435771,793.0673191318346
1731143577.4460063,788.1484986772376,805.6947611206923,796.1136590878597,803.9618176750727
1731143577.4499114,806.3055887707594,802.9296037369216,797.2505472649902,810.1222508298275
1731143577.4538164,805.8665546205929,800.9831489949185,797.9500210195954,809.8171575160295
1731143577.4577217,793.709469412468,801.1533758926644,797.9382414052087,806.9399350020767
1731143577.4581494,785.9023768198492,803.4215282671389,797.5500876422051,807.6324409162999
1731143577.4616263,793.587505615033,806.322662451863,797.1668907353708,814.7845881750901
1731143577.4636211,813.0385997939688,808.0488057171914,796.9497380934029,825.0106519022644
1731143577.4655316,828.5842310448626,807.8140653294979,796.8637587681459,830.9879962185886
1731143577.4694366,826.1453223040759,806.3197591992526,796.8114263762942,827.5331553200729
1731143577.4733417,805.8405404451933,805.0391666048242,796.7291429457841,816.4019710941824
1731143577.4736896,782.7574263655525,805.0298051899102,796.6075986269449,805.6406400387671
1731143577.4772468,775.0350546318977,806.2115697799661,796.4666170218305,803.7384703675344
1731143577.4800391,789.1160991538092,807.5220412655373,796.3261450111179,813.095901529257
1731143577.4811518,814.3641598579319,807.6885797921342,796.1937084259432,827.9415727383788
1731143577.4824758,831.5002571903115,806.0411082092292,796.0667816535,838.4055912238634
1731143577.4850569,828.0207517254927,802.8849846778063,795.9400862981992,837.7115279568882
1731143577.488962,808.0255109757993,799.2704794051278,795.8104485239368,827.0095936896805
1731143577.4892294,788.319417023051,796.3522728647075,795.677574009957,814.1204659789424
1731143577.492867,783.894170442774,794.7703100532348,795.5425863589676,807.1620834198613
1731143577.496772,794.9398894411918,794.4420815140813,795.4065172514454,808.1009788592482
1731143577.500677,806.6239201489279,794.8260531386999,795.2697133920307,811.4049406985566
1731143577.50133,802.2468128845079,795.3651329756144,795.1319975238471,808.912689453824
1731143577.5045822,778.8061897992911,795.7653778522993,794.9930468634327,796.9981024117296
1731143577.504769,751.5330322512822,796.0006485963802,794.8526416914685,780.2235824872905
1731143577.5084872,742.987681171467,796.1668338978269,794.7107416403727,768.5006517427927
1731143577.5123923,765.2021064903043,796.3493023222107,794.5674823829972,769.9531174434443
1731143577.514954,809.2336962163057,796.5745699899285,794.4231287429842,784.9862799632788
1731143577.516297,850.6170744782797,796.8269711152979,794.277918961647,805.9694668875968
1731143577.5201848,866.6467169157055,797.0823987016751,794.131762466711,822.5453293610151
1731143577.5202024,852.3032790118316,797.3281527686798,793.9839723519701,828.4511435332172
1731143577.5203092,822.8204015562845,797.564367557438,793.8334675845487,824.9115613054167
1731143577.5241077,801.1981316657826,797.7966136096535,793.6798016024607,818.4906873011224
1731143577.5280125,800.5299475356853,798.029323996954,793.5246403862875,815.4877174991603
1731143577.5319176,814.9601368238723,798.2636806500108,793.3721435797103,817.3769049712887
1731143577.5358226,826.1328070919346,798.498737901376,793.2262348285428,820.6672296685006
1731143577.535849,819.4939560973926,798.7332352611628,793.0845966085955,820.8524193955278
1731143577.5390394,796.963436162413,798.9665737038089,792.9337712851283,816.8473219043061
1731143577.5397277,775.7343753972332,799.1988223762589,792.753958357788,812.0952513751492
1731143577.543633,774.3554917371777,799.4303043574146,792.5394001741812,811.4635585483134
1731143577.547538,797.3599552215634,799.6612603083046,792.3254079555659,816.6389827954328
1731143577.5498693,830.6906262259494,799.8917557580846,792.1915699294128,824.0363594383741
1731143577.5513892,851.6953183258922,800.1217510357372,792.204945458494,827.2012996027901
1731143577.551443,846.1899695193981,800.3511974095167,792.3064065228639,821.9743754314378
1731143577.5553482,819.4269980672701,800.5800844130698,792.2305308841957,810.2826732394991
1731143577.5578938,792.100998213441,800.8084366093976,791.6218412587097,799.2972996020978
1731143577.5592532,784.0096255517182,801.0362906298761,790.4445225849264,796.2671137010664
1731143577.5631585,798.1728653631599,801.2636780663371,789.4966992900232,802.899506683327
1731143577.566929,818.6025775370246,801.49062155854,790.4738287067414,813.8341307165514
1731143577.567063,824.133098594612,801.7171390003109,795.0553877653642,820.7365384708459
1731143577.5709684,807.0794091420719,801.9432486186128,803.3307530268144,818.9835338892465
1731143577.5748734,780.8449236499629,802.1689712533104,812.9071800089819,811.5302654265373
1731143577.5767484,769.6203067671537,802.3943299627707,819.7946572894678,806.5752609305952
1731143577.5787785,788.4546766938051,802.6193486226618,820.5535740885715,810.6570260620489
1731143577.582469,830.0907340981859,802.8440508614062,814.0914301230034,822.6889604485082
1731143577.5826836,869.3024147430285,803.068459827659,802.0656000752887,833.8559897054661
1731143577.584784,881.292051395385,803.2925987276657,788.0886826152855,833.6940187979028
1731143577.5865886,859.7707042221678,803.5164917840945,776.4348383922253,817.8210059474683
1731143577.5904937,820.971767446937,803.7401649314683,770.6295598970552,791.5440969537226
1731143577.5943987,790.9895953561405,803.9636452380677,772.0823832145531,766.7632333033821
1731143577.5956028,786.6138481720561,804.1869583988871,779.2624797028266,754.557992816597
1731143577.5980089,804.4195500269501,804.4101253661674,788.1805834338103,758.7502933262466
1731143577.5983038,825.9161173008523,804.633161748159,794.3324807814527,774.6480957215389
1731143577.6022089,833.7391349356147,804.8560844058218,795.1003555873023,793.2606797325069
1731143577.606114,825.4171214327899,805.0789251399158,791.0824653951444,807.5047227336632
1731143577.610019,813.8100952315995,805.3017409480774,785.5177399002762,815.8592393864757
1731143577.613549,814.6116582732016,805.5246013700464,782.2285298386155,821.2072219451543
1731143577.613924,831.9102630740707,805.7475408930309,783.3209209862728,826.5007495272723
1731143577.6144574,854.008644917693,805.9704992141204,787.9446554648965,831.3224127725258
1731143577.617829,862.8533171479729,806.1933200446078,792.9241017944955,832.319692877704
1731143577.619699,849.1437570789947,806.4158878058112,795.1040480660055,826.8154516888012
1731143577.621734,820.6045251453373,806.6383863770333,793.9803381727945,815.9926752356845
1731143577.6256392,796.457440568373,806.8614656211538,792.4916978013799,804.5810188089706
1731143577.6290889,792.3816078761881,807.0859512365269,794.8399122384061,797.3608726770999
1731143577.6295445,808.254597934419,807.3119138962013,802.6756259746702,795.7626810046625
1731143577.633312,828.9055868688727,807.5376009202532,812.8870276340384,797.5688443129595
1731143577.6334493,837.1198508667086,807.75960119403,819.3869395695715,799.6301447206845
1731143577.6373544,827.433190620803,807.9756397645809,817.896418520874,800.7266269433843
1731143577.6412594,808.7645655891378,808.1894287804492,809.7152359705248,801.9139030213145
1731143577.6446288,794.7060557884574,808.4132533302926,800.9430057594344,804.5105477289528
1731143577.6451645,791.9245445293916,808.6615362771958,797.5441562940866,808.2684719589466
1731143577.6490695,797.3334957030788,808.9327943948884,800.4974576730474,811.6426658433434
1731143577.6521664,803.9685977195057,809.1908912990275,805.2969148189202,813.3952642898952
1731143577.6529746,807.4477093058599,809.3721363581816,806.1388415802336,813.52263936031
1731143577.654614,807.5768068858182,809.4429016814439,800.9500562617283,812.8476826511122
1731143577.6568797,806.274177251289,809.4931861594364,792.878199901445,812.1641162644204
1731143577.6601686,805.2294869729355,809.7844813378229,787.2873882207484,811.7993571110862
1731143577.6607847,804.9985557294543,810.6422963047561,787.2984691695777,811.6895231106655
1731143577.6646898,805.3091156417456,812.1876361907504,791.8265744222755,811.6469156736448
1731143577.6685948,805.7052231745398,814.1100662967336,797.3813179161734,811.5493465020263
1731143577.671021,805.9375701474339,815.7522460690766,801.4244272178133,811.3796037856876
1731143577.6725,806.001668353753,816.5098736078722,804.0588898639236,811.1765048681733
1731143577.6757088,806.0011385287354,816.1994999358774,806.8724592968052,810.9787450279961
1731143577.676405,806.0213490412642,815.0603483653107,810.5882565978551,810.8008046638164
1731143577.68031,806.0864911191877,813.440590074338,814.0432123740258,810.6377125759873
1731143577.6842153,806.1793487556239,811.5168727339432,815.3498033568185,810.4792434082508
1731143577.68812,806.2756670020303,809.3122346868448,813.806043603208,810.3193014995393
1731143577.6895287,806.3633217637406,806.9667879372772,810.5058384726689,810.1573731814934
1731143577.6898754,806.4429793280447,804.9829582507334,807.095185660721,809.9956626889067
1731143577.691249,806.5203875941561,804.161483507132,804.0423382569769,809.8361623977185
1731143577.6920252,806.5998869718883,805.1568357011167,800.2172965102677,809.6795254464143
1731143577.6959302,806.6825002400129,807.9107285083871,794.2304849714899,809.5254175456067
1731143577.6998353,806.767184665324,811.4459586768234,786.2839888138855,809.3732849066284
1731143577.7037404,806.8526618538781,814.3461100597567,778.8018901592382,809.2228213604062
1731143577.7067883,806.9383528600695,815.691101178232,775.1393120503252,809.0740142601685
1731143577.7076454,807.0243429272723,815.7017710971268,777.2697099802913,808.9269801901958
1731143577.70873,807.1109477135229,815.4499262764812,784.2487674137345,808.7818122296653
1731143577.7115505,807.1983762887098,815.789130561187,792.742250240903,808.6385272851956
1731143577.7154558,807.2866487862923,816.4620700811694,799.2615824206537,808.49709047214
1731143577.7193608,807.37568655681,816.2762357646556,802.2752999565226,808.3574602655308
1731143577.7223284,807.4654360628126,814.2496386971313,802.5500864569326,808.2196171468393
1731143577.723266,807.5559327336218,810.6721492076432,801.8469725457024,808.083565749182
1731143577.7244437,807.6472674456483,807.0949361758906,801.4689774015703,807.9493149784605
1731143577.7271707,807.7394661117548,805.257162747347,801.7596159846953,807.8168471949544
1731143577.7275846,807.8323572743185,805.8607769512743,802.4451280163923,807.6860975484611
1731143577.731076,807.9255773625904,808.1317624887433,803.1606799012905,807.5569746738906
1731143577.7349813,808.0188604384621,810.4160324228491,803.731301766619,807.4294415786492
1731143577.7378683,808.1125575231937,811.3116618291839,804.1733108425411,807.3036194825678
1731143577.738886,808.2079382885254,810.518815417421,804.5751736817548,807.1797970672574
1731143577.7427912,808.306555175015,808.8320799143671,805.0011421534814,807.0582083816608
1731143577.746439,808.408355131493,807.3675138762184,805.4649391487688,806.9385958511566
1731143577.7466962,808.509623110766,806.7299600737688,805.9500115213176,806.8199080248241
1731143577.7506013,808.6035221249583,806.7901542384121,806.4371492893423,806.7007495333892
1731143577.7534084,808.6858877465132,807.0704621236468,806.9180152381973,806.5809267072437
1731143577.7545063,808.7648232902745,807.2128310760284,807.3941650393645,806.4632954788784
1731143577.7584114,808.8651890749342,807.1409982644633,807.8704430866793,806.3536264314216
1731143577.7593586,809.0146866525467,806.9535258047555,808.3500876378916,806.2560529301558
1731143577.7623165,809.2073516001988,806.7644986304626,808.8336299653006,806.1648600984723
1731143577.7652936,809.3675538041033,806.6240237232126,809.3201131599795,806.0596966541964
1731143577.7662215,809.3675015118382,806.5236017198833,809.8085464491023,805.9157098113753
1731143577.7689483,809.1437492532726,806.4349140000623,810.2985496170683,805.7336636190441
1731143577.7701266,808.8745860106413,806.3388319374963,810.7902420665364,805.572758836685
1731143577.7740316,809.0409221230868,806.2321283165835,811.2838735430358,805.5420040409875
1731143577.7779367,810.1267804667043,806.120421133935,811.779579639555,805.7076248040806
1731143577.7818418,811.9141223673623,806.0096119801138,812.2773601525114,805.9395044336297
1731143577.784148,812.8510300238729,805.9020280256711,812.7771857178109,805.8383099175969
1731143577.7844882,810.4845485685827,805.796996688847,813.27909020456,804.9541249492988
1731143577.7857468,803.6659807246616,805.6929665555981,813.7831499678215,803.3588560560875
1731143577.789652,795.4424009423687,805.5889676232673,814.2893415218092,802.1892890356775
1731143577.7935567,793.1842324139008,805.4848751275102,814.7973896582229,803.3639637628627
1731143577.7942736,803.2897699862507,805.3809944617217,815.306819663728,808.1008037880637
1731143577.797462,823.727422879368,805.2776141146006,815.8173843968208,815.2861453327929
1731143577.800028,842.5366472495264,805.1748246713596,816.3297208971542,821.574678935639
1731143577.801367,846.15951534063,805.0725650702292,816.8455793529824,823.7679900567399
1731143577.8030026,831.2452163699915,804.970736184597,817.3667279078561,821.6251836557663
1731143577.805272,808.8535445565237,804.8692701352984,817.8923748345676,818.4133381542281
1731143577.8091772,796.1939303144921,804.76813646837,818.41689197355,818.2271275821874
1731143577.8130822,802.3527923568209,804.6673210662047,818.9315485714741,822.0246553298356
1731143577.8155682,820.4406554553001,804.5668153747367,819.4330535879827,825.9317537891008
1731143577.8169873,833.4811161904947,804.4666247254681,819.9355188971575,823.8898468835424
1731143577.8208923,829.3087998600811,804.3667739219926,820.4729893567174,812.9586263615726
1731143577.8218572,811.5178842300329,804.2672789723372,821.076346006546,796.8231956748384
1731143577.8247974,796.7216184919901,804.168080646217,821.7241551747724,784.1426165607975
1731143577.8287024,800.2637592683178,804.0689937390925,822.3043266886982,782.6295177815385
1731143577.8291886,822.5071565338916,803.9697732537077,822.6565779834465,793.3961392762343
1731143577.831108,847.3601445988475,803.870358321171,822.7409226858476,809.9548033575036
1731143577.8326075,854.5217465488774,803.7711737804007,822.8536798873837,822.6033994081373
1731143577.8365126,835.6813487811354,803.6731256586907,823.6377269877264,824.88896435121
1731143577.8404176,801.6312515839542,803.5768901588241,825.5920615507388,817.5137236279958
1731143577.8407116,774.4221829332203,803.4815926439005,828.1076325357695,807.1681461601428
1731143577.8443227,770.6238073382344,803.3839883023178,828.7355548836283,801.5119459931468
1731143577.846648,788.9578885670735,803.2800015877748,823.8534294948627,804.0636335866706
1731143577.8482275,812.1376572746597,803.169516211378,811.1711791380291,812.4278391026617
1731143577.8521328,821.2705996564305,803.0617661160902,792.5602133836062,820.6328796147296
1731143577.856038,810.9831327401727,802.9742929825411,774.4469834784155,823.4727345733704
1731143577.8595662,792.9742719804649,802.9184675700221,764.5592709274624,819.6569797275697
1731143577.859943,785.3992740319867,802.8748483767943,767.1075781591228,811.8371567592129
1731143577.862188,797.1703217334997,802.7808696286704,780.0850723696672,804.0552028889322
1731143577.863848,820.2296952823125,802.5655798884628,796.6692198864291,798.9146402146156
1731143577.8641036,836.0737354449767,802.2447862922139,809.5307912920345,796.5928915631157
1731143577.867753,831.0959483812953,802.0228539493496,814.9533283694032,796.0680995577535
1731143577.871658,808.1491157352865,802.2756315677481,814.1561613903594,797.0943748682921
1731143577.8755631,784.7226534490898,803.3235575793616,811.339613235863,800.8871192874242
1731143577.877728,778.940858158946,805.1146494145884,810.1657500838887,808.6136591301424
1731143577.8784206,794.6745763324512,807.1285853646644,811.2768373452997,818.9106743625479
1731143577.8794682,818.1606931049585,808.6666551920284,812.5047662766692,827.083913587494
1731143577.8833733,829.3132426134255,809.3170752144009,811.2923341851451,827.7228973010738
1731143577.8872786,818.5991632959859,809.2411765935535,807.1120020467145,819.3311672246477
1731143577.8911836,795.2977304130291,809.1001387622691,801.7777356525321,806.9317838915591
1731143577.893268,779.9276315380974,809.6401443847686,797.5214975747848,799.5065158487264
1731143577.895089,787.0222863023258,811.0920598618337,794.8329542191589,803.4449517664201
1731143577.8972752,812.7067762220881,812.7319665323334,792.2877246479887,817.1007557742622
1731143577.8989935,837.5040190779636,813.0602035685741,788.5882791178698,831.244684610414
1731143577.8990183,842.0923919439147,810.7565862841151,784.7293277459875,835.6532414526157
1731143577.9028988,823.123602925309,805.871004747056,783.9043879970434,827.0067108191057
1731143577.9068038,796.1945314815183,800.238057678001,788.8689994736699,811.8434921310254
1731143577.9088078,783.4155421205406,796.5311272987054,798.9861849456706,801.8698440950279
1731143577.910709,795.4765629024043,796.5165908422932,809.6970806120069,804.9438228768428
1731143577.914614,822.7651030428261,799.8615477571955,815.1645352737613,818.7970123336139
1731143577.9161298,842.9563605293214,804.4307728797056,812.143246843561,832.6720204095546
1731143577.918519,839.0723180947178,807.7589152025289,802.1291622345408,835.709165042805
1731143577.922424,813.310356597857,808.5234959082724,790.3041800415118,825.3209271111007
1731143577.9243476,785.365330882162,807.0671873065306,782.2991812799431,808.8015994667279
1731143577.9263291,776.703810316026,804.8677027811453,781.1935434016222,797.0919228396923
1731143577.9302342,793.588567052566,803.4842244352587,786.5186957119993,796.0645059488922
1731143577.9339335,822.3305982847904,803.6224568405939,795.2594150269329,802.4537353129548
1731143577.9341393,840.1900863302143,804.7788661255291,803.6227261492485,807.3752342151698
1731143577.9349842,833.0522862220116,805.630386020956,808.4658497095515,804.0664615041595
1731143577.9380443,806.0418565776488,804.94483236997,808.1091556097067,793.3194433194983
1731143577.9398878,778.9960394904735,802.4394202227853,802.7082368169378,782.3801331794098
1731143577.9419494,770.5729670760622,799.0041269184205,794.1550394575967,778.63045622807
1731143577.9458544,783.7287736317217,796.1373151311086,785.3110831419795,783.5318219561373
1731143577.9497595,804.2787422395604,795.0182785899233,778.7698713172208,791.8168582807642
1731143577.9536643,813.6255405525225,795.8977076808374,775.8517835813534,796.333526715614
1731143577.9538388,804.9190487574808,798.2034576763203,776.3955857778047,794.1919620472001
1731143577.9554276,788.9900800408216,801.1667879880567,779.2278268990592,788.9668663634532
1731143577.9575696,785.0918911242926,804.3640337124818,782.8108184894832,787.3046181595068
1731143577.961475,804.2829346465979,807.6863589667751,785.8257181434415,793.0767107456115
1731143577.9653797,839.2187796222173,810.8134006159343,787.718219709219,804.0532882200055
1731143577.9688485,868.5754817512362,812.8000811232339,789.0095598898738,813.6599411889051
1731143577.9692848,872.5168510350805,812.3697594504285,790.9212066905529,816.1379804476303
1731143577.9709675,847.2553541731694,808.857090130924,794.2861686030834,810.9257073539297
1731143577.9726932,807.8326130510792,803.0221819698429,798.5535709527519,802.9796562328004
1731143577.9731898,777.2132832212108,796.9284707900334,801.8745636799505,798.9542396926249
1731143577.977095,769.8546376135366,792.8743942458344,802.3500622995964,802.1725008001151
1731143577.981,782.0138176941135,792.2158241111832,799.4122521550177,810.1289342460215
1731143577.984905,796.1195646142422,794.9192334270405,794.2110538146953,816.3896362160415
1731143577.9865074,795.7485169474884,799.8958710868501,788.8577363569854,815.4891921957535
1731143577.98881,779.1972012715356,805.5439584457669,785.3175796252895,807.1248721521231
1731143577.9915478,760.5419203230663,810.1279980162251,784.7198632217483,796.4126791702505
1731143577.9927151,757.2679140981538,812.1785965145505,787.1802142366432,789.9510120700066
1731143577.9966202,774.7886852797302,811.107039866123,791.8501999909572,790.7090966724373
1731143578.0005252,800.9418543792103,807.6689568915239,797.1216661524863,795.7785401374941
1731143578.0020473,815.3495411595435,803.6640159169922,801.165221118677,798.8837655163844
1731143578.0037632,806.1436228768889,800.8501857381674,802.778449301589,795.7412849304047
1731143578.0044303,780.2601675534996,799.8769677474513,802.0732300353161,787.8533097984849
1731143578.0083354,758.5347718088827,800.1265531647105,800.4230457385265,781.3538712798282
1731143578.0104024,759.2017423148263,800.5477090874372,799.5586277669939,781.6196548123439
1731143578.0122404,783.1439220821936,800.6800599528902,800.3875103648902,788.24230998581
1731143578.0161457,813.205276989644,800.9416518437295,802.4024281581966,795.018119951012
1731143578.0175874,828.4133641275812,801.9751975666895,804.1142432592188,795.3072605057438
1731143578.0200503,821.2991525073014,803.7483639152174,804.1094053879497,788.1181204750209
1731143578.0239556,803.598020094689,805.3602834727509,801.8294536236658,779.3722855451915
1731143578.0278606,795.4694560201509,805.8369161031504,797.5081437998742,777.086950754545
