timestamps,eeg_1,eeg_2,eeg_3,eeg_4
1731014653.6346793,808.50572115774,807.3178602715102,805.8645343025998,801.9179258985778
1731014653.647001,807.3162719200436,807.5233862548757,806.5801555727029,801.7265909453457
1731014653.6536698,806.8954597653587,807.5772359419037,807.0795839148104,801.0787288259079
1731014653.6573591,807.6461916361056,807.3204827049233,807.0367946976553,800.0079917588913
1731014653.6612823,809.3569461503997,806.7209499677276,806.1366636946273,799.0844533534633
1731014653.6626668,811.2171118058524,806.0398217031841,804.357778934643,798.9297244413992
1731014653.6652057,812.2000100605903,805.7771780066679,802.1105931862317,799.577881586633
1731014653.669129,811.6932468027275,806.328658786819,800.03356080702,800.2564918202085
1731014653.6701782,810.0257455769681,807.6288513693775,798.5973886176084,799.887555102561
1731014653.6726604,808.5346358534852,809.1504551035413,797.8742288088707,798.0287883809725
1731014653.673052,809.0696858237263,810.3201493106114,797.6608729729375,795.534559133876
1731014653.6769753,813.1401525205197,810.9957449438698,797.7747460853172,794.2978394263015
1731014653.6783323,821.0668659542644,811.5528497594815,798.1755564074599,796.0639592146815
1731014653.6808984,831.5182733776358,812.4732807708277,798.800711877207,801.0724111941847
1731014653.6848216,841.7564174676795,813.8060327318926,799.3804678017788,807.570477201936
1731014653.6887448,848.7020032669064,815.0314361186548,799.5635777891596,812.7111562732448
1731014653.6916509,850.4356818577702,815.5088567910599,799.3105276679554,814.3120034142308
1731014653.692668,847.2551713331598,815.1102515874859,799.1076809168633,812.2295168453046
1731014653.693998,841.4828707142033,814.3977254677848,799.6407722196357,808.3365121162117
1731014653.6965911,836.0629900672295,814.1083983830727,801.1378146854113,805.1384143691407
1731014653.7005143,832.960633857409,814.4291821776762,803.0385094794003,804.0898917364805
1731014653.7044375,832.5211226908107,814.8242426776683,804.4044321291666,804.8448303900611
1731014653.7056437,834.040138390509,814.6424442748017,804.7316305093415,805.8752698212908
1731014653.708361,836.7047609117919,813.894015120339,804.3710135694051,805.8233530542595
1731014653.709664,839.9025842259648,813.3609013775382,804.1374207644334,804.4900571069852
1731014653.7106414,842.7983078206125,813.8780694545105,804.5139586442948,802.8118860688708
1731014653.712284,844.0223550598312,815.4891561051971,805.2465389923736,802.0401923863641
1731014653.7162073,842.2302590512496,817.3195301184386,805.6814420523599,802.866272322491
1731014653.7201304,837.2377800012106,818.2888969194639,805.4395710481415,805.086996602588
1731014653.7240536,830.575387450954,817.9688400392591,804.7515834256747,807.8508494623418
1731014653.7253294,824.6580773346725,816.7995552042117,804.2125264466238,810.1166867086339
1731014653.7279768,821.080382695178,815.5460257843802,804.3055665141937,811.0101350796045
1731014653.729632,819.4883066446919,814.5792609837886,805.1572587232068,810.0689405593673
1731014653.7319,818.022528765537,813.6483717408818,806.6030101863338,807.4718719298914
1731014653.7358234,814.886843800968,812.2820639484092,808.2950247772665,804.1263959168313
1731014653.7397466,809.6348948568137,810.38017003257,809.67651388582,801.3458102422609
1731014653.7409952,803.2239872445006,808.4298970567293,809.9892543562279,800.1407590789864
1731014653.7411091,797.1620785925317,807.1574615126215,808.5826494671178,800.6318155487597
1731014653.7436695,792.7668713649196,806.9397484409433,805.4659215518219,802.1321110918633
1731014653.7475927,791.045917547276,807.5051875649071,801.6430734299765,803.8609122781371
1731014653.7486224,792.7660713676561,808.1809834556974,798.7897084469032,805.6007040711786
1731014653.751516,798.0712579776721,808.4476802196489,798.3456817105451,807.6291083309053
1731014653.7554393,805.7528574115881,808.2964651561157,800.6407037303368,809.9980671549259
1731014653.7566607,813.0754476891155,808.0919571395702,804.7063816014262,811.9617388248035
1731014653.7593625,816.8954363605776,808.1194179882914,808.9073862090421,812.2836327022192
1731014653.763286,815.6438257489084,808.2783821127989,811.9128904902758,810.2825552959259
1731014653.7672093,810.6502973473227,808.2053901518071,813.3304286273518,806.6553133046759
1731014653.7676127,805.46459519575,807.6630659183703,813.6400329333152,803.2022285573933
1731014653.7711322,803.3698226458034,806.7832552620357,813.5951577132334,801.5514129182911
1731014653.7723265,804.8979884723142,805.940017544765,813.5978571537977,801.9130275620345
1731014653.7750554,807.3384949874053,805.4245473278874,813.4988159895034,802.907867154375
1731014653.7765746,806.707109978147,805.2681274232167,812.9062641831783,802.6112117459699
1731014653.7789786,800.6918259042052,805.3545854224251,811.7042747356041,799.9688259497044
1731014653.7829018,790.3612247118858,805.6353006697383,810.3491064424877,795.5071786900891
1731014653.7866032,779.4637548705812,806.1620844541462,809.6893091819467,790.884822283165
1731014653.7868247,772.0081876088992,806.8725463009208,810.3935891335109,787.728653106841
1731014653.7879922,769.960922141298,807.362886130325,812.35894833083,786.6583398486578
1731014653.790748,772.5478168554065,806.9550821893266,814.5440392863757,787.1451525067288
1731014653.7946715,777.3126764161044,805.1184137040224,815.4526827364725,788.1641693616191
1731014653.7985947,781.9106282348972,801.9570851122243,814.0570406293507,789.0449078877575
1731014653.802518,785.3771804780883,798.357841805567,810.5671988502816,789.8882542701657
1731014653.803658,788.2509463665971,795.6269910574362,806.4473518839409,791.3323825630202
1731014653.8055935,791.8041180858019,794.8260490751444,803.546985079698,793.9333430965823
1731014653.8064413,797.1042203456408,796.2187821843795,802.8751940317087,797.6361685552389
1731014653.8103642,804.4757603970122,799.1458785217053,803.8962094860177,801.6803038603762
1731014653.81204,813.4394623616436,802.3727430574121,804.9284034820079,804.9681507670979
1731014653.8142874,822.8685678517899,804.7048067220603,804.4287519681399,806.6515168235022
1731014653.8182106,831.163868969343,805.5496968224018,802.2284981886992,806.6027602299237
1731014653.8193235,836.5266639540829,805.1540543986168,799.7563616016433,805.5277872186622
1731014653.822134,837.5088880190168,804.4139707524502,799.0258396472634,804.6436500279738
1731014653.8245842,833.7563032661453,804.3616115469025,801.1111672660664,805.0264378421892
1731014653.8260572,826.4694469908819,805.5786769525668,805.2450021850748,806.9357581484135
1731014653.8299804,818.0552912971509,807.8324402851179,809.2246684782164,809.5463186299238
1731014653.8339036,810.9536835407681,810.1458415549697,810.8543211291552,811.3600309952983
1731014653.8349893,806.3349517446334,811.2988255153534,809.3898965321105,811.1025381199471
1731014653.8378267,803.5839752710402,810.5036535794447,805.9549001991695,808.4826965224636
1731014653.84175,800.9192955313878,807.8729826704498,802.662413884584,804.2658003265009
1731014653.8435748,796.6375975378126,804.4094331642116,801.1329140791673,799.6829710299452
1731014653.845673,790.0912478354284,801.515378052356,801.5049643002422,795.7332455015194
1731014653.8475056,781.8440665333188,800.2791964153477,802.5955589308677,792.9213020560828
1731014653.8495965,773.104802635235,800.9143440386421,802.956653744382,791.4778170237147
1731014653.8506548,764.9783056078062,802.6681839568421,801.9321880708218,791.6545193781809
1731014653.8535197,758.0678426997579,804.2811099710559,799.9338836343456,793.6770152322914
1731014653.8574429,752.5966104076173,804.7389923494229,797.8731391829239,797.3251720900321
1731014653.861366,748.7805437910577,803.8284340976204,796.3699048566674,801.5408497765122
1731014653.8625653,747.0181296765236,802.1059995418801,795.4397157633914,804.5831124036114
1731014653.8652892,747.7022800219764,800.3292904444954,794.82891638533,804.8965576706979
1731014653.8663206,750.8591673094054,798.8329282154776,794.5527736277986,802.1988167427103
1731014653.8692124,755.971398289839,797.3660999166143,795.0507385263282,797.8758709529174
1731014653.8731356,762.1311988274571,795.4899534325076,796.794626204225,794.1489347231994
1731014653.8770587,768.3802273129119,793.1458289671671,799.7372154542754,792.5237742968301
1731014653.880982,774.0240696448665,790.8944459248503,803.146425441816,792.8056212741698
1731014653.8815558,778.8199701340309,789.6573087380443,806.0083800958957,793.564389446444
1731014653.8819864,783.0040131009622,790.2080761909433,807.671144484715,793.6115920813904
1731014653.882971,787.1113134381619,792.7816324221251,808.217141583818,793.0971795272575
1731014653.884905,791.6024094494278,796.9719383632919,808.3157143826464,793.2345195351957
1731014653.8888285,796.4771335686489,801.864065490144,808.7223416945334,795.0034275301402
1731014653.8927517,801.1473544961269,806.3014916326274,809.7998030091534,798.1118696938387
1731014653.8966749,804.6912795115466,809.2430273937921,811.3404779641756,801.1501482688964
1731014653.897652,806.3231076125641,810.1297673513798,812.7227877355632,802.6900422195965
1731014653.9005463,805.7541134878203,809.0763411429393,813.2415585238127,802.2629503676042
1731014653.900598,803.2474865350065,806.726113727628,812.4081415611537,800.4139601854615
1731014653.9045212,799.4457050356215,803.8484160527363,810.093194515048,797.9863500765056
1731014653.9084444,795.1912874313715,800.9878705166261,806.5035469302113,795.4616260614921
1731014653.9123678,791.43928006267,798.4171006891702,802.0852691554861,792.9789782470983
1731014653.9133177,789.1427268003239,796.3252379567771,797.4814423635112,790.8739395353555
1731014653.916291,788.9569799244201,794.9490613358788,793.5844021236259,790.0063103460727
1731014653.9184363,790.8171241770694,794.4750857124687,791.523029027544,791.3456937074836
1731014653.9195368,793.6747890589331,794.8472465877423,792.3222998005614,795.0762296660446
1731014653.9202142,795.6876549770316,795.7364939734388,796.2116182550939,800.1056132376008
1731014653.9241374,794.9128298236326,796.7413454032696,802.0435696549123,804.6113662235362
1731014653.9280603,790.2429894670919,797.6327161472341,807.4927624092423,807.2392777479508
1731014653.9289834,782.1330562893975,798.4205708591239,810.2206758981416,807.8628869507153
1731014653.9319837,772.6937277575308,799.2152438420868,809.3163211332004,807.3093161120943
1731014653.935907,764.990519395978,800.0481068898075,805.9046861755772,806.5297620303035
1731014653.938527,761.7910028110739,800.8172420228198,802.3663442273903,806.0286738387506
1731014653.93983,764.3255886438741,801.3785326964494,800.7034522394043,805.8339205476631
1731014653.9437535,771.6552188097425,801.6812571896513,801.2615332285094,805.7610699761749
1731014653.944649,780.9775292925689,801.8362052746378,802.7157455221619,805.6529123640156
1731014653.947677,788.8270545757794,802.0629590094227,803.249055865079,805.4632189316113
1731014653.9515998,792.7217450508556,802.5365589613727,801.9873810887804,805.2226888065636
1731014653.953902,792.3954938475339,803.2296738048378,799.6439474336125,804.9760145936842
1731014653.955523,789.6990582198471,803.8922221830031,797.9779468839266,804.7460133462392
1731014653.957518,787.1122855186641,804.249846393481,798.5357016628158,804.5318536704365
1731014653.9594462,786.0922182151661,804.3185131536137,801.568280158889,804.3230623871647
1731014653.9603148,786.5911174033905,804.5616918540527,805.7934392182106,804.1115671590132
1731014653.9633694,787.7622994041792,805.6618480815779,809.0923378443528,803.8953720418915
1731014653.9672923,788.8608904690733,807.9773900306687,809.7241553595127,803.6763406270392
1731014653.9712155,789.6239552994003,811.0724445237248,807.396661769627,803.4568318334353
1731014653.9751391,790.151146562663,813.7286842374824,803.5675236818812,803.2379446698776
1731014653.9759803,790.6328278125478,814.5213007744794,800.7006062127765,803.0195513166715
1731014653.9765084,791.1784794339133,812.6303169044405,800.814949930838,802.8010781879509
1731014653.9790623,791.7941144597032,808.3747355671064,804.2101510815348,802.5821204309663
1731014653.9829855,792.4374273270012,803.1075903192242,809.2553143720446,802.362600851074
1731014653.986909,793.0717568068508,798.499730636038,813.4406896763526,802.1426337464939
1731014653.9893675,793.6857764679354,795.6524725438684,814.9673103414284,801.9223470897139
1731014653.990832,794.286136188959,794.6267576646704,813.7431968934111,801.7017980377904
1731014653.991646,794.8830703792304,794.682704710871,811.1362945275564,801.4809813430236
1731014653.994755,795.4819737344994,794.9741034167773,808.8071759007298,801.2598721325592
1731014653.995499,796.0828047874801,795.1117882001513,807.5855613931726,801.0384561697142
1731014653.9986782,796.683226364269,795.1990389577229,807.1734214985978,800.8167354880587
1731014654.0026016,797.2813905490161,795.4515761767432,806.7085303093635,800.5947205895751
1731014654.0065248,797.8768322182256,795.8548862832396,805.5954147195627,800.3724237831049
1731014654.0073118,798.4699926650524,796.1955800308249,803.9676731191634,800.1498594375227
1731014654.010448,799.0614510656349,796.3910648262532,802.5705533154338,799.927046537357
1731014654.0143712,799.6515054418634,796.7460415937987,802.2875051776603,799.7040044091485
1731014654.0144894,800.2401583197441,797.8512030144299,803.6651343103304,799.4807377187285
1731014654.0182943,800.8272834109605,800.1902176243376,806.6601480947659,799.2572211083891
1731014654.0222175,801.4127794820292,803.7745695770786,810.6537355750208,799.0334080280913
1731014654.0229776,801.9966522456193,808.0619860612773,814.6781940436696,798.8092839881291
1731014654.024833,802.5790381935171,812.1607064557653,817.7613078722852,798.5849453666405
1731014654.0261407,803.1601645386374,815.1546014468162,819.2668941663188,798.3606223839283
1731014654.030064,803.7402056955605,816.3990300818546,819.0960519268457,798.1365383582873
1731014654.0334797,804.3190516460605,815.7143204997337,817.6551368353279,797.9125926323475
1731014654.0339873,804.8961684747331,813.4384961035697,815.6114801361285,797.6880943433953
1731014654.0379105,805.470868280624,810.3212266484575,813.5840329256976,797.4620016319207
1731014654.0386431,806.0431498233321,807.287156288427,811.9438178664467,797.2339890664281
1731014654.0418336,806.6146568627266,805.1353628249861,810.7935162541429,797.0058901885177
1731014654.0457568,807.1885221367563,804.2533896741755,810.0582932738783,796.7819156841088
1731014654.04968,807.7668443869884,804.4506472464941,809.5816634304111,796.5657057043196
1731014654.0524702,808.3463231565914,805.0440764011126,809.1895438138858,796.3543013739984
1731014654.0536032,808.9159513649877,805.2451185233306,808.7519925600917,796.1337111408188
1731014654.054309,809.4628498062879,804.668349726475,808.2506156161679,795.8846292984715
1731014654.0575264,809.988564616637,803.6033163188253,807.7923370840672,795.6034503212059
1731014654.0602984,810.5260208969188,802.8038096030276,807.5097325181308,795.3282884769903
1731014654.0614498,811.1333720284933,802.9197463474031,807.3938368402531,795.1387177513761
1731014654.0653727,811.8430811314053,803.9959653196145,807.2148443123331,795.0944413333657
1731014654.069296,812.5810037245444,805.4069771343056,806.6542834704636,795.1200871937016
1731014654.069975,813.1337226016641,806.2507789564618,805.5880255259599,794.9292222190153
1731014654.0714607,813.2769097342683,805.9069492597163,804.2911304875684,794.14110594661
1731014654.0732193,813.0956667586388,804.4075313166741,803.3637844790704,792.6485599374496
1731014654.0771425,813.2979618767475,802.4384393078932,803.3965072393283,791.0038850739159
1731014654.0810657,815.0936751738994,801.0056223322388,804.6075367478303,790.3774989364158
1731014654.0849888,819.3536281198944,800.944456919855,806.7057687696441,791.8967736814546
1731014654.0856402,825.5000307125296,802.5058995672401,809.0533852085058,795.7592961579346
1731014654.088912,831.2686732147649,805.2264442792444,810.9910571103976,800.8277082611105
1731014654.0904512,833.9752729072213,808.1694422965945,812.1104690557958,805.1331715440366
1731014654.0928354,832.401012810405,810.4219022558996,812.3341124407502,807.0578633873419
1731014654.095764,827.6393040784803,811.544204726503,811.8023547875184,806.3855581261181
1731014654.0967586,822.1706232043913,811.6806404971484,810.692148839706,804.3830495219721
1731014654.1006818,818.0326740346089,811.3041401676015,809.1415329606343,802.7821011784486
1731014654.101306,815.6571052716691,810.8529050935152,807.3563081493335,802.4750563503624
1731014654.104605,814.195553666774,810.5321245888812,805.7476591304224,803.0258991271313
1731014654.108528,812.7450602815269,810.3385732186213,804.8305491118529,803.3538245643904
1731014654.1094418,811.1619783365048,810.1879450695922,804.8548826282434,802.8385918991115
1731014654.1124513,809.7598489469847,810.0158705958098,805.5451003977303,801.7452204909954
1731014654.1163745,808.4272369762168,809.8074566658926,806.2988650236431,800.6364567269907
1731014654.1169715,806.2905230841152,809.5786067141763,806.6591749453048,799.5102985262188
1731014654.1202977,802.4166722829805,809.348598682794,806.5677655592195,797.6434086384601
1731014654.124221,796.8942948833873,809.1261409730486,806.2378348341182,794.340347277862
1731014654.1281445,791.1598403030282,808.9099672275506,805.8958428053382,789.8583370628809
1731014654.1284325,787.1381552561289,808.6953193376404,805.6421339768681,785.6215774380976
1731014654.1312294,785.9287608475776,808.4789140628186,805.4632933684634,783.4925955423738
1731014654.1320674,787.2285644690936,808.2601557062436,805.3064130059328,784.6286681919954
1731014654.1326373,789.9927052487906,808.0399778631125,805.1349991525555,788.7171661180087
1731014654.1359906,793.6545760908454,807.8193898168327,804.9425218822083,794.1056795658458
1731014654.1399138,798.649476641541,807.5988041771411,804.7394436604034,798.7707023079475
1731014654.143837,805.5770816851968,807.3781204747042,804.5370027866123,801.4717417689814
1731014654.1474228,813.655913503938,807.1570817577783,804.3397506367681,802.2476363200561
1731014654.1477602,820.0286059612747,806.9355262000797,804.1465196902478,801.979341975015
1731014654.148303,821.0167144938132,806.7134365592013,803.9544121871363,801.5704851220266
1731014654.1516836,814.7473780245764,806.4908710756633,803.7615954780172,801.4562116540847
1731014654.1556067,803.0747239390494,806.2678847054478,803.5678380137936,801.6265017797874
1731014654.15953,790.9433193591905,806.0444936683416,803.3737392614992,801.8953942658304
1731014654.163453,783.3846860346157,805.8206818742432,803.1798792518374,802.120478995186
1731014654.1639686,782.4278344393714,805.5964274683929,802.9864648858362,802.2680253923359
1731014654.1664133,786.3139840174603,805.3717303443259,802.79341100827,802.3724186450619
1731014654.1666949,791.3819536276415,805.1466252882924,802.6005583804939,802.4759517696448
1731014654.1673765,794.7749918131417,804.9211645182435,802.4078150083938,802.5979368028611
1731014654.1712997,795.7520483692288,804.6953620064728,802.2151759623711,802.7357647738913
1731014654.1752226,795.006441656943,804.4691265221813,802.0226764570974,802.8790507601278
1731014654.1791458,793.2590856048408,804.242259834093,801.8303421770655,803.0205697797077
1731014654.1796343,790.7085598638728,804.014605767427,801.6381680719145,803.1589817802233
1731014654.1830692,787.6050905355957,803.7863333929472,801.4461279209311,803.2963253218637
1731014654.1854038,784.8588863759201,803.5581219278291,801.2542042618508,803.4348291028988
1731014654.1869924,783.6700688951864,803.330849305471,801.0624206433648,803.575422735736
1731014654.1909156,784.4569568557251,803.1045790876614,800.8708471912164,803.7179082433341
1731014654.1948388,786.3145764046719,802.8773874882885,800.6795485664031,803.8617375118556
1731014654.1953,787.7733847353088,802.6455233524116,800.4884773066271,804.0065635146959
1731014654.198762,788.256925869628,802.4064369202536,800.2973927656719,804.1523498085604
1731014654.2021604,788.809687209052,802.1640810895975,800.1059539056141,804.2992237128633
1731014654.202685,791.2612435190556,801.9317966627857,799.9140798413855,804.4473148746831
1731014654.2043943,796.479379712607,801.7253925290362,799.7224092399479,804.5966909828331
1731014654.2066083,803.3186463140323,801.5435043671644,799.5323226976899,804.7473713020179
1731014654.2105317,809.3081681246097,801.3470042722956,799.3449164836715,804.8993515366999
1731014654.2109656,812.4988279871542,801.0664281108473,799.1590286586671,805.0526019751449
1731014654.214455,812.7749558974222,800.6646935535476,798.969929929413,805.2070570135384
1731014654.218378,811.4779454073752,800.2400606942756,798.7714644233998,805.3626480500644
1731014654.2223012,809.8523563017545,800.0815965568069,798.5631062316152,805.5194063917207
1731014654.2233849,807.8944448324605,800.5598163358601,798.3581993643517,805.6775723529828
1731014654.2262244,804.6244221547909,801.8449789876975,798.1829873029204,805.8375471607419
1731014654.2266314,799.3365011923971,803.6564417460991,798.0556701796321,805.9995416321844
1731014654.2301476,792.5441260081592,805.3215079283318,797.9495790504805,806.1630297008378
1731014654.2340708,785.8082262631859,806.1912464310286,797.7733591891202,806.3265451820691
1731014654.2376258,780.7451967894059,806.1053725303702,797.4208491135129,806.4885749992084
1731014654.237994,778.1590011314364,805.4988358029201,796.9146496246193,806.6497056131515
1731014654.2419174,777.9391501781063,805.0505470931549,796.5714175717702,806.8145642865798
1731014654.2422972,779.5222852715349,805.2039561251771,797.0130200638708,806.9904600928841
1731014654.2423754,782.2072131357436,805.9843721641905,798.8761292439056,807.1803212472855
1731014654.2458403,784.9821744597311,807.1912251946308,802.3122428891047,807.3726274030795
1731014654.2497635,786.3544527778372,808.6531241611636,806.6547032593364,807.5389793984812
1731014654.253687,784.9162372309299,810.2424892939255,810.6314445813058,807.652950006318
1731014654.25761,780.5634168349039,811.7094781188645,813.1039415392449,807.7309786323432
1731014654.2579627,775.2501312665274,812.6437265205575,813.8224522632553,807.8649071855388
1731014654.261366,772.2136938744405,812.6994421901921,813.5812781038645,808.1871672708439
1731014654.2615333,773.921800291889,811.8562844853527,813.5971213781822,808.7280262587344
1731014654.2654564,780.302228767779,810.4098488589052,814.5709353193799,809.2235054034976
1731014654.2693796,788.7485887890258,808.7033780993031,816.1716439420345,809.0701674303466
1731014654.2730913,795.9298146169099,806.9247235638986,817.3412786398894,807.6331966700557
1731014654.273303,799.8981273669165,805.1934319690974,817.1487842975504,804.8272953597174
1731014654.2736285,800.8500263826206,803.7697982521954,815.4897248997858,801.4761020289285
1731014654.2772262,800.270400538555,803.0323348211792,813.0975960843433,798.9601260788191
1731014654.2803562,799.5749662951538,803.1435297309246,810.928796782455,798.2882748633684
1731014654.2811494,799.3868477962662,803.7412137797511,809.4801599105101,799.3552418891196
1731014654.2850726,799.638723126957,804.055377113194,808.5847263507213,801.0516615586909
1731014654.2889955,800.0214388186747,803.4549253703789,807.7612876675811,802.1390548244976
1731014654.2892942,800.3192589639551,801.9765382505373,806.7137980329085,802.1201164157433
1731014654.2929187,800.4927713962186,800.3516781424637,805.5175441555626,801.3662509610624
1731014654.296842,800.6034328146769,799.4848722072771,804.4090872428941,800.4787354509612
1731014654.2993467,800.717812209699,799.8241832394947,803.515072239264,799.581641694353
1731014654.3007655,800.8631411281438,801.1279319182261,802.8825821891214,798.2709668666265
1731014654.3046887,801.0327558662486,802.7358456563718,802.7811450610003,796.2465667942404
1731014654.3049598,801.2096052056679,804.0267391195732,803.8474800256864,793.9365626256881
1731014654.3085568,801.382841667351,804.6926532713888,806.7013119893414,792.4142903097726
1731014654.308612,801.5510753674365,804.738167868437,811.2024585128736,792.6083144809886
1731014654.312535,801.7178626975249,804.3610885781347,816.0349753693366,794.5181533831019
1731014654.3164582,801.8866763249606,803.8592234041627,819.1990803557097,797.1868006590388
1731014654.3183372,802.0587952021086,803.5494975976193,819.2359657218394,799.5057990942597
1731014654.3203814,802.233768170531,803.6216127054975,816.2786886433504,801.145075096709
1731014654.3206255,802.4106943088801,803.9579693355196,812.054513504416,802.7256635953426
1731014654.3243046,802.5890545090589,804.0930063416434,808.7866166686924,805.0072167255555
1731014654.3282278,802.7688303557422,803.4623509166862,807.821905268974,807.821555740558
1731014654.3321512,802.9502415759623,801.861315479407,808.9803079799814,809.852771091835
1731014654.3360744,803.1334825252965,799.7779220261767,810.9824088221134,809.6720625274555
1731014654.3362913,803.3186227928994,798.2589960540589,812.4636209429752,807.2025232315856
1731014654.3373277,803.5056426889079,798.2942338865894,812.7415192314828,804.1929439385244
1731014654.3399975,803.6945089758634,800.124305399526,811.8837960488586,803.0373413406263
1731014654.3439207,803.8852236783885,803.01313425038,810.2921976804387,804.8099805515802
1731014654.3440225,804.0778262758893,805.7024776021002,808.3348342683693,808.2433293450828
1731014654.347844,804.2723587420627,807.2253239018859,806.3064458643792,810.6395237246093
1731014654.3517673,804.4688175333756,807.4569887147647,804.544781134687,809.9832934933798
1731014654.3519568,804.6671311400249,807.0024699628323,803.3970137409382,806.4390400557527
1731014654.3556902,804.8672088664235,806.5711539707944,803.0096729594138,802.0036677627207
1731014654.3563182,805.0690735605509,806.393958528768,803.2206964192325,798.7563010189227
1731014654.3596134,805.2729969274458,806.1546291545086,803.7677620512418,797.3056690355801
1731014654.3635368,805.4794489859305,805.429149893194,804.6502364633575,796.6980096321789
1731014654.36746,805.6886923859563,804.1786941216096,806.2305942185014,795.6757085129491
1731014654.3676226,805.90014118338,802.8242906261269,808.8575041248009,794.0517504754115
1731014654.3713832,806.1121029001372,801.875084780315,812.2821269842684,792.9700320912999
1731014654.3753064,806.3227861552942,801.5301044927404,815.4324614203202,793.8341096750911
1731014654.3753088,806.5327873395435,801.623710068968,816.8730292488949,796.8469927539637
1731014654.3792295,806.7474034092576,801.8589493088216,815.6819810131751,800.4879730978814
1731014654.3794878,806.9751779614119,802.0352537715071,812.0726520515003,802.5150701886806
1731014654.3831527,807.2197965685616,802.1081724670867,807.2712246432783,801.7701491053764
1731014654.3832884,807.4682873076881,802.1246797660914,802.7782023169996,799.2819725677022
1731014654.387076,807.6877675792618,802.1405777888949,799.6161016045273,797.6586684407074
1731014654.3909993,807.8467712874259,802.1802369413311,798.0816252992211,799.1792720470572
1731014654.3942993,807.9626615742147,802.2391777440038,798.0126536372409,804.0994764194708
1731014654.3949225,808.1405065109734,802.3032872124509,799.1583046253936,810.486727354983
1731014654.3988457,808.534649411163,802.3631240363501,801.2687727030966,815.6004458090949
1731014654.398954,809.1834284539209,802.4171568610872,803.9078855591302,817.6342221941607
1731014654.4027689,809.7802361286732,802.4682166327318,806.3286121818871,816.5465141824338
1731014654.406692,809.6021944226015,802.5192470301648,807.7105662369379,813.6213943154767
1731014654.4106152,807.8258877828374,802.5714079332324,807.6748934385702,810.3757205425172
1731014654.4132898,804.1220429625873,802.6243752003178,806.6404429215582,807.6996455304474
1731014654.4145384,798.9803928237204,802.6773971156964,805.639943939862,805.7043462724826
1731014654.4146197,793.3515456748944,802.7300157461971,805.6646770380812,804.1644395301892
1731014654.4149532,787.9804796839952,802.7821931109229,807.027841266168,803.0880526821204
1731014654.4184616,783.2238726376945,802.8341023635893,809.2209108621523,802.9273879813935
1731014654.422385,779.497148198743,802.8859058381322,811.3138654234618,804.2135936570318
1731014654.4263082,777.6087543528014,802.9376675832152,812.53120879769,806.8499108952072
1731014654.430231,778.319977516407,802.9893801992915,812.5741110469158,809.6659017804656
1731014654.4302857,781.4548113543611,803.0410241107505,811.5424098469128,810.7823099441257
1731014654.4322803,785.5765789820266,803.0925995854163,809.6509658093916,808.7616901135917
1731014654.4341545,788.7997292429271,803.1441190674087,807.0558892619965,803.8012402767157
1731014654.4380777,790.1582479448955,803.1955819933801,803.9390356594607,797.9948758411612
1731014654.4420009,790.3053406019166,803.2469665117195,800.7086430188491,794.2731875958826
1731014654.445924,790.8595245904779,803.2982621337128,798.0288331606008,794.6423685644239
1731014654.445951,792.9408829944647,803.3495326994421,796.5378473017898,798.9427240728302
1731014654.4498472,796.1852127002303,803.4009487680682,796.4291853727018,804.9805099441226
1731014654.4504187,799.0772098793018,803.4527015759256,797.2567947829191,809.8564101446401
1731014654.4512708,800.2392870621675,803.5047704723174,798.1970924136041,811.5131112186747
1731014654.4537706,799.4950682532849,803.5566907939278,798.6422573237073,809.5634590587784
1731014654.4576938,797.8450262586092,803.6076611150376,798.6915399874844,805.135297672042
1731014654.4616168,796.5768537659961,803.6572834870303,799.1159893616247,800.1036275431557
1731014654.461617,796.4761567303507,803.7066993168476,800.7498184921668,796.2453891822671
1731014654.4655402,797.7963215006087,803.7589939826255,803.7523442447769,794.6478761937989
1731014654.469463,800.7215354373946,803.8173118641737,807.3558196134009,795.4607610589823
1731014654.470261,805.5720710526945,803.8803846406389,810.3441123814438,797.9705991459102
1731014654.4733863,812.425653081318,803.9385411580158,811.8808400227325,800.9330079222914
1731014654.4772823,820.5750864055947,803.9766352402792,812.0036696421517,803.0398159287425
1731014654.4773097,828.4597162651163,803.9888032253815,811.4121432555453,803.3561647241968
1731014654.4812331,834.2511518230665,803.9992633490536,810.7942154079867,801.588237493512
1731014654.4851563,836.6953451928117,804.0668513934035,810.2895699467504,798.1137288760491
1731014654.4858842,835.6382582549785,804.2448652938002,809.4987685912145,793.7834039905038
1731014654.4890797,831.9331245814943,804.4945099740877,807.946953366101,789.586295260447
1731014654.489252,826.853407575201,804.613760799278,805.5628426716112,786.3439464859124
1731014654.492948,821.4207523399622,804.2979561662819,802.8000442342493,784.575652640633
1731014654.493003,816.0548625893953,803.3955424631413,800.3758110695868,784.5308820294688
1731014654.4969258,810.6897938609332,802.2113201848455,798.8876600581846,786.2524765211475
1731014654.500849,805.168651698553,801.5206460904847,798.5745536730198,789.564245050976
1731014654.5047722,799.5767874680212,802.1122995077609,799.2932570375572,794.016205714524
1731014654.5082424,794.3020727391655,804.1434404012558,800.6146628248415,798.8820502033486
1731014654.5086138,789.8560027257881,806.8615280803792,801.9426378837003,803.2398102231824
1731014654.5086954,786.6145112864855,808.9820380306081,802.6514410893959,806.1225017756991
1731014654.5126188,784.6126729064179,809.4676134084249,802.278952854407,806.7671393393013
1731014654.516542,783.4921591954829,808.1464288972976,800.7443098926581,804.967036437532
1731014654.5204651,782.6861678804395,805.7679390777753,798.4560211599025,801.3414413752772
1731014654.5213497,781.8168337662132,803.5321062163497,796.1660846480606,797.1935942318677
1731014654.5242794,781.0670347383938,802.4579279533274,794.570655484956,793.8434634703433
1731014654.5243883,781.1863347401581,802.953282850193,793.8840413598039,791.8180603193562
1731014654.5272326,783.0002735505104,804.7189407682811,793.7217666596363,790.5514837522703
1731014654.5283115,786.7207573084228,806.9329326251519,793.4523048164631,788.9037436362679
1731014654.532235,791.6293125232544,808.6296103084268,792.7893500654295,786.1040512600725
1731014654.5361578,796.4915967317287,809.1853219098186,792.1329410640636,782.3545252113175
1731014654.5399451,800.4417527193651,808.7179243206828,792.3284660806969,778.6739984510184
1731014654.5400813,803.5829572741627,808.0961811904397,794.0071702521292,776.239217207916
1731014654.5440044,806.7096094026539,808.3846696057183,797.0476733250448,775.7943408583324
1731014654.5462232,810.3139429167675,809.9814330074274,800.5947096316582,777.4368174025489
1731014654.5479276,813.7387942428546,812.1057513691975,803.59637981163,780.6794272277745
1731014654.5518508,815.3192486352918,813.1871998833077,805.4174576478529,784.5938723144865
1731014654.555611,813.5752143123372,812.0209475126213,806.0851639980444,788.0276359797662
1731014654.555774,808.5956418532307,808.8310502201833,806.0744295254158,789.9930273326243
1731014654.5568151,802.458866110146,805.3229662838772,805.8996985545401,790.1594344358876
1731014654.5596972,798.1490763261776,803.5592542701737,805.8439679518518,789.1108535742403
1731014654.5636203,797.5345861551212,804.4627349019136,805.941172906207,788.0084691901837
1731014654.5652137,799.7732687683733,807.1145901256639,806.1058516888775,787.6971666753459
1731014654.5675435,801.4235423331609,809.4319312118555,806.2575052011517,787.8809073121787
1731014654.5712764,798.5499252608744,809.7131619668336,806.3690062461935,787.2055628874483
1731014654.5714667,789.7297433316894,807.812488002876,806.4534271469116,784.5159717322329
1731014654.57539,777.925708421942,805.0147334773155,806.5330548568535,780.4645829228539
1731014654.5793133,769.5176247127512,802.8506097221378,806.6202487265123,777.9857185482085
1731014654.5832365,770.5599228980099,802.010395411258,806.7153942341424,780.7450219324178
1731014654.5842042,782.5043720350798,802.2047198779073,806.8134981723227,790.311502037367
1731014654.5869422,800.4363975341195,802.7562832829333,806.9103819995682,804.1613654630728
1731014654.5871596,815.392722231211,803.1814424936872,807.0048342016265,816.3832922835221
1731014654.5910828,819.4999400990788,803.3615770487437,807.0976813628806,821.0461969607674
1731014654.5922806,810.6111057289078,803.4024475549052,807.1901153996384,816.0235143302026
1731014654.595006,793.3867919174794,803.438022966772,807.2827463117617,804.4625881240725
1731014654.5989292,776.2092671626874,803.5299911169461,807.3755586543365,792.7304994700944
1731014654.602608,766.1750211175104,803.670202523791,807.4682836399957,786.3483715218541
1731014654.6028526,765.5779253932918,803.8255109698404,807.5607173765271,786.9108931917856
1731014654.6031947,771.9300067576052,803.9727155541344,807.6528170950025,792.0151507731655
1731014654.6067758,780.8265545834875,804.107381451023,807.7446418144408,797.7323351982149
1731014654.6106987,789.0719491244321,804.2359106497289,807.8362632041986,801.3716614887437
1731014654.614622,795.8270616445361,804.3653640352117,807.9277193204281,802.5723814642429
1731014654.6182735,801.5404650589031,804.4986752908708,808.0190156650966,802.4971262475768
1731014654.6185453,806.2241292570134,804.6351724806514,808.1101459110943,802.3615671208732
1731014654.6221852,808.8181193295814,804.7730549673233,808.2011081196567,802.6096590635321
1731014654.6224685,808.1049245889399,804.9111630397746,808.2919088794775,803.0588980836901
1731014654.6263916,804.1828432634859,805.0493377393691,808.3825596632159,803.4411846315046
1731014654.627746,799.0597328839076,805.1879498841652,808.4730721087598,803.699578151501
1731014654.6303153,795.6705914009185,805.3273664123461,808.5634557705563,803.9374395808619
1731014654.6339393,795.8944872152297,805.4677234962955,808.6537183085438,804.3165952931612
1731014654.6342382,799.0504307412409,805.6089734638172,808.7438665761073,805.0894372640286
1731014654.6381614,802.2210785650032,805.7510198206231,808.8339074118596,806.6188212184579
1731014654.6411755,802.4842443985087,805.8938048471827,808.9238478629421,809.1744504526381
1731014654.6420846,799.4812836137932,806.0373209751169,809.013695119369,812.5742840413297
1731014654.6460078,796.117440611045,806.1815823935342,809.1034564071404,816.0083142124512
1731014654.649605,796.475308232878,806.326600061366,809.1931387775821,818.3155045542206
1731014654.649931,802.4248491628379,806.4723787394487,809.2827485900374,818.6276242778682
1731014654.653854,811.7598546307061,806.6189281879161,809.3722907951404,816.9535883436847
1731014654.6577773,819.5266859703582,806.7662672953153,809.4617687557346,814.2404976690228
1731014654.6601665,821.4939281204173,806.9144044390603,809.5511856411873,811.7949531740798
1731014654.6617007,816.9705106831617,807.0633002494068,809.6405475159423,810.4681652520133
1731014654.6632116,808.9158814806959,807.2128515095798,809.729865895953,810.2445335299818
1731014654.6652706,801.5792556379045,807.3629501063032,809.8191553324833,810.5139320585213
1731014654.665624,797.6457097710091,807.5136294773843,809.908422913306,810.672163144825
1731014654.669547,796.8678825082785,807.6651995445102,809.9976542049499,810.4882386879627
1731014654.6734705,796.8488571316601,807.818157562532,810.0868113458604,810.058255969207
1731014654.6773934,795.175307218837,807.9727072619163,810.1758621826417,809.5711482832176
1731014654.6791568,791.3509466046442,808.1280662217155,810.2648392764919,809.1417086813855
1731014654.6809363,787.2149102085355,808.282287844724,810.353882627941,808.7824520848511
1731014654.6813166,785.5462931561002,808.433539485217,810.4431824142281,808.454552215208
1731014654.6852398,787.8128537788051,808.5829102635175,810.5327723471847,808.1215304725165
1731014654.6891632,792.7507465797605,808.7366958566356,810.622275892552,807.7707731396238
1731014654.6930864,797.0312783889568,808.9041447324898,810.7109117429255,807.4078381901708
1731014654.696602,797.7631157770073,809.0879206415702,810.7980944967078,807.0426439808934
1731014654.6970096,795.0165985266503,809.2714809670638,810.8845468834389,806.6808049264833
1731014654.6981473,792.2549317871392,809.4176187424822,810.9729852100487,806.3225953756411
1731014654.6986773,793.9828470058375,809.4950690375678,811.0668152090938,805.9658403749015
1731014654.7009327,802.1365224695255,809.5316450972305,811.1660940495931,805.6086882446651
1731014654.704856,813.9989397660096,809.6515903283744,811.2629994683014,805.2505999256013
1731014654.708779,823.5422079541281,810.0211008189609,811.3427309339727,804.8919535757021
1731014654.7122676,825.5185947327384,810.6569089102558,811.395714698288,804.5333010424994
1731014654.7127025,819.312456554912,811.1868801373233,811.4382917379995,804.1749395658592
1731014654.7166257,809.5200542081534,810.8234392594014,811.5228410893806,803.8168870868881
1731014654.7171378,802.6798927832996,808.7983429398341,811.7079114431966,803.459046730436
1731014654.7205489,802.6099708600537,805.1107076405618,811.9765870867419,803.1013491520514
1731014654.724472,807.891774189686,800.9340763493507,812.1464975563399,802.7437945361905
1731014654.7279334,813.2609120750017,798.1127927045369,811.8709234834741,802.3864232323883
1731014654.7283952,813.5737100571733,797.9811250523187,810.801777800146,802.0292747325303
1731014654.7323184,807.2374336656017,800.4086019530147,808.8364460047652,801.6723731327857
1731014654.7341423,796.8187076319443,803.7952605554399,806.2452517212499,801.3157424840174
1731014654.7361283,786.9214800347648,805.9852892588684,803.5708345544298,800.9594293903808
1731014654.7362416,781.2168758557001,805.4642000549002,801.4197783741043,800.6035001542676
1731014654.7401648,780.5731046820982,802.1350466632165,800.3158613729343,800.2479924064721
1731014654.7435992,783.0966020286787,797.3171575927324,800.5999353069234,799.8928429104416
1731014654.744088,785.6968083160536,793.0540722786602,802.2634229622411,799.5378702301381
1731014654.748011,786.1264318293578,791.1223535079178,804.7795493719879,799.1829094795339
1731014654.7519343,784.326243747853,792.2239766092815,807.1872024636893,798.8281020972016
1731014654.7551188,782.2819590177382,795.7275562091913,808.5385850081467,798.4741230214689
1731014654.7558577,782.4895418634705,800.0477820826019,808.432423822225,798.1219315991259
1731014654.7592647,786.1155759380188,803.4362554980801,807.1855731888763,797.7717771129694
1731014654.759781,792.2000936697284,804.7627292581673,805.499519087413,797.4219164640739
1731014654.763704,798.3977512774759,803.9016711139637,803.9468338986507,797.068526661653
1731014654.7676272,802.5138519881139,801.5824053528415,802.7260498679956,796.7085246859695
1731014654.769608,803.6277336244499,798.8691696689822,801.801930384882,796.3450535288148
1731014654.7715504,802.2082028132679,796.6238006354663,801.1567348860342,795.9912005558098
1731014654.7741094,799.506969328357,795.2495769203229,800.8444529205887,795.6642117802331
1731014654.7749305,796.8253812153729,794.7697888074908,800.8428197986259,795.3660478881499
1731014654.7754736,795.0089033706146,795.0620073495759,800.9542346021943,795.0605606835534
1731014654.779397,794.2619386367344,796.0298878988218,800.9358502402922,794.6763889250835
1731014654.7833202,794.281497204699,797.6292804891417,800.7533439912427,794.1667233163239
1731014654.7872434,794.5954104471164,799.7934865928408,800.6860395900865,793.61831968904
1731014654.790596,794.867229599828,802.3147512116221,801.1370466022124,793.3283700392429
1731014654.7911663,794.9944044153631,804.7223047579586,802.2768489249561,793.7309996550939
1731014654.7930996,795.0276894510574,806.2590035511167,803.8031730158577,795.1508214239769
1731014654.7950895,795.0483494779282,806.1096201821072,805.018176480844,797.5447387138528
1731014654.799013,795.0987982782524,803.8939151679923,805.2049361383267,800.454299710596
1731014654.802936,795.1778682233606,800.144403700146,804.0925850240658,803.2259735900709
1731014654.8050735,795.2662708535541,796.3382981209329,802.129311371491,805.3222742315138
1731014654.8062618,795.3489486591753,794.2748219287132,800.3597508012065,806.4720298743242
1731014654.8068593,795.4220669596543,795.0704052046461,799.9100773315638,806.5848051695198
1731014654.810783,795.4890162571236,798.4130272138605,801.3363497481175,805.628199247468
1731014654.8120902,795.554182798823,802.6452104634623,804.2326979215408,803.7195236466137
1731014654.8147058,795.619650255549,805.7100669240203,807.3887918527315,801.3918443617561
1731014654.818629,795.6852215613859,806.3524275259695,809.450292541577,799.6561454801264
1731014654.8219275,795.7498540150624,804.7434680911787,809.6846108519804,799.5414566357974
1731014654.8225522,795.8128050208489,802.138235625059,808.3571718513023,801.3238705150264
1731014654.8264754,795.8739373621693,799.9351151173444,806.4829566423473,804.1414470632923
1731014654.8303986,795.9334722446753,798.905142227033,805.1535352975162,806.5016560569503
1731014654.831081,795.9916592558842,799.0627308708166,804.916703798417,807.3542554930625
1731014654.8343215,796.0486172970648,800.0222654254728,805.5980487273997,806.7718585860733
1731014654.8375933,796.104349310603,801.3679546576972,806.5921139700221,805.6112561042281
1731014654.838245,796.1588231295348,802.7712013511812,807.3122101095249,804.5398853435009
1731014654.840539,796.212029249488,803.9609790103483,807.4360205155799,803.4344446585617
1731014654.8421683,796.2639892816879,804.7592426031156,806.8489983981018,801.7383462049424
1731014654.8460915,796.3147340084798,805.2045976606605,805.517060106566,799.3663300597881
1731014654.8500147,796.3642824136437,805.6004074859059,803.5643064651043,797.1971431880736
1731014654.8500712,796.4126439463573,806.3649142748152,801.5041487758824,796.6083391249402
1731014654.8532588,796.4598467633557,807.7595607270118,800.2330841550272,798.4282847584519
1731014654.853938,796.5059694757279,809.6961570490142,800.5160342071963,802.2233409212128
1731014654.857861,796.5511327504171,811.7621047419684,802.2612831466075,806.535575640785
1731014654.8617842,796.5954147966177,813.4477886994392,804.2961930466505,809.85532157023
1731014654.8657074,796.6387176134015,814.4425605084624,805.0464957674168,811.5081188310054
1731014654.8689246,796.6807149297836,814.8189229549491,803.6828067117748,811.7711670985689
1731014654.8690617,796.7210651778329,814.9529605425544,800.7723592422445,811.2494521609502
1731014654.8696308,796.7599301065596,815.1788052138153,797.854561109564,810.1703504511512
1731014654.873554,796.7984497526375,815.4119507688929,796.3042584408732,808.2491300810163
1731014654.8760045,796.8384253189319,815.0873018125312,796.4361066336108,805.1926478584998
1731014654.8774772,796.8806204829385,813.5507308329861,797.5152720162835,801.3102008229098
1731014654.8814003,796.922318063013,810.6414215700164,798.5307361616211,797.6208789076486
1731014654.88459,796.9566962480479,806.9879287585561,799.0242942415962,795.3172109736529
1731014654.8853235,796.9773450903252,803.7451910338207,799.3517452355674,795.0085183659156
1731014654.8880522,796.9881772144406,801.9455166131635,800.2692642240304,796.3334992218612
1731014654.8892467,797.0114839936525,801.9303055903582,802.221116505556,798.21749032831
1731014654.89317,797.0799746115576,803.2412136084212,804.860917868161,799.5738879226501
1731014654.8970933,797.2031504767324,804.9829544520871,807.1478524798339,799.9647929962535
1731014654.900256,797.3229342197035,806.3404583408366,807.9690248020135,799.7802243390665
1731014654.9010165,797.3090562442185,806.9013169515824,806.8805041207983,799.8228670048975
1731014654.9049397,797.0544306171057,806.6777973582296,804.4677788032295,800.6216273335438
1731014654.9070427,796.6669288085934,805.9618195287125,802.080393308717,802.0273475808416
1731014654.9088628,796.6140802343439,805.1595363259976,801.1139913884044,803.4078525513648
1731014654.91147,797.5707748955786,804.6229486451816,802.2861032763371,804.2112217561785
1731014654.912786,799.8677382708169,804.4614143546812,805.3089430061151,804.3491724842804
1731014654.9159217,802.9169935834728,804.4280319052159,809.0870759776286,804.1105988841608
1731014654.9167092,805.3117119497382,804.0393523092665,812.2734543548279,803.8397971506824
1731014654.9206324,805.7920003118854,802.9345557625002,813.8656145810763,803.7902345489682
1731014654.9245555,804.29159612086,801.2211071770332,813.5578795521498,804.2249949700962
1731014654.9260333,802.0506614744781,799.4869262867837,811.733235873723,805.4478507415217
1731014654.928479,800.6491564013573,798.4254774766691,809.1711655551429,807.5207038226798
1731014654.9315872,800.8297051188155,798.3838725190623,806.6593859000257,809.8812584416845
1731014654.932402,802.1284665983949,799.2140410446334,804.6962818852667,811.3610895649831
1731014654.9363253,803.5088474595102,800.4978417780663,803.395340084898,810.8248295608421
1731014654.9402485,804.2538711163942,801.8723681875405,802.5941887472227,808.0342902625924
1731014654.9441717,804.3139251012467,803.1656689963633,802.0617402402332,804.0168560946499
1731014654.9450238,804.0404241579713,804.3227506532822,801.6535056363964,800.5578755614689
1731014654.9469354,803.7748757039236,805.3050415460169,801.3410334645738,799.1554900064539
1731014654.947253,803.6532795041776,806.0793289868368,801.1720765526292,800.2110814741629
1731014654.9480948,803.6422825910788,806.6311424097,801.2570439700269,802.9992171199467
1731014654.952018,803.6578776447212,806.9095645736913,801.7815357382798,806.3095537241869
1731014654.9559412,803.6472084015812,806.7638963596922,802.9498970376438,809.169741782534
1731014654.9598646,803.6039862310092,806.0312536162585,804.8172455299182,811.1283144475539
1731014654.9629188,803.5459280310364,804.7877463602233,807.1255107635583,812.0622197888815
1731014654.9637878,803.4900291339465,803.5180020007809,809.3282612896166,811.8802993565297
1731014654.9640143,803.4423759642746,802.9293516210656,810.8563079333549,810.4635630726331
1731014654.967711,803.40058012043,803.461174470399,811.454221297966,807.8342192218261
1731014654.971634,803.3601186544302,804.9061161157797,811.3282134613358,804.2909062245916
1731014654.975557,803.3183923620873,806.5392575848442,810.980608324544,800.3196297947975
1731014654.9785843,803.2752676322672,807.7012495521802,810.842990931318,796.346423460172
1731014654.9794805,803.2317683294572,808.3319084141466,810.9630741452289,792.5605138679863
1731014654.982401,803.1887899770837,808.9607067860961,810.9627258120787,788.9790439560863
1731014654.9830048,803.1466271534053,810.1431851323697,810.3174239801004,785.7172404562884
1731014654.9834037,803.1051458958232,811.843693151613,808.80472438125,783.2359606516933
1731014654.9873269,803.064125464307,813.3304153845522,806.8236450272863,782.314307026725
1731014654.9912505,803.0234586554967,813.6993237625961,805.310206538303,783.681621562708
1731014654.99425,802.9831652053668,812.5801968619563,805.2260994121319,787.5161672835453
1731014654.9951737,802.9433163183189,810.4144455009452,806.9330017025126,793.1571727347813
1731014654.9990966,802.903970058169,808.0851644979311,809.8846265000266,799.2509076023719
1731014655.001995,802.8651557132177,806.2591430694545,812.8373094167973,804.2494354207365
1731014655.0030198,802.8268919146182,805.0216247225458,814.4172107526379,806.9535664142471
1731014655.006943,802.7892042767959,804.0554465035906,813.7099510433903,806.8244507361063
1731014655.0099158,802.7521181180942,803.0919866969589,810.6194704703588,804.0148342379075
1731014655.0108662,802.7156279009149,802.1675841397181,805.90205878881,799.2478217680717
1731014655.014789,802.6796755557552,801.5000389881368,800.8990910172768,793.6510932380472
1731014655.0178664,802.6441856103139,801.2055219865588,797.0879986716974,788.533075072373
1731014655.0187128,802.6091771316918,801.18849862459,795.6342516569832,785.0524044059873
1731014655.0209858,802.5748862165705,801.3039412956294,797.0752718448996,783.8358338228958
1731014655.022636,802.5417324290521,801.5999129744594,801.1338053484519,784.7259980906089
1731014655.0255814,802.5099712684311,802.3753582024483,806.6382238742102,786.8457661041139
1731014655.026559,802.4791227147535,803.9589655661084,811.6917939891368,789.0094354704594
1731014655.0304823,802.4477104798498,806.3582253113145,814.3119900912064,790.2823130985337
1731014655.0344057,802.4141033658078,809.0535133889621,813.4424479548654,790.3593183908856
1731014655.0383286,802.3786973750598,811.1392690080582,809.7091177302754,789.5389636783243
1731014655.039976,802.3460446729075,811.7934382600092,805.1969189541112,788.3747216989836
1731014655.0412471,802.3237637460438,810.8176687624937,802.1995875568978,787.3400527153215
1731014655.0422518,802.3155446539212,808.8776816415923,801.8023977084356,786.7809875682608
1731014655.046175,802.3105828148126,807.1940399689552,803.3737651771174,787.0795534015103
1731014655.0500984,802.2800581998523,806.7904175071754,805.2954599806417,788.6777861612712
1731014655.053332,802.1951070171816,807.7970722524709,806.2472223207019,791.7509321991054
1731014655.0540216,802.0686185237568,809.3742795721686,806.0061878483065,795.7696177091649
1731014655.056913,801.9915403389737,810.3812083496467,805.2647330134719,799.4679913941001
1731014655.0579448,802.1031332775606,810.2745191117372,804.820949658065,801.4687330893236
1731014655.0589666,802.449267227799,809.4820373801083,804.897764016677,801.1870980802031
1731014655.061868,802.7815263452162,808.9443821648365,805.07863132063,799.26039239087
1731014655.0657911,802.4961590974647,809.2580938313372,804.7812161691687,797.0772004430581
1731014655.0697143,800.9425683347303,810.1843426246448,803.817909039627,795.7838021392546
1731014655.0725784,798.0625176613786,810.9074835057569,802.6183121579645,795.6500734903026
1731014655.0736375,794.8742389767582,810.7307013000055,801.9919558492301,796.3236022756122
1731014655.077561,793.1963575808919,809.5518395780648,802.6266483717732,797.5944192012935
1731014655.0779572,794.5359012913399,807.7558743218387,804.6475334744969,799.7745232241386
1731014655.081484,798.8601861249332,805.7506888078857,807.4816185073191,803.2441853538002
1731014655.0854073,804.2719306444133,803.6709358345469,810.1006090689178,807.6626786590247
1731014655.0882442,808.020505347279,801.5234530432225,811.5501109074509,811.7551489118629
1731014655.088797,808.2092804473116,799.5401405349961,811.5185836440527,814.0245273967835
1731014655.0893304,804.918140012343,798.2680458726508,810.5851950266244,813.8072582207488
1731014655.0932536,799.8733511720768,798.2029280933199,809.8731073025941,811.7452810347222
1731014655.0969477,794.9745742529233,799.2832782484646,810.231934873673,809.2774438114592
1731014655.0971768,790.9388169572941,800.7756959867495,811.538338341658,807.6012178433305
1731014655.1011,787.196969606128,801.7465020644804,812.7370467487696,806.9508298878341
1731014655.1039095,783.0479511830711,801.7405190962046,812.6542606697946,806.6996828919823
1731014655.1050231,778.925966750569,801.0659293062292,810.896290664795,806.0803195826227
1731014655.1089466,776.5214880377222,800.4584727252557,808.0498703275072,804.8435144595352
1731014655.1128695,777.5496044014614,800.4798810738854,805.0773271303316,803.314930304005
1731014655.1159382,782.2255947641737,801.1896880365122,802.5604353229431,801.892537671011
1731014655.116793,788.8141810657802,802.2714396192133,800.5050468626366,800.5277311771011
1731014655.1195755,794.6884046042218,803.3430077093568,798.7627327869468,798.7077770451862
1731014655.120716,798.0467417907837,804.1185788625049,797.4962535805403,795.9553724272298
1731014655.1242628,798.9554368627165,804.383834983431,797.1528338218382,792.3752442813048
1731014655.1246393,799.0397992670809,803.9717882563548,797.9893248605379,788.7692330479583
1731014655.1285625,800.2371113410518,802.8410171257121,799.6629368888771,786.2784190292219
1731014655.1324856,803.5961271764247,801.1530631315912,801.3238186943997,785.9047277007838
1731014655.1349287,808.8413716352277,799.2198768698513,802.1787445022627,788.2144433896137
1731014655.1352413,814.7354959839743,797.3510167377307,802.0973182229935,793.1897879573538
1731014655.1364088,819.7798727307983,795.7417221607435,801.790019272666,800.0776633502782
1731014655.1403322,822.7585722717587,794.4805811884289,802.3747363646637,807.346656358263
1731014655.1442554,822.9314664064277,793.6244380652957,804.5693133382009,813.0670432295808
1731014655.1481786,820.0448669021762,793.2392300084854,808.0540426272987,815.7487455013713
1731014655.1509068,814.4584912913859,793.3631384792493,811.5055189998185,815.1473428046079
1731014655.1521018,807.4005575433762,793.9354074740921,813.361014703647,812.4161489647175
1731014655.1539192,800.8986004120006,794.7699900676465,812.8169963005978,809.4485071629706
1731014655.1560247,796.9480155915361,795.6117112444075,810.3549640397792,807.8503367215794
1731014655.1597283,796.2561007174248,796.239869328068,807.4272699305583,808.1773784502207
1731014655.159948,797.6719499007532,796.55945198223,805.5517735989201,809.8232403155084
1731014655.1638713,799.0773966067541,796.6590528999988,805.4550427018185,811.5484402491174
1731014655.1665726,799.1249479714475,796.8371215421047,806.7951126540175,812.3121927338923
1731014655.1677947,798.2152727926477,797.5484632825954,808.5412494402639,811.8942018782346
1731014655.171718,797.7396345862942,799.1871512554819,809.670480192235,810.8940003486015
1731014655.1729095,798.3371311540278,801.7348490573523,809.721386712737,810.1198774143242
1731014655.1756413,798.9279777875767,804.523244716072,808.9183989418297,809.8655469086317
1731014655.1795642,797.507703394407,806.4283871890275,807.8717460713196,809.6810760176631
1731014655.1822383,792.9486812734975,806.534532304414,807.0935765391357,808.8284775824051
1731014655.1834874,786.1304431645984,804.8430598593114,806.6482327328279,807.022412688246
1731014655.1874106,779.4352952749801,802.4218567798723,806.1566900769295,804.8097778324266
1731014655.1913338,775.1465455731656,800.7734236593399,805.156771006379,803.2412888652538
1731014655.1919005,774.1025410983773,800.8590664099738,803.5846519877094,803.070544434357
1731014655.1951938,775.5102095333906,802.5222910846812,802.0147194159422,804.1068082662433
1731014655.1952567,777.7698036690698,804.6999590923105,801.3909376247359,805.2486255780182
1731014655.197904,779.5102411844548,806.1540297538747,802.326035138483,805.2194751051521
1731014655.1991804,780.155363788182,806.1276961322525,804.4503163779864,803.4883972155295
1731014655.2031035,779.8820682411359,804.5594271518391,806.4043043381953,800.6912375038185
1731014655.2070267,779.2620271214668,801.9384159704458,806.6596068171461,798.2306041146626
1731014655.2108908,778.9472880537771,799.0842477442677,804.6489872433405,797.3745503439379
1731014655.21095,779.5403043589107,796.9720885503092,801.3061221798823,798.5559469571804
1731014655.2135696,781.5237708941401,796.4920058787297,798.5005578113894,801.3343038942396
1731014655.2148733,785.0567469817707,798.0487397009659,797.753704085602,804.8544606729074
1731014655.2187965,789.6500993076468,801.1780351536289,799.2428524434055,808.266598208468
1731014655.2227194,794.0318715259507,804.5565133096065,801.8548920044132,810.8082670456805
1731014655.2266426,796.5562247861245,806.608499718361,804.1555599090971,811.7472314665544
1731014655.2292354,796.1203275194797,806.4325958737979,805.4153387105802,810.5362676941743
1731014655.2298813,793.0004158670708,804.4136324247055,805.9024980557957,807.1922124155539
1731014655.230566,788.8666826669436,802.0272837253613,806.3657828777099,802.5239484453135
1731014655.2306592,785.7889995472998,800.9146449981329,807.2849631800281,797.8667258123448
1731014655.2344892,784.9194842310691,801.8502006772833,808.533128368021,794.4158985602947
1731014655.2384124,785.9157800118179,804.3217860000954,809.6285724408436,792.6553106555427
1731014655.2423356,787.5870555565705,807.0020914153566,810.2310776237011,792.3400327123586
1731014655.2449007,789.1556841905751,808.718423013488,810.392411630369,793.0155501424739
1731014655.2462587,790.9601999342358,809.1471706049601,810.377255823931,794.5545215521367
1731014655.2488718,793.9666247261764,808.7530557307197,810.313159222757,797.1640739507832
1731014655.250182,798.6037678321499,808.2085103876896,810.0713718987978,800.8438822062631
1731014655.254105,804.0730782830553,807.9026188751001,809.4852221787037,804.8634187862986
1731014655.2580285,808.7931455541303,807.8592707111402,808.6139348962297,807.8587622234614
1731014655.2605667,811.532632823097,807.9265067475753,807.7213111035097,808.5622402168974
1731014655.2619517,812.1705769568512,807.970453996662,807.0013280182832,806.5736340929699
1731014655.2658749,811.4765547540699,807.9482516913074,806.3948626349348,802.5697622563267
1731014655.2661247,810.2958601589686,807.8828117811534,805.7174884368684,797.8802336533731
1731014655.2678623,809.010712530021,807.8109652928187,804.9269771454678,793.8393496132605
1731014655.269798,807.6849164936996,807.7525071226307,804.2025319025138,791.3324092279778
1731014655.2737212,806.4718638456859,807.7075451211736,803.765192828379,790.6372851776586
1731014655.2762325,805.6027104261067,807.6676648542187,803.6753290133673,791.4389182565948
1731014655.2776444,804.8534090431659,807.6260544292367,803.8157950052047,792.9366609017935
1731014655.2815676,803.1763116076256,807.5808553106885,804.0201863308262,794.0871462839474
1731014655.2854908,799.2602062860153,807.533507564577,804.186229470256,794.0040387449644
1731014655.2868526,792.8950942237834,807.4859774414027,804.2970505330956,792.3811661998171
1731014655.2894142,785.9522617586332,807.4392368177489,804.3810530394613,789.7023006406201
1731014655.291898,781.7554838522336,807.3932307997222,804.4677132042926,787.0763774867523
1731014655.293337,782.9644160560971,807.3475052258929,804.5683422309125,785.7471595039195
1731014655.2972603,789.6316981750983,807.3017257384195,804.6793082069867,786.5203184408936
1731014655.3011837,799.1457543823449,807.2558258939781,804.7928035719789,789.3945761555055
1731014655.3015902,808.0935056472017,807.2099031987473,804.9040971380842,793.5556028046008
1731014655.3051069,814.3706405340673,807.1640716327839,805.012733770385,797.698405733089
1731014655.305843,817.8850851213358,807.1183875703726,805.1203797561278,800.5181493909182
1731014655.3075638,819.7287513410482,807.0728537145862,805.2285715914568,801.1803454111675
1731014655.30903,820.9658672662669,807.0274545443743,805.3378294896511,799.5927736257734
1731014655.3129532,822.0546101851334,806.9821835493051,805.4479112830123,796.3496084683103
1731014655.3168764,822.9515157674621,806.9370496178556,805.5583979473586,792.3709897266651
1731014655.3207998,823.3842531127569,806.8920689913479,805.6690560436533,788.4815617992008
1731014655.3232296,823.0161832718064,806.8472539506809,805.7798779487409,785.2382990164846
1731014655.324723,821.6472146095598,806.8026066914497,805.890958160955,783.0796529881794
1731014655.3248336,819.5596531341863,806.7581232181968,806.0023755556672,782.5262910554649
1731014655.3286462,817.7339126627343,806.7138076309336,806.1141508078731,784.1057130607155
1731014655.3325694,817.5305375409432,806.6696886804061,806.2262629774807,787.9840493706159
1731014655.3364923,819.8556472188395,806.6258197279511,806.3386838702997,793.616689559727
1731014655.3370557,824.4050276104647,806.5822424018465,806.4514030658627,799.731192565668
1731014655.338895,829.674238819106,806.5389194848879,806.564435418264,804.7029202929195
1731014655.3404157,833.8423068432535,806.4956934974477,806.6778098568925,807.1755520390074
1731014655.343824,835.8712640384998,806.4523646663558,806.7915400778658,806.7012884145216
1731014655.344339,835.9194743733801,806.4089329313398,806.9055888776702,804.0994719500397
1731014655.3482623,834.7256417333826,806.3658697260155,807.0198601307759,801.193312374161
1731014655.3521855,832.554068911596,806.3240640088164,807.1342621093418,799.8428322362624
1731014655.3545609,828.7635765384679,806.2840888230303,807.2488450561935,800.7659651394144
1731014655.356109,822.5532622122082,806.2449527611836,807.3639137784525,803.0192824549611
1731014655.3600318,814.3110177025704,806.203466424356,807.4799201347854,804.6468162522376
1731014655.362815,806.2649525080197,806.1559557591736,807.597000122392,804.0665146055321
1731014655.363955,801.555526897266,806.1029298267773,807.7143566480627,801.1182306293767
1731014655.3678782,802.1403803660166,806.0537905950265,807.830180060849,797.0111403364726
1731014655.3702266,807.0526692496433,806.0246522291934,807.9429351330332,793.3840283364074
1731014655.3718014,812.5012695371491,806.0228636250882,808.0539563507252,791.3638629375437
1731014655.3725212,814.0402955221745,806.0217542384505,808.169314562392,791.2761207913354
1731014655.3757246,809.4312219041219,805.9452210762541,808.2972754429121,792.8971271170706
1731014655.379648,800.1415221018161,805.6849280521221,808.4391982285425,795.7164866459866
1731014655.3818052,790.3349246322563,805.1518041903331,808.578407820271,798.9735084843296
1731014655.3835711,784.0855121662022,804.3559705802246,808.6805418185567,801.746215230405
1731014655.3858922,782.861282285686,803.5219963451077,808.7201311867491,803.3824123395334
1731014655.3874943,784.9845931674663,803.1746262686911,808.7297012407818,804.026130054277
1731014655.3914175,787.1645932440432,803.9975992207559,808.8302798967649,804.6160654727726
1731014655.3953407,786.743297958839,806.3608254707682,809.1755015726874,806.106754320064
1731014655.399264,783.1019597402603,809.800887388642,809.7796416755156,808.4924310885422
1731014655.4007957,777.6090185528064,812.9848564741491,810.3369712294292,810.588330154178
1731014655.401558,772.567171116585,814.3829919486539,810.2763594893266,810.944274475104
1731014655.403187,770.0189142998128,813.2435405309188,809.1624647596607,809.2174221578663
1731014655.4071105,770.9724679642011,810.1307407995395,807.1238648633109,806.7978590639942
1731014655.4079866,775.1485458386719,806.599142009017,804.8162459282908,805.9945830223774
1731014655.4110336,781.1569468705499,804.253947833467,802.9006459439786,808.2742724396041
1731014655.4149568,787.0460344144229,803.8908756693816,801.5622339054412,812.9330228012236
1731014655.4172237,791.1255028325053,805.2685503519823,800.5093827113654,817.3739046764213
1731014655.41888,792.7486249203471,807.5193668123904,799.363478828012,818.9166466220183
1731014655.4197862,792.5962622708611,809.7523898542454,798.0262056211387,816.7623188819309
1731014655.4228032,792.1938476147542,811.3984597679503,796.7386775977069,812.5319532330928
1731014655.4267263,792.8739821117415,812.2010356238355,795.871792810126,808.9628043120788
1731014655.4306495,794.8422639154196,812.0723950116932,795.6713611624486,807.8914849554868
1731014655.4328892,797.0462559832349,811.0418483197982,796.1259676597579,809.1762395122196
1731014655.4345727,798.0494134617888,809.3125593487994,796.9736226257838,811.2584989326117
1731014655.438496,797.334906433093,807.2896431369577,797.7926425921685,812.6112133896104
1731014655.4387767,795.9948533410691,805.4717362416873,798.1593511904617,812.7488696513525
1731014655.4424193,796.0861525253569,804.2263094976723,797.8755277790422,812.1440141647931
1731014655.443452,798.9546848502118,803.5748827766914,797.1743263671898,811.4399318035355
1731014655.4463425,803.8028654754498,803.1463972836345,796.7016195248067,810.7803374901098
1731014655.448555,807.8321834569106,802.38887628872,797.1576165213002,809.7501738822916
1731014655.4502656,808.1604420705376,800.95799924615,798.8017569913206,807.851775140057
1731014655.4541888,804.1345597474669,799.0266668214294,801.2536818602068,805.0742375055655
1731014655.4577672,798.0385751454055,797.2581346200424,803.8149084933492,802.0733339123477
1731014655.458112,793.3928714053782,796.417815766654,806.0171120002005,799.761165049059
1731014655.4620352,792.2137272637002,796.8909503960053,807.8513439151671,798.5987355355777
1731014655.4642203,793.6454483448107,798.4604710141512,809.4865799055817,798.2168417041254
1731014655.4659584,795.0803664526519,800.4945686887163,810.8572702844542,797.7561405605699
1731014655.4698818,794.5030317326698,802.3752855707622,811.6157699982343,796.6422095361487
1731014655.473805,791.8263563550637,803.836566290213,811.4903725538815,795.0859813794935
1731014655.4767578,788.3188252718365,804.9878207629849,810.6263347407377,793.8946681432453
1731014655.477728,785.1879223928648,806.0583440890505,809.5337729286578,793.8333106103514
1731014655.4789176,782.8588254277653,807.0896997967229,808.7036735173971,795.0684432749047
1731014655.4798863,781.2996328870598,807.8057267199799,808.2633656270326,796.9857748988359
1731014655.4816513,780.5425012665266,807.7469994834545,807.9483360551791,798.3742219570477
1731014655.4855745,780.643021326054,806.5865192810812,807.358556680195,797.9321742794698
1731014655.4894977,781.2987120559319,804.4335559842136,806.2728909881697,795.0360611487125
1731014655.4934208,781.87162688188,801.9228681802585,804.8176267570486,790.4395902804133
1731014655.495552,782.0306354975774,799.9875597950409,803.4072580801886,786.311632989063
1731014655.4957483,782.3562768445091,799.3923816060766,802.488495681927,785.2776613422079
1731014655.4973445,784.1013813286897,800.2707859901423,802.217439921629,788.8905375626878
1731014655.5012674,788.090848829292,801.9561955581518,802.2773396283528,796.5534805495254
1731014655.5051906,793.6751215513199,803.2696130240379,802.0173343842848,805.7177448032336
1731014655.5091138,798.7744773869465,803.166379553213,800.9050437067476,813.2712682185966
1731014655.5112176,801.1772246295152,801.3955959871894,799.0310188836902,817.1784363267461
1731014655.513037,800.113953613733,798.7532634446669,797.2780842219947,817.3267761406078
1731014655.5143833,796.7503313297842,796.7018307828558,796.9140305775509,815.1942529758654
1731014655.5147388,793.0794272492572,796.5168039424997,798.7516218914744,812.7575177918903
1731014655.51696,790.147508890919,798.4796908698186,802.4212227900643,811.410715774917
1731014655.520883,787.2984550452113,801.682306164532,806.3771446871275,811.4476586301071
1731014655.5248065,783.2811844037747,804.6173418046138,808.8019380183617,812.1973199398409
1731014655.5268834,778.2186367241455,806.1414002713616,808.828894223361,812.5600096838268
1731014655.52873,774.3804274165657,806.10216649453,807.127151707601,811.6154670691893
1731014655.532653,774.6970915576699,805.2150562394295,805.3470007805051,809.0754579684693
1731014655.5337293,780.1986487548741,804.401917461215,804.8820972227461,805.4574709417282
1731014655.5365765,788.7818718719597,804.1842883505539,805.9770126657278,801.89609133167
1731014655.5404994,796.5608211421347,804.5473407489139,807.8408874939336,799.5925512693129
1731014655.5425491,800.6535973424661,805.2135417288102,809.5040752683483,799.1292305365462
1731014655.5444226,801.0127388040745,805.9786677441848,810.5793232841497,800.0932413112344
1731014655.5483458,799.9315722643771,806.8589222893671,811.3423461032901,801.3517138720392
1731014655.5498486,799.946842091487,808.040076895288,812.2530488316946,801.8466503514663
1731014655.552269,801.9908171831054,809.7152107802315,813.4626455726377,801.3241606195185
1731014655.5527196,805.0751958620847,811.8608619710702,814.689849487787,800.4472574270616
1731014655.5561922,807.410143099901,814.0392298153914,815.4319990053131,800.2607724928795
1731014655.558215,807.9226967675745,815.4335150419485,815.2657765011031,801.4825704253643
1731014655.5601156,807.0924452623603,815.2666661402255,814.0675513923371,804.1271375706896
1731014655.5640388,806.5970025532151,813.406216016899,812.1064460434048,807.5831422655153
1731014655.567962,808.0552713279536,810.644170505021,809.9851505186216,810.9226603009556
1731014655.57171,811.7912752068954,808.2974663914222,808.4150876836711,813.2207034173877
1731014655.571885,816.5668917536696,807.3567502281624,807.9074616562094,813.8476556420471
1731014655.5738804,820.4825938868424,807.8477249985948,808.5511808908412,812.731489084515
1731014655.5758083,822.2738927746171,808.89650684966,810.0038394500116,810.4464544153782
1731014655.5797317,821.9347090533499,809.3850576517707,811.6781327407108,807.9573853128744
1731014655.5836546,820.2563717813747,808.6413215773684,813.0057162051866,806.0867919143218
1731014655.585314,817.8209245288898,806.6932432575697,813.6576933964574,805.0492341838677
1731014655.587578,814.3726438532892,804.048182673221,813.6364618528194,804.392901453587
1731014655.5895462,809.0982910675871,801.3055768385698,813.1945765474584,803.3858402545367
1731014655.5907006,801.6107335640651,798.9214367998371,812.6197991908639,801.5699985196288
1731014655.5915012,792.879793028318,797.2016826595764,812.0370732233977,799.1252131900666
1731014655.5954244,785.2816552477898,796.3659563853506,811.3907721245037,796.8260948797149
1731014655.5993476,781.4421508880915,796.4972221837289,810.6035958285587,795.5935721571639
1731014655.6032708,782.4686463273063,797.3795307822544,809.7073121868372,795.8587003218887
1731014655.6052115,786.8842777706102,798.4309083806538,808.7620090602135,797.1249855920188
1731014655.607194,791.314321804525,798.9251860926596,807.6520085578627,798.1033836277626
1731014655.6096911,792.6490050657176,798.4344751922839,806.0587338395235,797.4688177330039
1731014655.6111171,790.0754460958858,797.1665396029911,803.7678884737255,794.7837841187334
1731014655.6150403,785.3588926109646,795.9086152534393,801.0838854609613,790.8850400440787
1731014655.6189637,781.2304657778925,795.6036399009666,798.9244121106342,787.3632452204047
1731014655.6207795,779.3710044592395,796.8546140831412,798.3950196605385,785.4850115011482
1731014655.6208775,779.6996942136368,799.637244055553,800.0849910705502,785.3853864514665
1731014655.622887,781.2922362514806,803.3020002073712,803.5748133302073,786.1427144207889
1731014655.62681,783.6782337391043,806.8067699432648,807.519273207386,786.6191985682237
1731014655.6286817,787.0656177639208,809.0948662997987,810.2997059997554,786.345888545632
1731014655.6307333,791.3335257361167,809.5067552845991,810.8714553503095,785.7438421193323
1731014655.6346564,795.0415083947519,808.0588510893961,809.2794063930542,785.5578608860609
1731014655.6365433,795.7935436004618,805.4409751029518,806.5037952793796,786.0434664034586
1731014655.6385796,791.9886405848368,802.7187693026794,803.7667476685104,786.6546324035518
1731014655.6425028,784.542838580326,800.8814433103785,801.8375832223528,786.547559896133
1731014655.6464262,776.9520261140551,800.4395463670469,800.8341234932141,785.4823109984525
1731014655.6476722,773.3414533806581,801.2394379233932,800.5322885221475,784.300461800872
1731014655.6503494,775.8432567062677,802.5685373661697,800.7520931519937,784.4741113534405
1731014655.6522088,783.2750537462834,803.5166579603414,801.4388073392333,787.013935020416
1731014655.6542726,792.083249344866,803.451800101621,802.4899920813106,791.5943358568942
1731014655.656245,798.7341891115971,802.385345256877,803.6563914189394,796.5989255408966
1731014655.6581955,801.7089891598416,800.99508057392,804.6736145574306,800.0617371547326
1731014655.662119,801.7854903131141,800.2199458263207,805.4428405640722,800.8138658969025
1731014655.666042,800.7998190398182,800.6295325734613,806.0233737771956,799.0681377416989
1731014655.6666627,800.1815824410158,802.0063178567311,806.4656702355088,796.1683043902324
1731014655.6678746,800.3480503370341,803.488098366394,806.7160991119916,793.8143420077195
1731014655.6699653,801.0055570033564,804.1807721671603,806.6964127898622,793.2901862608002
1731014655.6738884,801.7266523849684,803.7361585335004,806.4004898191017,795.0252854680207
1731014655.677812,802.2896794300042,802.4275479573897,805.8308461181423,798.5325512413104
1731014655.681735,802.6987178785181,800.7473868944467,804.84947307757,802.6427510795687
1731014655.6835403,803.0519445882294,799.0027535549691,803.1965391767005,805.9586256099309
1731014655.6856532,803.4265280855396,797.3186006033595,800.7798590373011,807.4078279202939
1731014655.6856582,803.8423680562989,795.9539328806618,798.0157932276204,806.6650340285872
1731014655.6895814,804.2823213609404,795.4588454346718,795.8687683032239,804.2056549429049
1731014655.6917105,804.7240500468802,796.3810409005999,795.4379963220978,800.957689253897
1731014655.6935046,805.1569587966447,798.7694588741338,797.2978991707128,797.8032649722237
1731014655.6974275,805.5821383191977,802.0019692201467,801.0288272237009,795.2763628376797
1731014655.699206,806.0050389347188,805.1532957582335,805.3079516799393,793.5982999512655
1731014655.7013507,806.4295969054123,807.5664551668848,808.5833097757682,792.8871748258521
1731014655.7046435,806.8566551285413,809.1146871899828,809.9262009260226,793.2697040479379
1731014655.705274,807.285216485353,810.0037413067246,809.4668750715598,794.7842459840484
1731014655.7091975,807.7141317809501,810.4193578232102,808.0897146037023,797.1941272709631
1731014655.7131207,808.1429199849565,810.3888328659842,806.6559550263944,799.9191672559039
1731014655.7148716,808.5717028781962,809.9165934916603,805.4333670029376,802.206449922516
1731014655.717044,809.0007991954948,809.1669615121809,804.2172433805191,803.4851048746137
1731014655.7209673,809.4304249713632,808.4729224287397,802.9575099773516,803.6843016655283
1731014655.7236342,809.8606264104812,808.1623375184039,802.1989417667926,803.2561828663413
1731014655.7248902,810.2913563577641,808.3638907140875,802.8090123388711,802.8340863757413
1731014655.727176,810.7225687228657,808.9445302512222,805.163398866161,802.7814928609483
1731014655.7288134,811.1542651399384,809.5916979661623,808.5179153100513,803.0348398509916
1731014655.7305372,811.5864891773687,809.942275678398,811.1925011925854,803.3840269939665
1731014655.7327366,812.0192882449197,809.6782450113245,811.5247911928136,803.867374753018
1731014655.73666,812.4526667879679,808.6032777601017,808.9137190029168,804.7906268078133
1731014655.7405832,812.8865612027055,806.7366631483247,804.2085581707772,806.2690723156137
1731014655.7426248,813.320876020014,804.3661730797915,799.2210692827515,807.7727153659986
1731014655.7445064,813.7556005126366,801.9396260549227,795.7600561906186,808.2636148624018
1731014655.7462027,814.1909462951566,799.7989033400861,794.8068759356772,806.9417836793845
1731014655.7484295,814.6273405652527,797.9717906633515,796.2117968199661,803.9312124355455
1731014655.7523527,815.0650973581103,796.2582221611364,798.9289444594828,800.2186373334096
1731014655.756276,815.5038179113993,794.5818949256796,801.6009297993879,796.8908554252417
1731014655.7601993,815.9420310198702,793.2812679395824,803.236122850207,794.4329339267297
1731014655.7616153,816.3779132405058,793.0157562169278,803.6827575845272,792.7615649259518
1731014655.7618687,816.8114740280778,794.2895809189001,803.6409037043073,791.8589581306459
1731014655.7626414,817.2469727574479,796.9488818965449,804.1758805143706,792.2127114785656
1731014655.7641222,817.692361828137,800.0748557487087,806.0255453982741,794.4665075368141
1731014655.7680457,818.1526200028528,802.4164308782016,809.1541783366141,798.5521978516047
1731014655.7719688,818.6185605101979,803.0928903744269,812.8171182297691,803.2157994015045
1731014655.775892,819.0613744537952,802.0743407829243,816.0117058848434,806.5777661078463
1731014655.7775342,819.4484309184521,800.1091740909557,817.9525982030227,807.3954862205613
1731014655.7798152,819.7855049147919,798.190699699374,818.3065116806657,805.9669833062713
1731014655.7806058,820.1589253462932,796.985308224457,817.1868312140132,803.8739787363044
1731014655.7837384,820.7157165509797,796.6193421787498,815.0506488421935,802.7830941384259
1731014655.7876616,821.52665524283,796.8945809639625,812.5768621666683,803.3203407985268
1731014655.7915847,822.3707920020065,797.6550577061566,810.4944764545412,804.8686866648377
1731014655.7932,822.6344774244417,798.9362368362831,809.3347870191373,806.2605975886347
1731014655.795508,821.5761209623121,800.7707973906129,809.1862674803557,806.6603779760959
1731014655.798107,818.9707223564237,802.8989311320029,809.6118232705862,806.0177898951438
1731014655.799431,815.6874173110223,804.7650626023208,809.8466632732234,804.9985343857905
1731014655.799596,813.5405888746936,805.8963786270103,809.227412359356,804.5917336273478
1731014655.8033545,814.1848305656524,806.3153481018608,807.6108797008208,805.5285950072918
1731014655.8072777,817.6747218319307,806.5231390695797,805.4927693897436,807.6526108656725
1731014655.8088658,821.8629480647368,806.9818955865428,803.7252853125922,809.6549799749592
1731014655.8112009,823.4255228064437,807.5587224922069,803.0273951811707,809.6690524781463
1731014655.815124,820.0413560018249,807.5129125664731,803.6137417883203,806.6369523752109
1731014655.8185866,812.1112700961995,806.131817708755,805.1302643186301,801.4888615386423
1731014655.8190472,802.5611437574142,803.4784909118164,806.8593442431899,796.9936366055688
1731014655.8229704,794.800095466894,800.5508628492194,808.063849096105,796.0897554021876
1731014655.8245313,790.4522148699216,798.6646992819091,808.3513162963665,799.831435597539
1731014655.8268938,788.606017688671,798.5672472027687,807.9033205140805,806.5343247160203
1731014655.830817,786.9785385066501,799.9865229867264,807.3736854646618,812.8050755630107
1731014655.8335724,783.8806355767191,801.8866214572787,807.4238890277989,815.6607146222087
1731014655.8347402,779.4609741763005,803.1376650429233,808.2154403235913,814.1619940843169
1731014655.837577,775.4941406972863,803.134101677062,809.3178420619339,809.5208718545002
1731014655.838663,774.100656139606,802.0880647513446,810.1204810318021,803.9409339567294
1731014655.840197,776.3900134006403,800.9320434778853,810.3187452687755,799.3230515275237
1731014655.8425865,781.8630705041496,800.8485301708928,810.0298481214019,796.7148522765212
1731014655.8465097,788.7869814584079,802.5727368530955,809.5580076688175,796.436515638333
1731014655.8504329,795.1343395250684,805.8470642338111,809.1314398995606,798.2473711833459
1731014655.854356,799.4353039146133,809.4685515062822,808.8140493950874,801.2547292979576
1731014655.8558629,801.1182328949853,812.0095845338594,808.5627434829547,803.9396348716956
1731014655.8565676,800.3554630314999,812.7186536380642,808.316518750997,804.7593174555726
1731014655.8582797,797.7087377571545,811.8803056385274,808.0451625737159,803.1390503473476
1731014655.8622026,793.8437981575809,810.3390259565244,807.7506933810126,800.0646924444166
1731014655.8661258,789.424447156891,808.6384853617229,807.4477584404677,797.6651758482084
1731014655.869038,785.1806423782452,806.5979226943952,807.1472909097326,797.9776636587329
1731014655.870049,782.0500785816017,803.7521655617586,806.8517975239412,801.7125487461692
1731014655.8715284,781.171097965385,800.2478083144324,806.5585957088176,807.7556733302079
1731014655.8739722,783.4983899032609,797.2876477655298,806.2644468115143,813.6013385842057
1731014655.875558,789.0876238163355,796.5519400171061,805.9678950409035,816.4531134789822
1731014655.8778954,796.5077896908817,798.9458542761121,805.6691590137551,814.5372054853818
1731014655.8818183,802.9719433369946,803.714535278877,805.3690391851937,808.0647234573096
1731014655.885742,805.3880496595912,808.7629731610765,805.0680850107161,799.2680034434213
1731014655.8871942,801.880157928267,812.0199603159775,804.7663942048558,791.3196766095692
1731014655.8896651,792.9291052161145,812.759438359598,804.4638091747618,786.7006622643561
1731014655.8935883,781.4020794939531,811.8219309635097,804.1601613815776,786.0755846119249
1731014655.894549,771.2852222782462,810.6694332220634,803.8553834075473,788.3719424912317
1731014655.8975115,765.6756091429387,810.2012258388797,803.5494938663852,791.8095486265064
1731014655.901435,765.2148187008921,810.3104107949956,803.2425370757977,794.9897621182814
1731014655.90286,768.0908713036035,810.3407635716546,802.9345415939696,797.3527934848561
1731014655.904503,771.6143678994758,809.8294018095839,802.6255139531634,798.9832029965262
1731014655.9053578,774.0107764659633,808.8765477498803,802.3154522265554,800.1778042143452
1731014655.909281,775.0360989720843,807.9842058672681,802.0043583772416,801.1228229425145
1731014655.9132042,775.3629792008488,807.6415640592546,801.6922381649509,801.7623331323622
1731014655.9135392,775.691071035927,808.0060274879362,801.3790908394891,801.8280403560208
1731014655.9171276,776.3118046033496,808.8638081530465,801.0649014432792,801.0275626021397
1731014655.9185257,777.1646908947366,809.8509921809058,800.749651548427,799.3371659080971
1731014655.9210508,778.0776128235418,810.7508426442309,800.4333533251893,797.1969105795616
1731014655.924974,778.9386220323242,811.616661985846,800.1160846826111,795.3883519877631
1731014655.9288971,779.7317850541918,812.5903314565801,799.7979745500728,794.6089183185437
1731014655.9325297,780.4924679118641,813.5620862847003,799.4790941147752,795.0396134608201
1731014655.9328203,781.2560211899788,814.0234469336268,799.159288361619,796.2341758382016
1731014655.9341912,782.0357203535013,813.3682610240623,798.8381141671643,797.3992138550418
1731014655.9367435,782.8270735952476,811.5057176394246,798.5151163005889,797.8383129389234
1731014655.9399688,783.6207744219639,809.2726144736934,798.1904881215531,797.25679560762
1731014655.940667,784.411277722367,808.1502881826715,797.8656666349514,795.7925517624195
1731014655.94459,785.1981363856287,809.2998417674124,797.5429097315904,793.86695450064
1731014655.9485133,785.9833911743038,812.5664122294692,797.2231200520828,792.034697742287
1731014655.949857,786.7688952017543,816.2951160654877,796.9027530990106,790.9015179376995
1731014655.9515202,787.5552822199045,818.2748888428858,796.5730897087773,791.0172886493193
1731014655.9524364,788.3422861950967,817.2247621567428,796.226067565495,792.6502956257149
1731014655.9563596,789.1294418163125,813.7034733255828,795.8668974434629,795.5509668310469
1731014655.9602828,789.9165104398098,809.6879193116406,795.5241308367439,798.9790026740133
1731014655.964206,790.7035212165571,807.1196765250153,795.2391834029906,802.1039143997801
1731014655.9655223,791.4906212581533,806.5781217870166,795.0233544866124,804.4750538670797
1731014655.9681292,792.2779391218661,807.1055981019867,794.8018998728402,806.0879286641353
1731014655.9705107,793.0655423031703,807.192235599169,794.4098822588396,806.9776001949463
1731014655.9720523,793.8534631243148,805.9904889588651,793.7163554813596,806.8678927567144
1731014655.9754343,794.6417335559692,803.8092537012233,792.8722532527862,805.4400108518687
1731014655.9759758,795.430390736451,801.7068542104266,792.5031305671934,803.0701270471897
1731014655.9798987,796.2194550776421,800.7211119129993,793.5469565701512,801.1765469546427
1731014655.9811883,797.0089154315049,801.3445963410092,796.6199649225592,801.5096320703367
1731014655.983822,797.7987626523337,803.4343354606727,801.3015944568475,804.7628774818482
1731014655.9877453,798.5890785416215,806.3846746885007,806.056187804818,809.7235398141547
1731014655.9895012,799.3801130595313,809.3715970890003,809.0915297496413,813.86602318486
1731014655.9916685,800.172216500407,811.6304392960883,809.5646036514729,815.041088712583
1731014655.9955916,800.965533226284,812.7706323776526,808.1379006099455,812.9216259138566
1731014655.996854,801.7595885196429,813.0048207744181,806.4233581540137,809.067866252374
1731014655.9995148,802.5532292890766,813.0711468256812,805.7808076331775,805.6460279646049
1731014656.003438,803.3454745951855,813.7611574516098,806.4187734668144,803.891529310799
1731014656.0073614,804.1372459213026,815.2988307198591,807.4453315630499,803.4761704969987
1731014656.0084918,804.9326281975138,817.0539969572271,807.7562590001438,803.0853568733166
1731014656.0108998,805.7372054130398,817.9170493180831,807.028211614306,801.5597196143434
1731014656.0112846,806.5520089215207,817.1433287159914,806.0350309392585,798.6791265930832
1731014656.0125196,807.3660536516545,815.0155810425538,806.031975008096,795.1454621413225
1731014656.0152078,808.1564321220509,812.7294285716528,807.6749566069037,792.0015128376167
1731014656.0191307,808.9058336430346,811.5151307268028,810.3396243674563,790.0295719493843
1731014656.023054,809.6350697249487,811.6769626826988,812.449978103569,789.4927729662461
1731014656.0269773,810.4230254189688,812.3499844245431,812.6494078507804,790.2184539299642
1731014656.0274825,811.3677244238311,812.1943027998606,810.9301916197476,791.8088737989082
1731014656.0281854,812.4650575287437,810.4603205708484,808.7969347138207,793.7941686942738
1731014656.0309005,813.466290356577,807.5602020260649,808.2722205377859,795.699134384518
1731014656.0348237,813.8750263482083,804.7262788208169,810.4821228282524,797.1174486882933
1731014656.0387473,813.2166921907974,803.1097988910484,814.8969884166429,797.8757533685591
1731014656.0426702,811.4437830544264,803.0764853256549,819.7487253410043,798.2246425423476
1731014656.043851,809.0447718050935,804.1647956700726,823.1898596889066,798.8331565920658
1731014656.0463653,806.5959476337981,805.5388274201658,824.2542306409387,800.394864373034
1731014656.0464728,804.1393369844727,806.4370983182381,823.0239568716867,802.9832011548222
1731014656.0465934,801.1098261139666,806.3422695258652,820.1729838723968,805.6899704521855
1731014656.0505166,797.0266992128576,805.0030364751769,816.4772884359844,807.0542569860507
1731014656.0544398,792.3214591511118,802.5296556126133,812.6527802334292,806.133287520013
1731014656.058363,788.4284555583346,799.5240829643144,809.3881510907169,803.3230253263594
1731014656.059517,786.9038236909533,796.9911417555165,807.2476798253149,800.1055012779522
1731014656.062286,788.2678756242278,795.9051973962133,806.3814813237532,797.9226662339274
1731014656.0654633,791.6033598016172,796.6470759279175,806.3437884636096,797.2525177755331
1731014656.0662096,795.309764716362,798.7208987082624,806.3348894228849,797.6284816772082
1731014656.0701327,798.338307044891,801.0074633137615,805.7849644933789,798.3008391409257
1731014656.074056,800.749114161287,802.4180648224296,804.7925451123056,798.7963610844771
1731014656.0751824,803.0888520968239,802.4928527060523,803.9807808789739,799.033507635808
1731014656.077979,805.2778761854,801.5218063475913,803.8552631888133,799.1426163003695
1731014656.0818307,806.1954901677262,800.1573987698503,804.2417178171338,799.261236596066
1731014656.0819025,804.4317851247706,798.9049575298089,804.3430067298372,799.4432819438175
1731014656.0844536,799.5128179383628,797.9324145497532,803.3988700287931,799.6727685070861
1731014656.0858254,792.5162440950465,797.28429721872,801.3834425717386,799.9135662023064
1731014656.0897486,785.6754797263364,797.1720121266201,799.1359135156398,800.143426422514
1731014656.090848,781.4499967306692,797.9537454161516,797.7998774305405,800.3599521732364
1731014656.0936718,781.6747912098112,799.7659415713945,798.0083000668109,800.5707658266341
1731014656.0975952,786.9014799007098,802.1700889513636,799.4335154076816,800.783024166732
1731014656.1015184,795.829291495185,804.222831153594,801.0207755767947,800.9992028499794
1731014656.103444,805.194115259858,805.0097681483948,801.7175944058744,801.2182090062922
1731014656.1054416,810.8321169674371,804.261772384767,801.1846649498324,801.4380884963726
1731014656.1065135,809.9157218745404,802.5918115961025,800.0206628962022,801.6577270599436
1731014656.1093647,803.0003139799409,801.1864792502898,799.369452576285,801.877056662775
1731014656.113288,794.1053366584077,801.1639664948226,800.1717993812118,802.0964912957336
1731014656.117211,788.406916095772,802.9854599125708,802.5504997313651,802.3163843839513
1731014656.1172962,789.103437789729,806.2230678044849,805.742426751873,802.5368329646055
1731014656.1211343,795.6969309517103,809.7561998354563,808.6277313464064,802.7577497165657
1731014656.1221795,804.7195247621248,812.2477150394618,810.4733810040449,802.9790020566571
1731014656.1224346,812.0913946643963,812.6645252649364,811.3369040562533,803.2004956933415
1731014656.1250577,815.3986227249054,810.6625161394117,811.840232443883,803.422193970428
1731014656.1289809,814.7859024703982,806.7392364232998,812.5325698956406,803.6441138414427
1731014656.132904,812.2081634221147,802.0865424021174,813.3882474023347,803.866317254944
1731014656.1368272,809.806756337592,798.1213531151286,813.8491504744417,804.0888734970521
1731014656.137845,808.6520256672874,795.8407190759846,813.3487863832576,804.311764961242
1731014656.1407504,808.6024053763318,795.3519791477553,811.8609439660723,804.534776344889
1731014656.1414251,808.979723121372,795.9220860068486,810.0202651150089,804.7575075084405
1731014656.1446736,809.2508516231884,796.5622058182993,808.7237145402116,804.9796657016143
1731014656.1485968,809.2625030323671,796.7389346303552,808.5191029505937,805.2015907860956
1731014656.15252,809.1153554204643,796.6660308943198,809.2205090324372,805.4245608908986
1731014656.1527617,808.9546894000518,796.9494908853549,810.0074736722937,805.6501410485197
1731014656.1535108,808.8536425957853,797.8980518434552,809.9378678155231,805.8782498879534
1731014656.1564434,808.808467909681,799.1113054897371,808.555204020213,806.1050532611346
1731014656.1603663,808.7846520563536,799.7333978071755,806.2250120044647,806.323517474699
1731014656.1604156,808.7559992410872,799.1747606252686,803.9932642681352,806.52934676106
1731014656.1642897,808.7162444700814,797.6663373465433,803.0352881117069,806.7308172021957
1731014656.168213,808.6715946101218,796.1394111033455,804.0091898265157,806.9533825762205
1731014656.1691766,808.6297295836,795.5322085401451,806.6900660190089,807.2254278107955
1731014656.172136,808.5941536808001,796.1427292686448,810.0860215923469,807.5408916577128
1731014656.1760592,808.5643759078414,797.5622546504993,812.9397191224588,807.8224713225123
1731014656.1794062,808.5384831723967,799.1336957852337,814.3089938916439,807.9398590194589
1731014656.1799824,808.5151338774812,800.4177136877157,813.9254941684766,807.8300825949957
1731014656.1839056,808.494055875986,801.2814630109973,812.2039924613061,807.6822429120987
1731014656.184842,808.475589423004,801.7148499775456,809.9674461371898,808.0090167543757
1731014656.187829,808.4601053191376,801.7139598734495,808.0552396346275,809.3676790753915
1731014656.1882272,808.4477354807875,801.3330154055814,806.9866105312019,811.7232777109394
1731014656.1917522,808.4384106301592,800.6999291940602,806.8015124304156,813.9697264343351
1731014656.1956754,808.432009006377,799.8573968822234,807.1262597884388,814.3680132943172
1731014656.1983967,808.4284542593156,798.6206361322797,807.4223565394788,811.9464739771563
1731014656.1995986,808.4277138622209,796.7473476190798,807.2972224858014,807.7217597137113
1731014656.200508,808.4297379927609,794.3919464879162,806.7204633869142,804.4066537866074
1731014656.2035215,808.4344160853824,792.4140516350731,806.0225239579302,804.5520319532342
1731014656.207445,808.4416189714395,792.1095864188438,805.6594993048728,808.5742819433767
1731014656.211368,808.4513349269114,794.3932638847439,805.8816665135132,814.3314000240608
1731014656.2152915,808.4637990990925,798.9815921868524,806.5455462822919,818.6123521802157
1731014656.2161736,808.4794163039634,804.2476013074663,807.2314818898519,819.3131522684391
1731014656.2173872,808.4983246200035,808.004966966785,807.5795270325484,816.6308178460617
1731014656.219215,808.5197665226495,808.7903780264094,807.5555485990645,812.5798723504628
1731014656.223138,808.5419295852971,806.7517155379264,807.4251708506378,809.4863742276772
1731014656.223693,808.5631099860453,803.4513698153855,807.4899322986519,808.6735902851866
1731014656.227061,808.5842598697726,800.7262161670388,807.8425915429452,810.0868457368075
1731014656.2309842,808.6110498875573,799.5370113626791,808.3363563211251,812.7542031287354
1731014656.2318392,808.6518053538441,799.683288135159,808.73917098539,815.4896315456423
1731014656.2349074,808.7088426437194,800.3803078337739,808.9040411597439,817.3722814925806
1731014656.2363777,808.7670445984818,800.9817617881455,808.8303320449517,817.9792042236872
1731014656.2388306,808.7926168504702,801.2774452102119,808.6145102743125,817.5818681682487
1731014656.2427535,808.757327208884,801.369803819205,808.3629999514283,817.2824858337029
1731014656.2466772,808.6867613826662,801.4296646904116,808.1355469383535,818.6918460989101
1731014656.2475047,808.6941993150419,801.5498654632285,807.9405344514563,822.8685357022126
1731014656.2506003,808.931467973759,801.7315098038929,807.7609888503677,829.011420543844
1731014656.2545235,809.4170863020217,801.9355210274919,807.580276994019,834.0868678657865
1731014656.2553682,809.8256873656937,802.129953910399,807.3925082412256,834.205145732009
1731014656.2584467,809.4840420862469,802.3058900662929,807.2001531678076,827.1338729752789
1731014656.259158,807.8245372418767,802.4698876742024,807.0077500696494,814.110195475647
1731014656.26237,805.1545310585931,802.6310680446815,806.8178929863508,799.4063117047211
1731014656.2631707,802.9440221148193,802.7939646139381,806.6307171740505,787.8342687241727
1731014656.266293,802.8427051007014,802.9583165852932,806.4452126091229,782.0202028983751
1731014656.2702162,804.9389462462785,803.1219763608824,806.2605035652089,781.3557338808561
1731014656.2741396,806.9935698389347,803.2833386488754,806.0763144364125,783.0686041665294
1731014656.2743587,805.6788967794896,803.4420461645537,805.8927948463265,784.2703202725401
1731014656.2780628,798.9235289162066,803.5985136050463,805.7101786831638,783.4607003357462
1731014656.2788365,787.4949672983591,803.75324110898,805.5285848173411,780.7913222364579
1731014656.281986,774.6480860550384,803.9064661943977,805.348003248159,777.382935039354
1731014656.2859092,764.1341825709818,804.0581786619894,805.1683696191303,774.3727335606209
1731014656.2898324,758.0200815295284,804.2082821976521,804.9896311652653,772.2259131613642
1731014656.2933493,755.8864898969383,804.3567180380774,804.8117677754482,770.6060245026152
1731014656.2937555,755.9101496036986,804.5034950065619,804.6347806003316,768.849511494975
1731014656.294502,756.800676047461,804.6486604571621,804.4586738279135,766.7195847655232
1731014656.2946236,758.8309444862379,804.792263928376,804.2834449220927,764.8094221816494
1731014656.2976787,763.0223403488334,804.9343404516928,804.1090846335799,764.1410201702472
1731014656.301602,769.3031909162472,805.0749129711098,803.935581252079,765.2046818941909
1731014656.3055253,775.5452432969448,805.2140016995459,803.7629240413002,767.3078966384712
1731014656.3094485,778.6679188435811,805.3516304852079,803.5911041065564,768.9578101453287
1731014656.3101678,777.031459541436,805.4878271133831,803.4201134564049,769.0862919022511
1731014656.3123395,771.9908731591381,805.6226195827235,803.24994374582,768.0583490241453
1731014656.3133717,767.1415037798884,805.7560325173986,803.0805858088077,767.4684558631823
1731014656.3172948,765.8676125715339,805.8880878579711,802.9120303939262,768.7725650647948
1731014656.321218,769.2744382562105,806.018811715686,802.7442697075178,771.9067533157264
1731014656.3251412,776.0590023879553,806.148243876434,802.5772984226834,775.1469493454102
1731014656.325833,784.0130203779224,806.2764394414378,802.4111122447439,776.3980825217441
1731014656.3290644,791.5523999016373,806.4034503393107,802.2457031708966,774.8201174379348
1731014656.330089,798.0705333337471,806.5292873980673,802.0810540776066,771.4111696704888
1731014656.33133,803.3581210550971,806.6538924820305,801.9171395939657,768.1482943841194
1731014656.3329875,807.2178499132359,806.7771744352455,801.7539402647849,766.5787666950783
1731014656.336911,809.8711763504463,806.8991410431455,801.5914670030155,767.1157441697476
1731014656.340834,812.5144957885848,807.0200624374751,801.4297739323874,769.4316242277849
1731014656.341499,816.9101079118884,807.14047007841,801.2689255684409,773.2042355153193
1731014656.3447573,823.8485021510369,807.2607746771206,801.1089054918223,778.2555004303491
1731014656.3486805,831.7631596029897,807.3805529692866,800.9495216685796,784.0125925479407
1731014656.3503206,837.1080719555688,807.4981007783522,800.790441602263,789.1659345728741
1731014656.3526037,836.7205688859124,807.611255060038,800.6314784379072,792.269159106578
1731014656.3565269,830.4385761698122,807.7199725401387,800.4730450015054,792.9199834549163
1731014656.3571646,821.628617412939,807.8292443941285,800.3163385103678,792.3263077957828
1731014656.36045,814.83851220437,807.948549036056,800.1626301708512,792.4971077269906
1731014656.3643734,812.3207891731997,808.0840257617951,800.0115049933268,794.6227145043606
1731014656.3655546,812.3778713379147,808.2250275721448,799.8592180979645,798.0681986098504
1731014656.3682966,811.064143398183,808.3369520055834,799.6997117245437,800.9052302315578
1731014656.369311,805.8448572089546,808.3785059669964,799.5303448560423,801.5301292123717
1731014656.3722198,798.0193464928589,808.3488927179919,799.3602603213125,799.9802075007888
1731014656.3728304,791.792416278144,808.330399245849,799.2127327206637,797.9022332261542
1731014656.376143,790.8657000191698,808.4556243809826,799.1101235159933,797.3375041749244
1731014656.3800662,795.5454715733201,808.7751180069839,799.0403161083318,799.4096629766514
1731014656.383989,802.7245739832669,809.129842264929,798.9290852777019,803.8752517834288
1731014656.3879125,808.4597896402942,809.1737336012761,798.6671430900782,809.6122948542641
1731014656.3883016,810.7682606017647,808.5571989260982,798.2272396085161,815.3999599446678
1731014656.3884962,810.4656193463271,807.152359523707,797.827209682805,820.369171074548
1731014656.3918357,809.8243941863825,805.2074883634333,797.983380104443,824.0379704460523
1731014656.395759,810.5733880855503,803.3500255682576,799.2942778641462,826.2309971958188
1731014656.3996823,812.8920124760809,802.3615245483187,802.0243491145435,827.0975326777871
1731014656.40102,815.8234693631634,802.7556272549839,805.8345973124686,827.1372719716626
1731014656.4036057,818.268721065446,804.4083044020176,809.9226256537055,827.032057118134
1731014656.4041617,819.523481220321,806.5652799383988,813.424485929032,827.269880431581
1731014656.407292,819.1357522366377,808.3017376337026,815.7236904094982,827.7998743329615
1731014656.4075286,816.6927153063209,809.1210606162163,816.5129638281152,828.0161343444438
1731014656.4114518,812.1130272620244,809.2319522911316,815.7340483751364,827.1791807106673
1731014656.415375,806.2660210752382,809.2890826817154,813.5839699997958,825.062704002034
1731014656.4192982,801.1845620598586,809.8004913049795,810.6177617863848,822.3532454933425
1731014656.4198277,799.3826706963722,810.6478149109471,807.7715833172934,820.3657909763963
1731014656.423221,802.5172930216035,811.0766946504879,806.1014150528803,820.1052292750078
1731014656.4262826,810.1829017783638,810.1991629907523,806.2726102839563,821.3611158939365
1731014656.4271448,819.7130017269496,807.7118142192668,808.1471149542195,822.738736700332
1731014656.431068,827.4619088646223,804.342459842046,810.8488234204397,822.858354413389
1731014656.4349911,831.094634448206,801.6258610200023,813.3256320264932,821.8078602431144
1731014656.4354932,831.286413535449,801.0249248220243,814.9784511208688,821.4108594737414
1731014656.4364855,831.0803078871281,802.9553387891414,815.84590273254,823.6980490673391
1731014656.4389143,832.8337759192567,806.4785312640984,816.2328684908334,828.6250945865282
1731014656.4428377,835.1807870862904,809.9730398256088,816.1827129074736,833.0985851373091
1731014656.4452732,833.1953889246414,812.2551859869885,815.3266501483379,832.6140325665558
1731014656.446761,822.5220181475797,813.1834954070172,813.2729256120606,824.6249051581667
1731014656.4506838,804.3741992831924,813.2629506806614,810.1751428977204,810.9695370341758
1731014656.4511588,786.7169561070433,812.7440183162182,806.9250490919939,797.1112052882409
1731014656.4546072,779.6734800928189,811.1851356862012,804.7182264284787,788.547996210231
1731014656.4585304,788.1916973215357,807.933406995602,804.2719188901463,787.243198260464
1731014656.4624536,807.7809012327579,803.0474914734622,805.2862578448712,790.8722078094848
1731014656.4642637,826.9910587069966,797.777244941489,806.5803193104118,795.1049060320335
1731014656.4663768,834.9896463702277,794.1249179385907,806.8293899518931,796.6437448731613
1731014656.4668243,828.6228512882627,793.7521765525781,805.3810054861244,794.6677896087866
1731014656.4703,813.9111072733549,796.9493952076213,802.5904712043325,790.2975020236121
1731014656.471951,801.2706510503065,802.337868384636,799.5003138154398,785.3332166210989
1731014656.4742231,798.2644656151293,807.5560386252666,797.1538490816997,781.3853776920515
1731014656.4781463,805.0698958609051,810.5851321879295,796.0220798230961,779.441006995642
1731014656.4820695,815.4545413456754,810.8717858994132,795.8667098493837,779.5050099918157
1731014656.4824903,821.946350696218,809.411727427829,796.0538997624902,780.4860909494422
1731014656.4832542,821.1208325411645,807.681769936193,796.0786418858705,780.8363277805094
1731014656.485993,815.3180054556549,806.2996710452865,795.9472657375176,779.82261170869
1731014656.489916,810.0175382674566,804.6197687748946,796.1378668848758,778.3930025876978
1731014656.4938393,809.1896073415205,801.6612928518997,797.1362505712998,778.6551130324217
1731014656.4977624,812.0575771817768,797.4895833577041,798.901827405924,782.1922035173169
1731014656.4981558,813.3976173815663,793.6954584367145,800.7489186443933,788.620242825065
1731014656.5016856,806.9822570585301,792.4535238310109,801.8249885422491,795.6992654539059
1731014656.5022447,789.8157433574455,794.947575193716,801.8300542034183,800.9869459795468
1731014656.5056088,764.4884285378744,800.4624377518188,801.3513091450507,803.6708748943126
1731014656.5074165,738.2230917003398,806.7910891502635,801.4758064933993,805.0319710294393
1731014656.509532,719.155833155345,811.5440018654542,802.9534309059916,807.138783769131
1731014656.5134554,712.0525050761966,813.3997126450685,805.5751878664801,810.9017306737851
1731014656.5138216,716.0847546819773,812.5621834039227,808.2726604421513,815.2090205536631
1731014656.5173786,726.0175901691737,810.3224624330094,809.8690567837762,817.9206052708579
1731014656.5212352,735.8087113123565,808.1654942180996,809.8932810598536,817.7886498804959
1731014656.5213015,741.9358054232102,807.0259418139506,808.834871280243,815.5075768420867
1731014656.5252247,744.2892407209574,807.0555779835962,807.6974175694301,812.9608667144695
1731014656.529148,744.7214816288671,807.8453326721068,807.2770024200084,811.4810015760353
1731014656.5294874,745.0558354272138,808.7903952582568,807.7439692315827,810.804552594208
1731014656.5330713,746.0786915228853,809.3625879894659,808.745092168046,809.5802107315593
1731014656.5369945,747.676759796878,809.2733389762047,809.7718076535646,806.7533670477327
1731014656.5402255,749.433016060548,808.5701433865275,810.4170229201748,802.4908994892481
1731014656.5409176,751.0644491341691,807.5968153351545,810.4082364158407,797.986925555695
1731014656.542882,752.5238195426055,806.7415456772688,809.5979106815879,794.5704673422028
1731014656.5448413,753.8952170847717,806.1176464837795,808.0843888598375,792.9416233246494
1731014656.545153,755.2668313147536,805.4899518328534,806.372335273605,792.9780518261894
1731014656.5487642,756.6736145680669,804.5670987905565,805.299016348682,794.0198056048653
1731014656.5526874,758.1058742011872,803.3783301674463,805.6032620376499,795.3339523009063
1731014656.5566106,759.5408541510207,802.3281100411904,807.3777255491248,796.5009177971806
1731014656.559216,760.9644711919512,801.8591997158808,809.8469209900835,797.5281708677403
1731014656.5605338,762.3752400242623,802.0655800531861,811.7220521917789,798.619370031888
1731014656.560819,763.7780908413091,802.6085199197169,811.9464010682307,799.7978175427478
1731014656.5644567,765.1777056770233,802.9460987852085,810.3254535732572,800.77793469319
1731014656.56838,766.5758117462101,802.6317120280885,807.5911662024836,801.2626304644351
1731014656.5723033,767.9718669210398,801.498747982742,804.8578216149647,801.3389902321228
1731014656.5762267,769.3647748555452,799.7231742304574,802.8980518532193,801.4437377353481
1731014656.5764844,770.7539706223519,797.7976377801898,801.810778986394,801.8137864197125
1731014656.5782063,772.13955683186,796.3968526571418,801.3008390773799,801.9869974309124
1731014656.5783474,773.5219462971974,796.1277867500132,801.2328957799738,801.0011756435698
1731014656.58015,774.9015167134821,797.2548775297511,801.8872043043648,798.2644309997381
1731014656.5840733,776.2784884188835,799.550452607727,803.6632905815445,794.311857468489
1731014656.5879962,777.6529764254087,802.3682862020792,806.5376290300868,790.6670438298767
1731014656.5919194,779.0250835188174,804.9083896398975,809.8416283735866,788.8692191031025
1731014656.59215,780.3949456076929,806.5206814064521,812.6353400220698,789.5505647032082
1731014656.5958426,781.7627176635931,806.8714595143495,814.3761231296301,792.3493412844746
1731014656.5971973,783.1285398838986,805.9143976441214,815.2664979791366,796.5278268653666
1731014656.5997658,784.492535269926,803.789951634975,815.9384659111101,801.4883664579559
1731014656.6036892,785.8548643189325,800.825395306907,816.7609048923548,806.7062288874079
1731014656.6076124,787.2158051478063,797.6203177172985,817.4305242345499,811.4420336670097
1731014656.6078155,788.57576208422,794.9884462025265,817.2337130859286,814.8606311786908
1731014656.6115355,789.9350957879399,793.6128495847055,815.7087850940662,816.5673034139675
1731014656.6138127,791.2937914575766,793.6300322254102,813.0680398901744,816.9195023027415
1731014656.6154587,792.6512374621478,794.5465106601342,810.0252402240036,816.6423036732764
1731014656.6161876,794.0065836897319,795.6153190660028,807.2821188514257,816.0713367090576
1731014656.619382,795.3599263200035,796.3494401156308,805.2004529517764,814.8155154307086
1731014656.623305,796.7136913324546,796.7475206244093,803.8759406722795,812.225655141917
1731014656.6234815,798.0724683027042,797.1357845825107,803.3488700246223,808.219394150511
1731014656.6272285,799.4394802400449,797.8619530284171,803.6037700237125,803.641007851432
1731014656.6311514,800.8103590297768,799.0757261979719,804.3852501673529,799.8040544869604
1731014656.6350749,802.1697010670845,800.6445040117752,805.188885557548,797.6715632720725
1731014656.635178,803.4990984803214,802.1931789816438,805.6301573687132,797.436072495163
1731014656.638998,804.800195010277,803.3112659137361,805.9032094417391,798.775334596742
1731014656.639147,806.1191854953748,803.8947071116352,806.7924908197912,801.3289354262672
1731014656.6429212,807.5390734321173,804.3723716805767,809.0425198401616,804.7661807352875
1731014656.6468444,809.1082160054377,805.5140910773198,812.5403544928151,808.3761874555114
1731014656.6492784,810.7246499980752,807.8200938692581,816.0651118835538,810.7755381239773
1731014656.6507676,812.0861158192766,810.9183048745178,817.9395960712003,810.3491080114229
1731014656.6541686,812.8668750150896,813.5129807516612,817.1211468181682,806.3450402306955
1731014656.6546907,813.1691158916879,814.0626212372946,813.8592802105328,799.7937366322449
1731014656.6548128,813.9692481819534,811.7905782493664,809.4413712865472,793.3489791234621
1731014656.658614,816.9412342020966,807.3262467373434,805.3481975149032,789.9114014596482
1731014656.662537,823.2033824437235,802.497025374274,802.5546062810232,790.9171225814116
1731014656.6664605,831.5465081015956,799.3639179482802,801.3937814446475,795.5701381487416
1731014656.6703837,837.791324171363,799.0851511940185,801.7902700736363,801.606414544068
1731014656.6704783,836.5589861895786,801.2902338791667,803.4325478679715,806.9138497595337
1731014656.6731591,824.7853072747212,804.3436923353391,805.7665934804633,810.6601062107145
1731014656.6743069,804.5733152775138,806.3725771106557,808.0764342715971,813.1664420924859
1731014656.67823,783.0509179850644,806.475017752764,809.8596042502194,814.9911339890908
1731014656.6821532,768.8165102101907,805.3544901032664,811.2567650871295,816.280903838044
1731014656.684744,767.0908429970867,804.8936121882389,813.0189307542771,816.9056003144184
1731014656.6860764,776.8958169023803,806.8331909428786,815.8139379866874,816.9567952073942
1731014656.686144,792.1827575428006,811.3949017396319,819.3478022366508,816.8951288232828
1731014656.6899996,805.8528605249685,816.8643633158885,822.1147053815947,817.142714713224
1731014656.6921496,813.6460783831585,820.5580600218029,822.1688732211508,817.5514236621731
1731014656.693923,815.468304206502,820.555362283695,818.44711185282,817.2984106082304
1731014656.6978462,813.9805214483837,816.9231014089594,811.640033488589,815.363197617121
1731014656.7017694,812.0966118604831,811.5505667079651,803.9217279516023,811.2503004663616
1731014656.70181,811.2378252600704,806.866337917362,797.7521588442722,805.4241442415774
1731014656.7056923,811.1545079129949,804.5402093089093,794.661115660024,799.1373227008968
1731014656.7096157,810.9329840252449,805.0189322390279,794.7993896676356,793.7870949277343
1731014656.7111402,810.2049853676974,807.813590875638,797.293790268178,790.2654424945368
1731014656.713539,809.6873330129964,811.9046483175239,800.8542344670414,788.6979556872233
1731014656.717462,810.7347048914783,815.9119581484251,804.172440877739,788.5908485772444
1731014656.7174754,814.2310719902405,818.2509675695464,806.1373359307319,789.1206841444229
1731014656.7202094,819.5902301828692,817.6152489491684,806.1137310376524,789.3758252777743
1731014656.7213852,824.6827037670989,813.6810279910507,804.2779587622962,788.6201772353114
1731014656.725309,827.0148965498229,807.468484510233,801.692814553169,786.6933874653603
1731014656.7292318,825.559196555203,800.8951821509211,799.8809071810452,784.364731479552
1731014656.730131,821.8764078726529,795.7242014021774,800.0553019402394,783.192669722531
1731014656.7331412,819.402287637124,792.7070970309042,802.4559700485362,784.6721595255492
1731014656.733155,821.1111939480373,791.5788106749375,806.1644808440467,789.121411768527
1731014656.7370782,827.1984908730474,791.7473545327638,809.4792434571381,795.2124400346768
1731014656.7410014,834.6157327641948,792.8792463806166,810.6896291647589,800.6874587952909
1731014656.7449243,838.9679084601337,794.8184698827474,808.9374515086531,803.8183967289928
1731014656.748807,837.5042372364609,797.1124863609426,804.744024654762,804.471013509056
1731014656.7488475,831.1019658149903,798.8816709638866,799.8246051119166,803.9459989939721
1731014656.7491212,823.8421542999765,799.3373113102257,796.18393258416,803.8270064610805
1731014656.7527711,820.4698476958425,798.463990359403,795.0306421583252,804.871960699958
1731014656.7556748,823.504890149679,797.1577073522585,796.2597995401103,806.8105155522376
1731014656.7566943,831.9332870973202,796.6673485679477,798.8248559942706,808.9907455596754
1731014656.7606175,842.1358472015897,797.8486354841848,801.5916908213302,811.0667003186974
1731014656.7644725,850.088575247526,800.7995235548959,803.9347510071344,813.03038647796
1731014656.764541,853.2758053190838,804.9585639866327,805.705464658952,814.693376725245
1731014656.7681117,851.4504694567922,809.3568522591399,806.8545204007839,815.3612191829448
1731014656.768464,846.3015135681802,812.8302737325139,807.2435641121007,814.2442229663837
1731014656.772387,840.3850997719788,814.3383754834009,806.8406310750207,811.3177873271852
1731014656.7763102,835.7622762356357,813.5331660573836,806.006332664871,807.7669982519044
1731014656.7801385,833.0980400992307,811.2814027800023,805.4827498181166,805.4462349249047
1731014656.7802334,831.8076881088218,809.5222879386492,806.0289861250808,805.6641420105682
1731014656.7841568,830.9239075645867,810.1960917379952,807.9863666067154,808.2108937308348
1731014656.7871022,829.82637440252,813.8349244241809,811.071711930427,811.3595545709625
1731014656.78808,828.4012711336795,818.929440811322,814.471910138605,812.8443903437245
1731014656.7911403,826.8137586420329,822.7348943265854,817.1238177888956,811.1701436678369
1731014656.7920032,825.2424899362487,823.0370223154167,818.029259097411,806.4419645927092
1731014656.795804,823.7592190086172,819.5657136048306,816.5087988265806,800.2337865776398
1731014656.7959263,822.344544982859,814.0081589899187,812.3689043700778,794.6112852433
1731014656.7998495,820.9518602799694,808.7288355627505,806.0145549433371,790.9667697794739
1731014656.8037727,819.5519074802698,805.3085585357018,798.5213894785916,789.4392641145623
1731014656.8060927,818.1411108101022,803.9791912901054,791.557751869238,789.2213548631184
1731014656.807696,816.7291150755108,804.0954063834947,786.9629881838016,789.333946521668
1731014656.8114696,815.3251683227011,804.9329226301546,785.9676488967694,789.147188680284
1731014656.811619,813.9325145053924,806.0841995524058,788.4447475667877,788.3439108557709
1731014656.8155425,812.5497323219348,807.3356404400358,792.7985670280364,786.6850385602501
1731014656.8194656,811.1742229747351,808.4095116938255,796.7617819143923,784.0890295141343
1731014656.8233888,809.804441905853,808.9342925576876,798.6634666873989,781.0295416266746
1731014656.825083,808.4401955143157,808.6768106835445,798.292142664279,778.7122096327713
1731014656.8266058,807.0819203897664,807.81027762842,796.7530090888336,778.5676032282796
1731014656.827135,805.7299765055006,806.9547135688174,795.4814621406957,781.2555261726219
1731014656.827312,804.384390717269,806.8660451794746,795.1800089024093,785.9666249090103
1731014656.8312352,803.0449569607475,807.9014169929388,795.441777251765,790.72358805572
1731014656.8351583,801.7114264033254,809.6322026269773,795.2703830046804,793.606463884114
1731014656.8390815,800.3836094097816,810.9778341043994,794.0319362210996,793.9850701198897
1731014656.842801,799.0613626726553,810.8644295575609,792.0632287622557,792.7391808379366
1731014656.8430047,797.7445290422334,808.9459022984917,790.4485810965023,791.2973005587337
1731014656.8440735,796.4329142487252,805.8491339007667,790.1618474112696,790.399851112006
1731014656.846928,795.1263447807131,802.822745262219,791.2943662741786,789.7348996339912
1731014656.8508513,793.8247739524104,801.1211407257549,792.9951049757553,788.707903549572
1731014656.8547745,792.5283170555848,801.4972433537412,794.1182408486422,787.4500988874746
1731014656.8584666,791.2370715667239,803.9273190921019,793.9872502404776,786.9338018825671
1731014656.8586977,789.9507120346482,807.5711537265179,792.6702103063553,788.0243371383916
1731014656.8620713,788.6681600313486,811.0556157397319,790.6748060327651,790.4672329448952
1731014656.8626208,787.3879111960742,813.1220591143634,788.4725006138893,792.9271974571275
1731014656.863064,786.109413373255,813.342071784176,786.2940980709424,794.1028460570394
1731014656.866544,784.8348838983909,812.3515031179994,784.2727063268624,793.8018223314043
1731014656.8704672,783.569505532736,811.3215943237641,782.6737834233614,792.9059925660107
1731014656.8741324,782.3175657490185,811.042140758647,781.9350721898251,792.3245544374594
1731014656.8743906,781.0747713229041,811.3793231291901,782.4606853737143,792.0629088062586
1731014656.8783138,779.8228378160068,811.5547789536078,784.3259759506557,791.3752267627258
1731014656.8820546,778.537238107903,810.9640222745044,787.1139539847546,789.8524981048075
1731014656.882237,777.2143049562592,809.8042676548461,790.0252512137421,788.3617247345026
1731014656.88616,775.9039719836177,808.9836312269538,792.2365502893203,788.8343736880428
1731014656.8897982,774.7080665376216,809.3899109062778,793.3123212324647,792.8771646172867
1731014656.8900833,773.7010294340747,811.0890943162652,793.4251621518254,800.2309088488456
1731014656.8940065,772.7856839655274,813.0735060784435,793.2713464853914,808.389913248264
1731014656.8975368,771.6084130779717,813.7955684639329,793.7717301715712,813.9084215551735
1731014656.8979297,769.7384747145388,812.1587915124184,795.7364497411842,814.5871549554249
1731014656.901045,767.2092237031005,808.2713090778906,799.5943691495814,810.9396842002527
1731014656.9018528,765.1393139430602,803.4070719278411,805.1898146249086,805.8287086856333
1731014656.9054637,765.7131185887094,799.2123578105344,811.6793547570685,802.5671560845716
1731014656.9057765,770.9331607212351,796.7617096114124,817.6703890670141,802.9056727052364
1731014656.9096994,780.7498114878301,796.1119748946744,821.7229628077027,806.2824040333738
1731014656.9136226,792.450914964711,796.5259807314604,823.0806952252536,810.6546099921982
1731014656.9175458,802.4945846284337,797.0291345001366,822.1915304214851,814.0880129598922
1731014656.9200356,809.3688025162169,796.8604004989569,820.5664665802099,815.8821368339072
1731014656.9211297,814.6564955809364,795.6422342071708,819.9372975998763,816.5342293347815
1731014656.921469,821.2043122111897,793.3642663417673,821.2279371737615,816.8147736551048
1731014656.9253922,830.20616920829,790.3310907012127,824.0585795691211,816.8944422496984
1731014656.929315,839.9973456292846,787.1322451505528,827.1234227611985,816.3113360147634
1731014656.9330022,847.5906284830542,784.5904106729297,829.1074052433855,814.7249926079703
1731014656.9332387,851.3734035386192,783.5835966656656,829.4237912189999,812.6141825846839
1731014656.9367952,852.4335267613775,784.6675677735187,828.300330802187,811.1053677635666
1731014656.937162,853.4205112918817,787.6139405356192,826.3519299850382,810.9982491470404
1731014656.939026,856.105293972317,791.2227901995876,824.144840301681,811.931065338655
1731014656.941085,859.7510294075437,793.7508578417973,822.069225992497,812.5626848396716
1731014656.9450085,861.4680199541976,793.8605165453678,820.3916536490199,811.6554521467024
1731014656.9489317,858.1160177805632,791.4747298714365,819.2001514349305,809.0601063810068
1731014656.9524608,848.4489706282036,787.869496688214,818.2398242076471,805.7503232130437
1731014656.9528546,834.308385206015,784.879651157049,816.9582901401116,802.9969054869807
1731014656.9567778,820.1944213873462,783.7707709194755,814.956122530029,801.490955431291
1731014656.9580166,811.2206151238114,784.5659826748271,812.5300425644983,801.0956068955899
1731014656.960701,810.3710761150301,786.255906972368,810.7044071083168,801.2251320166702
1731014656.9646244,816.7124825646301,787.6687725869189,810.5180473414741,801.3610638632377
1731014656.9681263,825.9109199559715,788.3104096036228,812.082840847106,801.2961514725868
1731014656.9684677,832.9313702391798,788.5357717969239,814.2799778993258,801.0728763064823
1731014656.9685476,835.2234203423568,788.9689944285511,815.4769343728366,800.8101240899317
1731014656.9724708,834.2547631971984,789.7426435949591,814.7393594069874,800.5839155035301
