timestamps,eeg_1,eeg_2,eeg_3,eeg_4
1731016100.151032,797.6687144325977,805.0699024618931,807.5560127640138,804.124449346313
1731016100.1549354,789.3094244368004,806.8093154923092,806.6406387130265,794.8963817746345
1731016100.1588387,780.920872676993,807.9673602923426,806.0934678455851,786.7172423325596
1731016100.1627424,772.6152002167812,808.0691913684666,806.1498533221645,780.6687564697726
1731016100.1666458,765.0672876419151,806.9502912620177,806.8380159068945,777.7905821860295
1731016100.1705492,759.8810050154397,804.9499884705923,807.9951674323657,778.7266458691433
1731016100.1744523,759.1963970730519,802.8530921894276,809.3544649021833,783.1647697564576
1731016100.1783562,764.3599981061732,801.4839451593815,810.6370493348489,789.5855014553565
1731016100.1822596,774.4995136518982,801.1746732778697,811.5918616815466,795.7730418044085
1731016100.1861627,786.3046470167393,801.515693318463,812.0075761198099,799.8474398172019
1731016100.1900663,795.5711096212062,801.6487198968174,811.7840816807627,801.0501567619076
1731016100.19397,799.5990908012891,800.9523487364437,811.0699705811825,799.7931460017362
1731016100.1960804,798.6666487414241,799.6120221565095,810.3040255583334,797.1877569654998
1731016100.1967452,795.4455434618365,798.5897515214536,809.994639625701,794.5742596264286
1731016100.1978734,792.9011331081402,798.9550682426217,810.3414131438826,793.2437054107475
1731016100.2017767,792.3952184275688,801.0627248471567,811.0659435054133,794.1227410494838
1731016100.20568,793.3373965525503,804.2109244992416,811.68709818821,797.2596530680702
1731016100.2095838,794.2609335834954,807.0395133889364,811.9961227890888,801.4283722825727
1731016100.2123332,794.0943727157482,808.3458300199595,812.1966994288343,804.4127194417769
1731016100.2134871,792.6291943927628,807.7111967922804,812.4925792849054,804.1092802161816
1731016100.2149596,790.2674939701482,805.5656449674404,812.5521084900824,799.8315767275797
1731016100.2173903,787.758871539886,802.8035373678092,811.5176752539278,792.8788204115892
1731016100.221294,786.2006870269154,800.3318929292903,808.7198570000548,785.9018601383808
1731016100.2251973,786.8503602929086,798.806772758881,804.4998853941812,781.4584567380477
1731016100.2279215,790.363067423788,798.5316441182542,800.3350548178762,780.7026866644109
1731016100.2291007,795.8941970230742,799.388203200618,798.0248549168365,783.0064647239346
1731016100.2330043,801.020891885137,800.8042577160516,798.4988557739894,786.6034846056154
1731016100.233839,802.9125791250996,801.910000648317,801.14969495387,789.6257239495008
1731016100.2369075,800.0889378441557,801.9660923826405,804.2242454915822,790.7649998830391
1731016100.240811,793.4988383244416,800.8798037945173,806.0286071154317,789.3515685421013
1731016100.2435095,786.0643607450309,799.414555647651,806.0893073969971,785.2957372180397
1731016100.2447147,780.9167647245956,798.8112751583594,805.4196149246844,779.3222877334842
1731016100.248618,779.5104291109568,799.9768848234426,805.6940608207765,773.243779973231
1731016100.2525215,780.9382009617092,802.808330442625,807.9569836328728,769.555552514634
1731016100.2527182,782.9126553515617,806.194725897564,811.8241089804488,770.1248606031513
1731016100.256425,783.6032653840265,808.7291880854759,815.7131591790586,774.7934895351615
1731016100.2590976,782.8683574822982,809.5996194980622,817.8471466549908,781.1588340330244
1731016100.2603283,782.0009668561256,809.0167571782509,817.2795075608047,786.0110029114173
1731016100.264232,782.4121067364782,807.9418608842691,814.3143296766573,787.4892321781804
1731016100.265659,784.4970876067072,807.3919795100527,810.1994938910943,786.2614167002163
1731016100.2681353,787.5735119897289,807.8114073022238,806.4030851571379,784.7074464746642
1731016100.2715976,790.7158093127028,808.8529364068986,803.9086729535194,784.7418710363917
1731016100.2720387,793.5826414735591,809.6384768510786,802.8501737645238,786.1360848957848
1731016100.274686,796.492640463898,809.3411671935986,802.609251105381,786.8249253460933
1731016100.2759423,799.7597304713693,807.7686058896431,802.289236607106,784.9338730768405
1731016100.2798457,802.9729263784403,805.5645315627684,801.2879875831281,780.7130871463096
1731016100.283749,804.9873069130768,803.8176119370901,799.6178808426289,776.6756913042944
1731016100.2876525,804.8070075305335,803.2857944513057,797.7800507711906,775.866014670681
1731016100.290274,802.7011964322642,803.8135403584245,796.3291694636779,779.7199529288757
1731016100.2904768,800.508931644298,804.4429758569571,795.4931113863958,787.0790991893888
1731016100.291556,800.6136810168343,804.1728345957981,795.1221347280759,794.8194359975948
1731016100.2954595,804.1881845934553,802.7661081603643,794.9284179797704,799.4860891689779
1731016100.299363,810.0856209372705,800.9652425217456,794.748293514505,799.010405071918
1731016100.3006818,815.4219065545327,799.9757429012964,794.6050727144435,793.7768185720823
1731016100.3032663,817.593002440722,800.6466865995324,794.5704599828091,786.5751361050426
1731016100.305862,816.2118335627358,802.9277208845363,794.5906237175233,781.3273994564911
1731016100.3071697,813.3480089863267,805.8908012806953,794.4464130549238,781.0682005680322
1731016100.309356,811.7689522903124,808.2154817768825,793.9034599410627,786.2482907960909
1731016100.3110733,812.6200434586973,808.831472130323,792.9676753604364,794.4632553332895
1731016100.3149767,814.57904863584,807.4094215363848,792.0580369515278,801.8977989277245
1731016100.31888,815.2654074607976,804.5010341011449,791.9077669884116,805.5863733050128
1731016100.32145,813.6054284048264,801.2986854804462,793.1650978707519,804.987544755952
1731016100.3227837,810.9230294116056,799.1481142682376,795.9224953084913,801.9298244338046
1731016100.326687,809.7177682662108,799.0202467138477,799.5372401824145,799.2410288285387
1731016100.3282354,811.3039147250201,801.1277917093514,802.9333098737513,799.2044089609126
1731016100.3305905,814.5754665272401,804.8315919435341,805.1949631402207,802.7575307605723
1731016100.334494,817.0729591875826,808.9202260032337,806.0159634906869,809.5049035375653
1731016100.3357046,817.3117931432062,812.1851839462788,805.6922493249518,818.0770512775642
1731016100.3370385,816.1307425269139,813.9899654984233,804.7254652736437,826.5253234333865
1731016100.3383973,815.7993431039479,814.4646478221325,803.398164375935,832.8459858677921
1731016100.342301,817.8138458832015,814.2107501770971,801.6539483877181,835.7337508748129
1731016100.3462043,821.5353111967256,813.8002460856258,799.329374791127,835.2289155793768
1731016100.3471146,824.9028270251456,813.4836742853768,796.5001625049783,832.6750294665635
1731016100.3501077,826.4122278719877,813.2409672903616,793.6379633133749,829.858917161429
1731016100.3526263,826.4510308216561,812.9783191983004,791.4385391207343,827.9722537040811
1731016100.3540113,826.8503598359713,812.6521264540415,790.4273292426193,827.1933773578908
1731016100.3579144,829.1954970305532,812.277921130117,790.6068628343659,827.0352817859691
1731016100.361818,833.4245133050672,811.8902973642073,791.3939137271864,826.9486471775709
1731016100.3657217,837.835450542533,811.5115127722447,791.913112244479,826.6683032345807
1731016100.365994,840.3711310329747,811.1449652321903,791.4775687571491,826.2064268195915
1731016100.3682144,840.062319126665,810.7839342457387,789.9597509393886,825.6834171788286
1731016100.3696249,837.5241527897969,810.4215829289408,787.8315873674285,825.1898871662115
1731016100.3707273,834.2798021549055,810.0553047549834,785.8685857073781,824.7467045596316
1731016100.3735282,831.6094378992075,809.6859406041159,784.7137035005892,824.3316390777292
1731016100.377432,829.845155590894,809.315285710837,784.5656624031875,823.9178236721726
1731016100.3813353,828.5069937965432,808.944421127871,785.1657280434222,823.4932085027281
1731016100.383803,826.9699856670908,808.5734427468802,786.0600306605044,823.0596722065706
1731016100.3848732,825.0423891322371,808.2019605199121,786.9348738210876,822.6239389936654
1731016100.3852386,823.041981164843,807.8296167995159,787.7912829918242,822.1906471095289
1731016100.389142,821.3996670253983,807.4562889413382,788.8615009079266,821.7606724377329
1731016100.3930457,820.1626778610706,807.0820295712062,790.3509790666321,821.3327581365479
1731016100.3969493,818.8495393091874,806.7069315802896,792.1800702070723,820.9055469133352
1731016100.3993907,816.898660366487,806.3310455128402,793.8853536371716,820.4785163897574
1731016100.4008524,814.493891453599,805.9543714497739,794.7826689250238,820.0518583978369
1731016100.4037523,813.0603682980814,805.576887746522,794.3951734079449,819.6259797416304
1731016100.4047558,814.6695152987462,805.1985763816498,792.9624298832628,819.2011524162876
1731016100.40575,820.3439522613307,804.8194291786627,791.6464759426036,818.777447056272
1731016100.4086592,828.4499634134386,804.4394414548229,792.0889979212637,818.354829964167
1731016100.4125628,834.8450986092441,804.0586076279535,795.4025305791661,817.9332692580335
1731016100.4149787,835.3086825600909,803.6769278481908,801.2335391254242,817.5127769189098
1731016100.4164662,828.6798336022933,803.2944212622535,807.6692632229433,817.0933951238505
1731016100.4203696,818.0792697926088,802.9111278443214,812.2190377086961,816.6751675458873
1731016100.4226315,808.9566102419612,802.5270788940021,813.2816204343791,816.258127199003
1731016100.424273,805.4383935709212,802.1422391172473,811.1129604531208,815.842307597337
1731016100.4281766,807.9207950066976,801.756468964399,807.6524187677027,815.4277612595957
1731016100.430567,813.6081568245428,801.3695899117886,805.3395652055609,815.0145578118153
1731016100.43208,819.0652428098701,800.9815942692387,805.6881898262933,814.6027420273371
1731016100.4359834,822.4238717546247,800.5928857164037,808.5066063663223,814.1922679350455
1731016100.4398868,823.7492762368411,800.2042412788435,812.2276676535907,813.782977694362
1731016100.4407728,823.9454018999287,799.8161804135603,815.0853839540221,813.374715515181
1731016100.441511,823.5648560559088,799.427871976034,816.3001610332105,812.9675883011339
1731016100.4437904,822.4580748992229,799.0365551414822,816.4421837197938,812.5621871771365
1731016100.4461553,820.2267425723685,798.6389980471395,816.7723861829154,812.1593955120574
1731016100.4476938,816.8809939217803,798.2355772680957,818.1385057026725,811.759514298948
1731016100.4515972,813.1180679221537,797.8345257684689,820.3078936672367,811.3610712681224
1731016100.4555006,809.9708162845452,797.4504017610394,822.2178135560093,810.9606257623626
1731016100.4594042,808.0116947758048,797.091351012264,822.8701395524005,810.5551743994134
1731016100.46039,806.6905222447793,796.7388531213933,822.1133004164091,810.1471117760788
1731016100.461743,804.4483564396734,796.3395463778559,820.7063476178306,809.7479284848304
1731016100.4633076,799.7591599309678,795.8374138617852,819.6734422455521,809.3736089747415
1731016100.467211,792.4461215262705,795.2542389733042,819.5052287293177,809.0274499118572
1731016100.4711144,784.2013716778984,794.7689610839104,819.8303390667804,808.6787147814437
1731016100.4750178,777.7315453851676,794.6900569563452,819.7701644030251,808.2630186784174
1731016100.4757955,775.0536819618108,795.2528574024809,818.6616342626014,807.7339022176245
1731016100.4773312,776.2036196144454,796.3594014172546,816.5841025220637,807.1621943715697
1731016100.4789214,779.3022317884444,797.5398697331162,814.3105990319816,806.8133997014737
1731016100.4792695,781.8562477919571,798.2686890058318,812.7549333948933,807.0961771241442
1731016100.4828248,782.2977058032392,798.396876207877,812.358917198681,808.3476430948533
1731016100.4867282,780.7343811496273,798.3083073614943,812.8771192058483,810.5615334120189
1731016100.4906316,778.5598557603107,798.6551636819916,813.6668454986677,813.2373670135565
1731016100.4929194,777.3579858341074,799.8954998324313,814.1814917693814,815.5095708066591
1731016100.4945352,777.9082600543426,801.9953765434844,814.2559846590094,816.6080028318707
1731016100.498149,779.8864178521931,804.4792799578619,814.0307829519572,816.4303739108935
1731016100.4984386,782.2749511651672,806.7161902737013,813.6950331841545,815.7539106954455
1731016100.502342,784.0201121150043,808.1993645995585,813.3195693334114,815.7847970962259
1731016100.5062454,784.4749120474004,808.6890431743604,812.8796647244106,817.3086498575512
1731016100.5085075,783.5597931967624,808.2541422930157,812.3727158720395,820.0887157076315
1731016100.510149,781.8415908807682,807.2792128831132,811.8970926650536,822.9562576780306
1731016100.5108182,780.5388782496509,806.4054951005411,811.635288994585,824.4682124254203
1731016100.5140524,781.1284853340211,806.3116277471888,811.7486162600189,823.6042650699067
1731016100.517028,784.3920030169863,807.336207891506,812.214846708746,820.056459021803
1731016100.5179558,789.469581976646,809.152314212391,812.6905493464363,814.106910203554
1731016100.5218592,793.9607229163574,810.8094517507851,812.548093326475,806.4565918324955
1731016100.5240955,795.4750231479788,811.2661594012645,811.1873330425371,798.2704636790728
1731016100.5257628,793.5943907614381,810.1183175013217,808.4867233964817,791.2199184915172
1731016100.5296662,790.4337846529942,807.9545634462395,805.035676323084,787.0314783091801
1731016100.5335696,788.9938057739749,805.9803803439394,801.883038415968,786.4918117819246
1731016100.5359073,790.5728515778887,805.1492463058582,799.9461772222344,788.6756076588449
1731016100.537473,793.5864458451841,805.4955562843934,799.5451672217511,791.3498471337434
1731016100.5396838,794.9766790038625,806.2209309070862,800.3923784839715,792.5599840591133
1731016100.5413764,793.0067687291054,806.4385074829154,801.9244176597416,792.1338696861699
1731016100.54528,788.944110237931,805.9150911366969,803.6079437508832,791.6658418666943
1731016100.545841,786.1756319587801,805.1832941781284,805.0239977331819,792.8745761702876
1731016100.5491834,787.6032311529285,804.9805908680095,805.8538526983477,795.824092434396
1731016100.5530868,793.5325355974543,805.5625516317524,805.9456243243089,798.6925185216087
1731016100.5547864,801.5853888725873,806.5046028446244,805.4177003363513,799.2989901407391
1731016100.555272,808.3509969534732,807.1223184614024,804.6011243975298,796.9372458906284
1731016100.55699,811.3047379997236,807.079040088965,803.7730366978581,792.8714454961817
1731016100.5608938,809.769755558436,806.6267186117557,802.9092798890792,789.2139477552594
1731016100.5647972,804.7294731046559,806.316325508422,801.7299804236981,787.3671914108955
1731016100.5687006,798.0424727863308,806.5059917679222,800.0356616148425,787.3902547692464
1731016100.57086,791.6463259922405,807.1150677654763,798.0206796034541,788.5800149195087
1731016100.572604,786.996888350141,807.7605317051487,796.2462454319163,790.429873204658
1731016100.573666,784.7514976993957,808.0480525493342,795.2747786694129,792.9774072998106
1731016100.5765076,784.7066533679745,807.7437054368426,795.2896436157267,796.3303951905542
1731016100.580411,786.0457104368585,806.785832861763,796.028746969272,799.9958325490386
1731016100.5808637,787.8361620841566,805.2756286676298,797.0524787778442,802.7712326203858
1731016100.5843143,789.5100465823889,803.5170561680522,798.0627575044222,803.3927489345494
1731016100.5864482,791.0306832475213,802.0106439650615,798.9904707452287,801.4661373966534
1731016100.5882175,792.6955161588456,801.2921845878167,799.8501443038099,797.9795396005132
1731016100.5921211,794.8135377074755,801.6739941835433,800.6058375047602,794.9817017977856
1731016100.592545,797.5271155977447,803.0850646829414,801.2313020788035,794.5183660917626
1731016100.5960248,800.8203281068087,805.1429372331919,801.8575620492471,797.3609827763828
1731016100.599928,804.5491340371624,807.3887390277602,802.7343824551817,802.2748587481391
1731016100.6020362,808.3667924943068,809.493333075147,803.9246006220927,806.429026402107
1731016100.6038315,811.6381340398511,811.311432084853,805.02077892061,806.9586250768417
1731016100.607735,813.5751056135025,812.8175865046468,805.2763265195124,802.8559760648142
1731016100.6114244,813.6791755714855,814.024296405283,804.1737119134032,795.896718456975
1731016100.6116383,812.2176971000885,814.9228090164473,801.9534321676875,789.7752273060994
1731016100.615542,810.2501252140726,815.4290380041721,799.5677328020863,787.8771642758437
1731016100.6158864,808.987906956185,815.3557081760907,798.0384217053116,791.1963777466786
1731016100.6176243,808.8915355545079,814.489791783436,797.7754738026065,797.8606896864827
1731016100.619445,809.2693561081804,812.7937899714432,798.4386716763619,804.5469488555251
1731016100.6233487,808.7675844596463,810.5881605933703,799.3783766466597,808.6880453667411
1731016100.6272523,806.3279364448039,808.5019438196803,800.1632352800453,809.8859817009612
1731016100.6303036,801.7993686944167,807.1386264263064,800.7221157889556,809.6785023421061
1731016100.6311555,795.8487619470446,806.681715626254,801.1062792763237,810.109575881956
1731016100.6332123,789.5378074421927,806.7770682715725,801.2647281358742,812.3380326025639
1731016100.635059,784.0437040093569,806.8236056004441,801.132222556139,816.1989126968198
1731016100.6389625,780.4913771297698,806.4493175843955,800.9119373622001,820.6546778960316
1731016100.642866,779.5831035450792,805.7863561165453,801.1729999777209,824.439227996797
1731016100.6467695,781.1212039580131,805.3413153220151,802.5523197708031,826.4101821317241
1731016100.6488006,783.9951037256347,805.5892898622436,805.2553305728127,825.7280073027555
1731016100.6491828,786.9225565120083,806.5972926247711,808.7708233864568,822.1858111566703
1731016100.650673,789.3965137955519,807.9161884253509,812.0515449007354,816.6198049102795
1731016100.6509092,791.9224628265264,808.8023884009132,814.0459589154237,810.8899704662118
1731016100.6545763,795.2654681324361,808.656630881287,814.221622808531,807.0669784981775
1731016100.6584797,799.4101878461449,807.4277236793375,812.7605772896387,806.178690904421
1731016100.6623833,803.213346620485,805.6986032237239,810.3574844358944,807.4497938860592
1731016100.664389,805.0462284464636,804.3523694933479,807.8100439728668,808.7308342335416
1731016100.6662867,803.8583807120722,804.031398717879,805.6780661542603,807.8808021092574
1731016100.6680622,799.8826691778443,804.7775925976892,804.1683641098258,804.1072735624624
1731016100.67019,794.6392243439336,806.0924656469542,803.2163433983527,798.3724183797086
1731016100.6740935,790.3506577106771,807.3191879578477,802.648045910918,792.7400270220304
1731016100.677997,789.0097035387898,808.0333771106276,802.3318595859466,789.2058744701412
1731016100.6799767,791.384121639859,808.1904012599441,802.2617991084708,788.684731285161
1731016100.6819005,796.425366093964,808.0066178518543,802.5235615020492,790.6095176240354
1731016100.685804,801.6017611920629,807.7370725656966,803.1553321485959,793.338615459684
1731016100.685932,804.2321108517107,807.5267853248637,804.0263972837621,795.2532504382968
1731016100.6869414,803.1202917523924,807.3952833455523,804.8765329344401,795.9644587449773
1731016100.6897073,799.3678355226136,807.2999886270027,805.5077470857418,796.7226200002767
1731016100.693611,795.6766746613831,807.1995458115405,805.9425695663572,799.464106035082
1731016100.695565,794.5299383482553,807.0793928514399,806.3775531156157,804.9993807620899
1731016100.6975143,796.5392080205572,806.9457227376563,806.9711245469034,811.8148167354519
1731016100.7014177,800.1994697548212,806.8098260483251,807.6737172424994,816.7354127151515
1731016100.7053213,803.2260752338327,806.6781453504874,808.2441430512362,817.1673641925977
1731016100.7058208,804.3704430932969,806.5510195423585,808.3950455458054,813.1187908032396
1731016100.7092247,804.230501159061,806.4259545789431,807.9234254980244,807.2377385210243
1731016100.711153,804.4754262557886,806.3007982496157,806.780132467721,802.8035517375415
1731016100.713128,806.2874059402031,806.1748907185093,805.1270727868514,801.3699666626031
1731016100.7170317,809.4144559860009,806.0486263653006,803.3715440362166,801.9480118855178
1731016100.7209349,812.5489797792922,805.9226066761253,802.0705166452682,802.1933058684335
1731016100.720955,814.5366145959216,805.7971467301611,801.6652582879053,800.4431190258072
1731016100.7247,815.3045309945294,805.6722419938486,802.2025670197341,796.9787804802453
1731016100.7248385,815.7953482619798,805.5477535260559,803.2780430096309,793.7050538989862
1731016100.7267413,817.0899490113826,805.4235710991368,804.2779470573361,792.6808335823065
1731016100.728742,819.5084062170706,805.2996649042874,804.7558272006038,794.6787736171601
1731016100.7326453,822.3999344164365,805.1760576277654,804.6849377685442,798.803617067763
1731016100.736549,824.7295217856984,805.0527808184618,804.4293575225829,803.3452045924672
1731016100.740452,825.9264821944207,804.9298524585818,804.4627974439377,807.0853061734176
1731016100.7423294,826.2692503624243,804.8072764761646,805.0135667416525,809.9527509707833
1731016100.7435791,826.5023348908201,804.6850481685339,805.8654376544868,812.5477940713535
1731016100.7443557,827.0639577371801,804.5631543816656,806.465840548509,815.1098720306857
1731016100.7482593,827.6333070721454,804.4415719960969,806.2960059949634,816.984940598817
1731016100.7521625,827.3888403037581,804.320278125261,805.2517463657697,817.0968556752937
1731016100.7559772,825.733823409333,804.1992789447945,803.7402798980412,814.9398072313325
1731016100.7560658,822.8933359468354,804.0786391800696,802.3932844896908,811.184966701274
1731016100.7579174,819.9594202750984,803.9584669714626,801.5959717436189,807.4388549607521
1731016100.7599697,818.3721604273913,803.838814620003,801.1888598101833,805.3998909344482
1731016100.7624586,819.1063765099072,803.7195274745399,800.5770503394047,805.9628842806771
1731016100.7638729,821.9445262782351,803.6001924853583,799.1788562306092,808.699053533946
1731016100.7677765,825.2737411818204,803.4803941346454,796.898088063798,811.9487014137804
1731016100.7716796,826.740901206885,803.3603137447029,794.2893488295585,813.5885949429457
1731016100.7735054,824.6121789709949,803.241256389829,792.2988828861618,812.2016679591499
1731016100.7755833,819.0064417860284,803.1252432116249,791.7466714486295,807.988273309816
1731016100.779487,811.9947664043832,803.0130218296739,792.8818469105381,802.7641700248791
1731016100.7813375,806.3156214183349,802.9012884143924,795.2917923190141,798.9731809046751
1731016100.78339,803.6113335233923,802.7821132681122,798.2017634667293,798.349360151128
1731016100.7872934,803.5329024965405,802.6483258814056,800.9165879314035,801.0630569158188
1731016100.7890935,804.3095080502927,802.5049301510396,803.0523185527272,805.7598760663411
1731016100.791,804.1667846753412,802.3779345721747,804.4161111162974,810.3090032579174
1731016100.7911968,802.4388982663519,802.3042698141242,804.7618691277609,812.7862148711421
1731016100.7951005,799.7017550896059,802.2921712546519,803.7964480823465,812.2659357756665
1731016100.7990038,797.1192562823035,802.2698514770535,801.5291862131921,809.1482736116677
1731016100.800217,795.6456073190931,802.0797363956666,798.6149642105992,804.8908071484582
1731016100.8029072,795.5750004942307,801.581526688024,796.23637290105,801.2346541638714
1731016100.8046818,796.5463649760023,800.8415243068245,795.4643061278769,799.3085504091234
1731016100.8068106,797.8714522034311,800.2315206317315,796.5492603094932,799.1412270133217
1731016100.8107142,798.9939327973464,800.2432197916836,798.7158397086245,799.8914351558823
1731016100.8146176,799.8512381248322,801.1000005663044,800.6411776599765,800.58931936253
1731016100.818521,800.887266743761,802.5289792910329,801.2571823111881,800.7812440892473
1731016100.8190963,802.6167076252838,803.919713339363,800.3012844919954,800.6087154279529
1731016100.8202698,805.0052436932356,804.6939119230191,798.3017192818447,800.4293320375057
1731016100.8224244,807.207826389135,804.5661842202654,796.1410480035115,800.4520087930422
1731016100.8260226,808.0250858785311,803.5932957593402,794.583710503156,800.6614584877311
1731016100.826328,806.820220178885,802.1223361714278,794.0355464178932,800.9410044678363
1731016100.8302314,804.1292265073721,800.7088368441213,794.5352783890751,801.1985636944926
1731016100.8341348,801.3688127116895,799.9409680850781,795.84144299608,801.4086304166949
1731016100.835858,799.8400601200036,800.1476199458431,797.5336603265698,801.5897624681695
1731016100.8379755,799.8855547368577,801.1733556774193,799.1427581471715,801.7677102951415
1731016100.8380382,800.8834362745249,802.4670306899427,800.3186347498952,801.9551848455685
1731016100.8419416,801.9335715713727,803.4669394777764,800.9596533428743,802.1513447341358
1731016100.8458452,802.5175364310113,803.9465016709328,801.2030437256695,802.3500555570358
1731016100.8497486,802.6420140573734,804.037230592422,801.2818693569245,802.5467511733785
1731016100.8514462,802.5735382929975,804.0013571338484,801.3713243104551,802.7404043735145
1731016100.853652,802.5405662844685,804.0187277949988,801.5305985631937,802.9321632391864
1731016100.856855,802.6178956805617,804.1296224512927,801.7379993247011,803.1234060553472
1731016100.8575554,802.769316136866,804.2918354113359,801.952563009671,803.3147615473239
1731016100.8610454,802.9341066681253,804.4549469247723,802.1512712861755,803.5061562938232
1731016100.861459,803.0791398093792,804.5967931896212,802.3334099029885,803.6972742349163
1731016100.8653624,803.2039087848082,804.7212962931736,802.5083680292723,803.8879063798212
1731016100.8670342,803.32226401632,804.8411702287576,802.6840365381626,804.0780346377137
1731016100.8692658,803.445578096143,804.9649739174139,802.8627431587618,804.2677482167235
1731016100.8731692,803.5770528353263,805.0941359457669,803.0429768452267,804.4571392441802
1731016100.875734,803.7143755253915,805.2261288354871,803.2225262411522,804.6462544976081
1731016100.8770728,803.8543051405425,805.3583045718672,803.4002659734664,804.8351035136362
1731016100.8809762,803.9952227838714,805.4896182582271,803.5762459457983,805.0236902020426
1731016100.8826222,804.1372136074101,805.6203671943939,803.7509955269616,805.2120380419987
1731016100.8848796,804.2810365271316,805.751240024012,803.9249250722203,805.400192726743
1731016100.888783,804.4272596486095,805.8826634736117,804.0981432269016,805.5881983489774
1731016100.8926866,804.5760071899488,806.0146851701983,804.2705670860283,805.7760582010674
1731016100.8946133,804.727127492271,806.1471600572683,804.4420893876276,805.9637132264318
1731016100.896068,804.8804371579391,806.2799507812289,804.6126657490172,806.1510850379766
1731016100.89659,805.0358453101337,806.4130088812412,804.7823130335639,806.3382018322226
1731016100.8982103,805.1933483340036,806.5463541264095,804.9510705439527,806.5253336237887
1731016100.9004934,805.3529717189045,806.6800231718152,805.1189694633135,806.7129542212691
1731016100.9043968,805.514725367633,806.814037194285,805.2860248689543,806.9013569175078
1731016100.9083002,805.6785935782053,806.9483976288793,805.4522423483147,807.0900237187061
1731016100.9122038,805.8445483143165,807.083095919104,805.6176267281245,807.2773378681151
1731016100.913493,806.0125659576796,807.2181224786162,805.7821863968323,807.4615125225087
1731016100.9137986,806.1826334625842,807.3534700568188,805.9459333458509,807.6429985792762
1731016100.9161072,806.35473897586,807.4891349072141,806.1088815935959,807.8268334989913
1731016100.9200106,806.5288520823049,807.6251198087893,806.2710456204688,808.0214383575095
1731016100.923914,806.7049106476683,807.7614372219559,806.4324386716722,808.2309000331564
1731016100.9278176,806.8828385649588,807.8981046162341,806.5930706104582,808.4433146523402
1731016100.9293866,807.0626058768538,808.0351254212527,806.7529467780201,808.6269092746873
1731016100.9310908,807.2442986454522,808.1724633667018,806.9120711015947,808.7498880058246
1731016100.931721,807.4281103900631,808.3100393241152,807.0704552150773,808.8265935956503
1731016100.932372,807.614164508329,808.4477859246247,807.2281287116276,808.9576957348644
1731016100.9356244,807.8022022575184,808.5857576177544,807.3851371602791,809.2977766539329
1731016100.9395278,807.9914116370996,808.7242097043057,807.5415143827514,809.9002505169269
1731016100.9434314,808.1808326621473,808.8634901007949,807.6972349968806,810.4996461736923
1731016100.944975,808.3705143174882,809.0036526107629,807.8521899741025,810.4563850393524
1731016100.9473348,808.5627383960834,809.1439844245002,808.0062512773359,809.1344361570784
1731016100.9512382,808.7616197975225,809.2830209792947,808.159449807734,806.6587902936177
1731016100.9512513,808.9695103313712,809.4196731302596,808.3121582986389,804.359969105288
1731016100.9551415,809.1811923323837,809.5553036229518,808.4650198399468,804.0596681836181
1731016100.9590452,809.3813670239251,809.6949936207902,808.6183884914751,806.4375457604331
1731016100.9605627,809.5534473370907,809.8450837860064,808.7714479198515,810.061457943481
1731016100.9629486,809.7018317634172,810.0056226903885,808.9218621762252,812.3425341271392
1731016100.9661136,809.8730487137332,810.1619452460806,809.0671721947571,811.7471739045019
1731016100.966852,810.1431841537283,810.2864712943627,809.2082237420641,809.2243043936791
1731016100.9701304,810.5440610308415,810.3616727054153,809.3523385809716,807.4644069401957
1731016100.970755,810.9509080756668,810.4189196951609,809.5112788083425,808.5926096237356
1731016100.9746587,811.0334922681849,810.557852534096,809.6900580795282,812.3159912348274
1731016100.976151,810.3944534577041,810.8924457961789,809.8707275088605,816.1166272595137
1731016100.9785624,808.8782241259865,811.405422813145,810.0080546337233,817.2442252870197
1731016100.9824655,806.7963773896954,811.8026077411469,810.0591975120149,814.7314107723228
1731016100.9863691,804.7828599910072,811.5619084783689,810.0494681325534,809.8082805384923
1731016100.9890096,803.3371059334609,810.2737557887822,810.1268758682176,804.6683420942435
1731016100.9902723,802.4999493943953,808.0460749904523,810.5125601950564,800.938964343917
1731016100.991739,802.0243677721966,805.5771682663456,811.2850066549421,799.138760171522
1731016100.994176,801.8591856992687,803.7843969704336,812.1033730328942,799.1449577890503
1731016100.9980795,802.3684541747496,803.2907162626938,812.1855534770272,800.7035795790484
1731016101.0011363,803.9634395133263,804.131611554461,810.7794882806658,803.3034454686888
1731016101.0019827,806.4847068626033,805.7891460751788,807.8496174216056,805.8003088251586
1731016101.0058863,808.9967139228089,807.445871203165,804.2974356104193,806.6570779890415
1731016101.0073273,810.272564993829,808.328455024324,801.3974010801295,804.94561990966
1731016101.007889,809.5745251446334,808.0500238655881,799.9194739144806,801.1951431310515
1731016101.00979,807.0814554595993,806.8322195027836,799.6988798782179,797.0955006733284
1731016101.013693,803.6827046352146,805.4508469951119,799.9458620004076,794.1783691406555
1731016101.0175967,800.4150354652659,804.8486633756792,799.9430949913609,792.7057697735893
1731016101.0215,798.0272095620679,805.5939195239237,799.5558688765478,791.8404588708496
1731016101.0229154,796.8988605464621,807.524270547944,799.2417461028222,790.8766788845196
1731016101.0254035,797.1455393368253,809.8106031077766,799.6441317294504,790.2371017240877
1731016101.0267682,798.6154295098547,811.3765263157284,801.076401773212,791.2006103003257
1731016101.0293071,800.7260360409928,811.3899551587787,803.2081833230275,794.6116675232141
1731016101.0332105,802.4166332837873,809.571905108851,805.1478504322397,799.8211533333413
1731016101.036159,802.5132172423456,806.250855535934,805.9161031079472,804.876861275457
1731016101.037114,800.4240072654217,802.2293968713446,805.0543696108365,807.8087892589223
1731016101.0385034,796.6557665593365,798.543370879668,802.9626036673766,807.87993663716
1731016101.0410173,792.6455561031316,796.1563430334421,800.7018630323124,805.7846342593391
1731016101.0449207,789.9303011660471,795.6413586921665,799.3842855218247,802.8096358885924
1731016101.0456476,789.2565270404058,796.9602864220303,799.5828077003972,799.8955926110982
1731016101.0488243,790.2846337026281,799.4689211111429,801.1379969495714,797.4596091937259
1731016101.0527277,792.0166119532541,802.1793293313217,803.3890743294896,795.9127439602283
1731016101.0540917,793.5114072017176,804.1485714330414,805.5565846780962,796.046003518547
1731016101.056631,794.3489323318516,804.7837728882614,807.0010953770507,798.653627818787
1731016101.0605347,794.6304950644563,803.9456742658992,807.3015172828507,803.6568312581771
1731016101.064438,794.6819477074772,801.9027608657493,806.283066576172,809.6207272906803
1731016101.0645268,794.7627745737752,799.2511470832808,804.1116979802574,814.285448539502
1731016101.0683415,794.9581859924089,796.8152010476099,801.4015584113005,815.8395704051383
1731016101.0696795,795.2305564657937,795.4322529759694,799.1423359586694,813.9914880291011
1731016101.0711818,795.5146864400432,795.5868950927317,798.3200737928706,810.0353744604288
1731016101.072245,795.7748074121807,797.078063236398,799.3758853234838,805.9151975434671
1731016101.0761485,796.0103145437544,799.0297036903034,801.8871706073643,803.0547747115853
1731016101.080052,796.2361359336278,800.3714466503613,804.7788807036308,801.80766621986
1731016101.083406,796.4645494789918,800.5108303170341,806.9632909911029,801.7682599410941
1731016101.0839553,796.6990104810573,799.6813369819089,807.9260476907102,802.4667277507261
1731016101.0852678,796.9370072992651,798.6737413535144,807.8202251858811,803.7825172033537
1731016101.087859,797.1750160768688,798.1785264846594,807.0759668556386,805.8333580404351
1731016101.091762,797.411262804778,798.2934447011341,805.9364182514288,808.6278443525806
1731016101.0956657,797.6458174119178,798.5760254452101,804.316127968726,811.894559206593
1731016101.099569,797.8794823180871,798.5321405659745,802.0302967423903,815.2031081299074
1731016101.1008558,798.112857142581,798.0865315815413,799.1424121459198,818.1727581379457
1731016101.1022854,798.3460634165901,797.6521241881336,796.1499988922092,820.5491480758446
1731016101.1034725,798.5789251738075,797.7825607164286,793.8821471205151,822.1552609304422
1731016101.1062045,798.8112332763719,798.7209014900005,793.144009512456,822.8750188743595
1731016101.107376,799.0428813244539,800.2043980820224,794.2723747392589,822.7201382048606
1731016101.1112795,799.273861398891,801.6619551045425,796.8686802566657,821.8244243922771
1731016101.1151829,799.5042003733442,802.6478722942218,799.9482359967334,820.2328654169141
1731016101.116444,799.733907136084,803.1989785976124,802.4876680542326,817.667179496249
1731016101.1190865,799.9629555077361,803.8551628332168,804.0136133511834,813.6691989298025
1731016101.1211646,800.1912972493194,805.2878331599294,804.7910364716292,808.2361276880102
1731016101.1229897,800.4188920838162,807.7347316811708,805.4808177947582,802.4379924566766
1731016101.1268933,800.6457396499228,810.6246061966062,806.5705500416085,798.2605225252823
1731016101.130797,800.8718889643872,812.7400085552492,808.0281598835066,797.4865905069597
1731016101.1320322,801.0973948855452,812.9292348074608,809.384538231283,800.3584607987635
1731016101.1347,801.3222167175546,810.9211415283506,810.1016406384483,805.1197319995788
1731016101.1386034,801.5461257017237,807.6245635614108,809.935270282097,808.9297647994978
1731016101.140044,801.7687635856768,804.6411650293256,809.0853708310633,809.6085442281164
1731016101.1412272,801.9899659200361,803.3282529318686,808.0766479118004,807.0468277973508
1731016101.1425073,802.2102317155346,804.0772269886329,807.4333756392573,803.2989734600588
1731016101.1464105,802.4308519109547,806.2520190966621,807.3218374075475,801.1967225464324
1731016101.1476202,802.6530579372245,808.7064148321991,807.4005524426289,802.3261808151541
1731016101.150314,802.8761282995763,810.4387789077007,807.0269410344584,805.7984493168761
1731016101.1542172,803.0958232254493,810.981991859695,805.7087604264829,808.8562419945641
1731016101.1581206,803.3058580928366,810.4201143938577,803.4692374902232,809.0107784715851
1731016101.1589231,803.504305343593,809.172742725979,800.8521698586746,806.0602497536972
1731016101.1620245,803.7021583352472,807.7374528542792,798.5939976902039,802.2785025223907
1731016101.1632085,803.9244821797064,806.495567021361,797.2380926527778,800.5484202248015
1731016101.1659276,804.1926645155189,805.6059741609536,796.9393113627378,802.0050194864061
1731016101.169831,804.488556592979,804.9924172481448,797.4949253437544,805.188993516897
1731016101.1737344,804.7287941246498,804.4342870446345,798.4924895772966,807.3619036168238
1731016101.17625,804.8006996203,803.747917191639,799.4830635499599,806.7593558921457
1731016101.177638,804.6910135459341,802.9836710763445,800.1514325518385,803.8805829362519
1731016101.1778023,804.6488379308704,802.5057639007632,800.4471424850867,800.9366290009939
1731016101.1787963,805.2078527885507,802.8450949470821,800.6009494838851,800.1841658227904
1731016101.1815414,806.8985296851007,804.3623015345737,800.9814451726988,802.5630545935902
1731016101.1854448,809.7454428393205,806.9408007425493,801.8485419107541,807.447614032403
1731016101.1893482,812.990791617071,809.9598579444131,803.143005164075,813.2738774188011
1731016101.1932518,815.4340370097599,812.5895301386583,804.4481210952613,818.3191441346327
1731016101.1943846,816.2167204100748,814.174606682216,805.1755973509948,821.1888397546054
1731016101.1966815,815.4094126267307,814.4214618609897,804.8970757599016,821.0818731069929
1731016101.1971552,813.9293316967724,813.3371167869306,803.6222180455209,818.0746252576308
1731016101.2010586,812.9206317877514,811.1243529005015,801.8148085507507,813.3723059761467
1731016101.204962,813.1255738315489,808.2081092544231,800.1052344736258,809.1298087028022
1731016101.2088656,814.6413011202382,805.3000442725192,798.8987450215993,807.5515129622811
1731016101.2099729,817.0350623646386,803.2539170418277,798.1687108277815,809.5921659904488
1731016101.2112727,819.5502341734896,802.6543885754694,797.5640938743909,814.1470298657597
1731016101.212769,821.2672382824148,803.4240474459792,796.7136773510019,818.5021669055707
1731016101.215561,821.3232649820424,804.8258648556936,795.5085437178917,819.9613453813421
1731016101.2166724,819.2715878219983,805.9328491690452,794.2217062500038,817.612176532793
1731016101.2205758,815.3831416232333,806.2161870792751,793.430097500104,812.9446384987468
1731016101.2244792,810.5628442686759,805.7890963625857,793.7521198839167,808.7923434678424
1731016101.225561,805.8428285241595,805.1581766992259,795.4781668203271,807.3229927066851
1731016101.2283828,801.8535489322252,804.7692085057739,798.2996703321315,808.5639742264963
1731016101.2322862,798.731548005676,804.7651149284686,801.3842255776771,810.548522167479
1731016101.23444,796.4750057517557,805.0956630555397,803.8255615111555,810.9123652808748
1731016101.2361896,795.282755178285,805.7468856703656,805.1513451629439,808.6957991983282
1731016101.240093,795.4478783286182,806.7836027195137,805.4902227914902,805.0402542456021
1731016101.2411487,796.8982247735468,808.1701830209845,805.3207264968352,802.3514943241911
1731016101.2439966,798.9193210116837,809.6227845223617,805.0882420855694,802.5808793529363
1731016101.2462957,800.4761971638685,810.7195923217351,804.9971012374043,805.8189262251614
1731016101.2479,800.9705507895567,811.1941636370155,805.0384113325829,810.1537801604417
1731016101.2518034,800.7904136058323,811.1160725181331,805.1230630624307,812.9246057586087
1731016101.2533195,801.0962918911017,810.7768303407566,805.1850617733529,812.5521381904616
1731016101.2557068,802.8972963838639,810.4133895547142,805.2102115749805,809.6352224352893
1731016101.256737,806.1081392429379,810.061105611173,805.2156604430345,806.4218389965481
1731016101.2596104,809.3947104079921,809.664883677249,805.2213875235602,804.9808807592993
1731016101.2635138,811.044312521142,809.2866118677525,805.2361344548199,805.533147676375
1731016101.2674172,810.2421309965274,809.1512603776572,805.258365469964,806.3865388207275
1731016101.2713206,807.7264975990606,809.4632931257923,805.2830970178978,805.5869916204905
1731016101.272199,805.2577907407838,810.1757782396784,805.3069860221385,802.8537655899901
1731016101.2723253,804.3206041174218,810.9370361423478,805.329491369859,800.0650046283154
1731016101.2752242,805.1135298209043,811.2551326748033,805.3516221677054,799.8285880340721
1731016101.2791276,806.5947140437313,810.7327811103158,805.3744309538056,803.3468380495204
1731016101.2813182,807.4305246500655,809.2210329192804,805.398338790381,809.349144454948
1731016101.283031,806.9885803653274,806.8692009902867,805.423239620226,814.9056430994997
1731016101.2869344,805.6191339064547,804.1263363724919,805.4488743751928,817.3951603288575
1731016101.287913,804.1875820416344,801.6988576354898,805.4750873081431,816.0964786953082
1731016101.2908378,803.4184714467823,800.3931144518231,805.5018715660071,812.3332308335193
1731016101.291078,803.5687028543424,800.8060709571214,805.5292956652108,808.2948634809262
1731016101.2947414,804.4646807652626,802.9746866466054,805.5574245762613,805.5832947545113
1731016101.2986448,805.6317793937692,806.2181790583641,805.5862876018381,804.5298552144916
1731016101.3025482,806.3992333041773,809.3591885168682,805.6158863821286,804.5192533082994
1731016101.3035014,806.1366521131296,811.2735790599195,805.6462154899007,804.7537107928177
1731016101.3064516,804.7022674818544,811.4555337094122,805.6772763334807,804.777944697732
1731016101.3099573,802.8041735670304,810.2243045367493,805.7090801180135,804.5404040232518
1731016101.3103552,801.8120753154553,808.4333292831151,805.7416436280203,804.1861805837536
1731016101.3142586,802.9375059067604,806.9062197794764,805.7749819322473,803.8512576618903
1731016101.3163407,806.3169014294161,806.0113188746453,805.8091008492613,803.5817572103247
1731016101.318162,810.7454006717189,805.6322503087443,805.8439936144563,803.3560267395502
1731016101.3190897,814.3462818823702,805.4475561318433,805.8796487555443,803.1366914940442
1731016101.3220654,815.7141241141376,805.2229038499654,805.9160725052631,802.902920492678
1731016101.325969,814.7023134045652,804.9071446690805,805.9533138400996,802.6539809868806
1731016101.3288364,812.332849990066,804.5572312233164,805.991460378359,802.398216053257
1731016101.3298724,809.9827734505066,804.2379665750284,806.0305727680469,802.1426389900244
1731016101.3337758,808.4799701551594,803.980612576215,806.0705711131192,801.8892930300352
1731016101.3346777,807.7046424975025,803.7808984616023,806.1111745911304,801.6367930521061
1731016101.3376791,806.8668969578451,803.6003926357557,806.1520524608576,801.3831312135329
1731016101.3415823,805.1745459338764,803.3777065177899,806.1932474616779,801.1272727510017
1731016101.3454862,802.4052942115311,803.064690839866,806.2356178369322,800.8692345625468
1731016101.347716,799.0305425898333,802.665349657729,806.280681146515,800.6094624048391
1731016101.3493896,795.8797803301447,802.237450445094,806.3292963702837,800.3482957085838
1731016101.3502655,793.636714413983,801.8525598600384,806.379568252591,800.0858047043027
1731016101.3513637,792.5115872231358,801.5544145636629,806.4260168764396,799.8218899653543
1731016101.3532927,792.2447679602076,801.3519827260718,806.4629850453648,799.5564331490096
1731016101.3571963,792.3656668873415,801.2405251501128,806.4932195208507,799.289375261976
1731016101.3611,792.5239201139225,801.217213652515,806.53683857505,799.0207129391137
1731016101.365003,792.715122900592,801.2740149218156,806.63069604134,798.750458890826
1731016101.365854,793.27233493187,801.3800574357149,806.8141216842719,798.4786107134021
1731016101.366595,794.6034742037534,801.4756479259054,807.1168204757734,798.2051478051569
1731016101.3689067,796.8354062897752,801.4942331394828,807.5685172051262,797.9300539207426
1731016101.37281,799.6382065262968,801.4150367706083,808.212892104939,797.6533467619914
1731016101.3767138,802.3742329047045,801.3156973762788,809.0824324483854,797.3750839888252
1731016101.3806171,804.4186194942782,801.3571343879895,810.1356696885881,797.0953166306567
1731016101.381442,805.3518044954436,801.6601604593867,811.2171095552058,796.8139953922143
1731016101.3845203,804.9239141799775,802.149223859768,812.0817452466513,796.5309049202953
1731016101.3854744,803.0078012166454,802.531435188027,812.4574097015043,796.2457565279018
1731016101.3863864,799.7743422977069,802.4978829588715,812.0970484215762,795.9585124729217
1731016101.388424,795.9657318799702,802.0034045212931,810.8209102678873,795.6697766212848
1731016101.3923275,792.8434708789542,801.3445574364671,808.5889621651298,795.3807718950239
1731016101.3962307,791.5958619143566,800.923804812677,805.6090152196856,795.0923897510186
1731016101.39703,792.5656176761416,800.9254596175226,802.4050379578713,794.8034628907991
1731016101.4001343,794.9558258843128,801.2263359114785,799.7368796762406,794.5097419311891
1731016101.4040377,797.2997705763258,801.5796713769925,798.3359677396724,794.2059978143405
1731016101.4043536,798.3104568735796,801.8285604010792,798.5621225787157,793.8923414504513
1731016101.407941,797.474664878302,801.9618916692637,800.1813801328249,793.5811726027209
1731016101.4118447,795.1272557298557,802.0440491174488,802.4219635245095,793.2955053082552
1731016101.4126182,792.218001073284,802.1335536013634,804.3040215026516,793.0497083435123
1731016101.415748,790.0225079442246,802.2504661305514,805.0756312392693,792.8174649611595
1731016101.4196515,789.7682051976492,802.3859886076613,804.5303865937864,792.5169862152093
1731016101.4214091,792.0967458038622,802.5244863825363,803.0484558302819,792.0591271551916
1731016101.4232328,796.6157745195105,802.6571816478141,801.3450507110314,791.4757988221182
1731016101.423555,801.9905465360463,802.7837406102744,800.0689029630443,791.0605059205616
1731016101.4274583,806.6451713810234,802.9076751274672,799.4938314345052,791.360798125532
1731016101.4282064,809.5339045340711,803.0319620200713,799.4890012678884,792.8770702061984
1731016101.431362,810.3693939022365,803.1574941678622,799.7352743591285,795.5359328265544
1731016101.4352653,809.2984632461335,803.2837169097967,799.9734634864733,798.339744779957
1731016101.4391687,806.5653258538238,803.4098061976825,800.1088748177173,799.7108681947693
1731016101.4421122,802.5445532362035,803.5353434847856,800.1691333171374,798.611353575139
1731016101.4430723,797.9440240305867,803.660352612131,800.2147204262665,795.7013987794118
1731016101.4437945,793.7513680568578,803.7850394304851,800.2816469936845,793.3897933259942
1731016101.4469757,790.8417339287153,803.9095663698853,800.3726408382726,794.3003167820484
1731016101.450879,789.5623145996394,804.0339829088647,800.4743300502921,799.0972984047492
1731016101.4547825,789.6179939041433,804.158266474524,800.5747451121435,805.4850366833805
1731016101.456432,790.3271574622129,804.282385150935,800.6699837851796,809.4808711974142
1731016101.458686,791.1015646247363,804.4063304366235,800.7620409836588,808.1969723359078
1731016101.4593823,791.8834022234707,804.5301166233676,800.8541930581691,802.0089911214607
1731016101.4609914,793.2146603808835,804.653766470421,800.9482136375632,794.405326832418
1731016101.4625895,795.7567880319366,804.7773004940286,801.0441159311569,789.6347365488576
1731016101.466493,799.5033993782163,804.9007349422365,801.1411418629764,789.9261130306497
1731016101.4703965,803.3314390569935,805.0240842918448,801.2386690586785,794.2400746299107
1731016101.4742997,805.4400335901569,805.1473622064985,801.3365157956028,799.2442816874977
1731016101.4749708,804.5586682869457,805.2705787339498,801.4347965915953,801.6122671856145
1731016101.4782033,801.089715861787,805.3937374182411,801.5336747988631,800.008101527606
1731016101.4798708,797.2380389142362,805.5168395770758,801.6332254724999,795.5758275336922
1731016101.4821067,795.8421568057254,805.6398995970674,801.7334314325868,790.8700615192266
1731016101.48601,798.5852682453764,805.7629627137569,801.8342393467965,788.1291233556269
1731016101.4899137,804.804854477396,805.8861017376671,801.9356068953717,788.0605615588197
1731016101.4905589,811.8073151418881,806.0093691452886,802.0375165251805,789.822348800289
1731016101.4914546,816.5779164481575,806.1327150546442,802.1399652903633,792.0288982811182
1731016101.493817,817.6968687963417,806.2559453054139,802.2429492195649,793.9611852465283
1731016101.4977205,815.9942590136986,806.3788339305997,802.3464544408977,796.0904468720648
1731016101.49875,813.5045361090993,806.5014313436839,802.450459115956,799.5280265974059
1731016101.501624,811.8224873276648,806.6243798241285,802.5549447599756,804.7946763597048
1731016101.5055273,811.3142041361187,806.7487874069953,802.6599101760947,810.8988111151165
1731016101.506147,811.4820392912941,806.8752580097254,802.7653745541913,815.6251680968052
1731016101.509431,811.7151096061941,807.0023694259822,802.8713547329576,817.0239293684527
1731016101.5133345,811.7183688385231,807.12608242595,802.9778170911752,814.9806622185824
1731016101.5172377,811.5113047545976,807.2421847239931,803.0846400378057,811.4870910999134
1731016101.5176291,811.2346242116813,807.3522725150165,803.1916547130425,809.2358465930603
1731016101.5211413,810.9926476506803,807.4693581233395,803.2988078294923,809.617467292573
1731016101.5217352,810.8087008481413,807.6147364455553,803.4063718454453,811.7736886571432
1731016101.525045,810.6566789344397,807.7999327118857,803.51495991553,813.5029948019784
1731016101.526477,810.5055413005861,808.0028381116952,803.6250650925041,813.2614307173247
1731016101.528948,810.3415341877186,808.1658119745399,803.7361625485757,811.5844799101219
1731016101.5328517,810.1669454453249,808.2317574003058,803.8461,810.7376350741628
1731016101.5365086,809.9895472963257,808.1878407099096,803.9520440639694,812.8704138683402
1731016101.5367548,809.8146320896373,808.0704139596969,804.0536687594376,818.1808937521723
1731016101.5373232,809.6431385646031,807.9307831167504,804.1569190557043,824.584293559402
1731016101.5406582,809.4735666150766,807.801691235631,804.2736219697788,829.1512694419839
1731016101.544562,809.3043239877322,807.6897470428783,804.4119428775748,830.1697095239743
1731016101.5484653,809.1347923197293,807.5869515666949,804.5592340139108,828.2376012293619
1731016101.5523686,808.9651766076597,807.4842765060446,804.6715547734557,825.6291004708725
1731016101.5529113,808.7959258105059,807.3779800221606,804.6922214627136,824.5487193110472
1731016101.5553875,808.6273311309758,807.2689650225016,804.6056166723783,825.6695256775403
1731016101.556272,808.4594516644454,807.1595837986658,804.4866215170512,827.9783050877597
1731016101.5601757,808.2922272066372,807.051353273871,804.4770641868465,829.8363720731501
1731016101.5615,808.1256010129491,806.9444930267583,804.6783327727182,830.2619131127477
1731016101.564079,807.9595701242606,806.8385366745794,805.0598372297959,829.4312667533079
1731016101.5679824,807.794173107641,806.733022997022,805.4923906089721,828.193025972856
1731016101.568499,807.6294585509494,806.6277896220851,805.8694959789635,827.2383645257954
1731016101.5718858,807.4654649657483,806.522912410532,806.158237850127,826.698654614313
1731016101.574267,807.3022181469253,806.4185304275189,806.3129245541726,826.3317598838048
1731016101.5757897,807.1397376819058,806.314731096856,806.1944630511808,825.8905443332121
1731016101.5796928,806.9780433225249,806.2115329944796,805.6791303616899,825.3000230777743
1731016101.5835962,806.8171573142255,806.1089213922488,804.9120065644552,824.6165845194132
1731016101.5840876,806.657103530544,806.0068842933308,804.4156346666351,823.9212740114458
1731016101.5874996,806.4979057740674,805.9054261349772,804.8206881570727,823.2562087423363
1731016101.591403,806.3395867800931,805.8045632091909,806.335374636973,822.6208196196432
1731016101.5931463,806.1821681447326,805.7043139188462,808.373343746606,821.996662914367
1731016101.5953066,806.0256706956212,805.6046928641224,809.7106414482923,821.3691733984366
1731016101.5965228,805.8701148220266,805.5057105837244,809.1712526340996,820.7345643194091
1731016101.59921,805.7155205824612,805.407376558774,806.4421929409374,820.0960491992632
1731016101.5996757,805.5619076510401,805.3097022632967,802.4721881240367,819.4578402939337
1731016101.6031134,805.4092952300483,805.2127017398957,799.1116183367154,818.8219432047661
1731016101.6070168,805.2577020049738,805.1163884317971,798.1172491649229,818.1881567768506
1731016101.6109204,805.1071461485822,805.0207694048004,800.1125062098001,817.5554509734993
1731016101.6120255,804.9576453465301,804.9258418689119,804.206564890085,816.9230761697233
1731016101.6148238,804.8092168195217,804.8315994375668,808.5548213899973,816.2908639064973
1731016101.6152637,804.6618773336919,804.7380514109602,811.4609597309375,815.6589922028827
1731016101.6187272,804.5156432032388,804.6452441832536,812.2467184648389,815.0276673724433
1731016101.6226306,804.3705302920954,804.5532565789284,811.3668809182398,814.3969687922335
1731016101.6265342,804.2265540183566,804.4621414595754,809.8581970290705,813.7668607646533
1731016101.6304376,804.0837293615099,804.3718272844234,808.6346060317179,813.1372688540059
1731016101.630852,803.9420708708889,804.2820696097425,808.1006335348043,812.5081362518544
1731016101.630905,803.8015926740395,804.1925893003229,808.2115265022956,811.8794362401125
1731016101.6315455,803.6623084845968,804.1034443886102,808.7824761977868,811.2511578095388
1731016101.634341,803.5242316098975,804.0154055792688,809.7317578371694,810.6232886389107
1731016101.6382444,803.3873749586505,803.9297963328213,811.055362492975,809.9958078813486
1731016101.642148,803.2517510488066,803.8473257984122,812.5850519024407,809.3686884851098
1731016101.6460514,803.117372015568,803.7662937586176,813.8008973268549,808.7419030069893
1731016101.64644,802.9842496194264,803.6820013044185,813.9593544385195,808.1154270261163
1731016101.649784,802.8523952541572,803.5899996926391,812.5247419856647,807.4892369653368
1731016101.6499548,802.7218199547782,803.4940884423598,809.5827654441691,806.8633029880913
1731016101.6538582,802.5925344054795,803.4154045942219,805.8820958635063,806.2375826367731
1731016101.6577616,802.4645489474394,803.3959709897254,802.4566038817713,805.6120248794294
1731016101.6616652,802.3378735863024,803.4999870768858,800.130090653025,804.986591272616
1731016101.662028,802.2125179990821,803.8332804806462,799.248642165235,804.3612854880133
1731016101.6655686,802.0884915405397,804.5692644522297,799.7179714639627,803.7361593834793
1731016101.6665685,801.9658032496324,805.8824154445252,801.1699967469968,803.1112560271581
1731016101.6686633,801.8444618569862,807.7191015920605,803.0901288621194,802.4864891870626
1731016101.669472,801.7244757937401,809.5738569886993,804.9029191540839,801.8615503427594
1731016101.6733754,801.6058532001447,810.5904502669391,806.0882691703056,801.2360149326822
1731016101.677279,801.4886019300395,810.0550099679331,806.3227474643846,800.6097576791295
1731016101.6776164,801.3727295476648,807.915274189934,805.5641399060906,799.983483268484
1731016101.6811824,801.2582433191478,804.8723603909176,804.0344196614551,799.358754029249
1731016101.6850858,801.145150211248,801.9746927068431,802.1378030009841,798.7368072036671
1731016101.687543,801.0334569154405,800.0655689194942,800.3651950252291,798.1162755668947
1731016101.6889892,800.9231699018833,799.4675423338672,799.1967108877307,797.4916702279259
1731016101.6928928,800.8142954696663,799.9950040649595,799.0037854359936,796.8558422561313
1731016101.6932044,800.7068397198091,801.1509185864362,799.9778154068005,796.2081227376099
1731016101.6967962,800.6008083914116,802.3668154698779,802.1073197494696,795.5638406534733
1731016101.7006996,800.4962066203962,803.2332627653209,805.1789291816126,794.9532098316447
1731016101.701591,800.393038870757,803.6628768660627,808.7603633360786,794.397099369965
1731016101.704603,800.2913093680626,803.8779073988884,812.1822516183988,793.8642407875973
1731016101.706422,800.1910230712723,804.1781062799244,814.613322312455,793.2474415867542
1731016101.7085066,800.092186483228,804.6322957886065,815.3102487557267,792.4185554277794
1731016101.7087924,799.994806905548,804.9624708840634,813.9790023846051,791.3866474030134
1731016101.71241,799.898889154387,804.772855133221,811.0168652263015,790.4659375917635
1731016101.7163134,799.8044311388326,803.9656097057535,807.4034784770046,790.2432734360248
1731016101.7202168,799.7114232154255,802.9586616126259,804.2453479987249,791.2284577941405
1731016101.72412,799.619857259689,802.4408625451609,802.2644689894138,793.4133144708975
1731016101.7243807,799.5297451495566,802.8165731186625,801.5689176273702,796.1583897558301
1731016101.7253013,799.4411322675849,803.8265333368055,801.7929123444612,798.5366240534415
1731016101.7280238,799.3540797757393,804.7231570577377,802.4115540503884,799.8323458941559
1731016101.7319272,799.2685999938311,804.878728776317,802.9954894016028,799.8462916893282
1731016101.7358303,799.1845765988908,804.2824383056516,803.330672734351,798.9265663054186
1731016101.7366135,799.1017655012082,803.4719196820154,803.4365579874271,797.8119674394219
1731016101.739734,799.019982128382,802.9877383684054,803.4831481996993,797.3260291327946
1731016101.7399688,798.9394501242223,802.9024614129878,803.5961437297107,797.9358385798796
1731016101.7436376,798.8610186683608,802.8832304821731,803.6608054194536,799.3414919127496
1731016101.7441804,798.7857582121619,802.6877917202755,803.3336786688038,800.4235379005788
1731016101.747541,798.7136977671524,802.5496174248348,802.3399927164767,799.7734059002571
1731016101.7514443,798.6424006628748,803.036734977351,800.8442960000541,796.6346418123167
1731016101.7553475,798.5672352074857,804.5191843727674,799.5397930407436,791.686275992259
1731016101.7555568,798.4851961072751,806.7703833971002,799.2895409636369,787.0559843535143
1731016101.7592514,798.4014347062366,809.0797728988987,800.5211817708029,785.3458549971876
1731016101.7630596,798.3326078013065,810.7572895648976,802.8129124470635,788.0715460613281
1731016101.7631547,798.297985526676,811.5645620555389,805.0170695253266,794.423536196053
1731016101.767058,798.2950957066611,811.7117831949381,805.8983210549897,801.3150226114662
1731016101.7709615,798.2750712842857,811.4815218018576,804.8710117941373,805.0324300865625
1731016101.7711449,798.1539868026634,810.8894568044757,802.3164486861451,803.6354504052119
1731016101.7716362,797.8940369992481,809.7492880422809,799.2697608784773,798.4154547236676
1731016101.7748652,797.637170934805,808.095501671572,796.7557384277357,793.1515268492204
1731016101.7787683,797.785145625165,806.5116266438822,795.2948222501259,791.5386223616929
1731016101.781939,798.8737511488184,805.9330105489657,794.8781241334862,794.6826361948852
1731016101.782672,801.2081395586408,806.9709545769796,795.2573971363003,800.5544301776026
1731016101.7865753,804.5019357671657,809.298897428013,796.170763957119,805.7084047569144
1731016101.7867332,807.8994693479767,811.6709997836474,797.3320566284663,807.8001693422273
1731016101.7904787,810.4753763652091,812.6667071844646,798.3731611697299,806.9836097891665
1731016101.7943823,811.8232082561849,811.6739051046893,798.9914551787692,805.3502354085036
1731016101.7982855,812.216578493764,809.3927495394262,799.2298099195509,805.1099165765465
1731016101.8008182,812.2219094898453,807.4355171561211,799.5210814961274,806.9792442215426
1731016101.802189,812.1376866156769,807.2360756622737,800.2939578178621,809.8744467074575
1731016101.8023212,811.7410911403426,809.0316730151386,801.4430220484631,811.9751719317878
1731016101.8060925,810.5047120632182,811.6909969800114,802.2258805470336,812.2647882278684
1731016101.806659,808.0666657375183,813.5432310001285,801.7982588674995,811.3371806380286
1731016101.809996,804.606451004385,813.5703357423034,799.9577350311996,810.8216738801625
1731016101.8138995,800.8947408187757,812.0418582572445,797.4133485344397,811.8908274182334
1731016101.817803,797.9855273419084,810.1620007299604,795.309989217524,814.113369926443
1731016101.8179092,796.7035253369241,809.1124575544487,794.4062348692753,815.6450041186939
1731016101.8196976,797.2071922977489,809.2792378136949,794.5935630422726,814.5984528015225
1731016101.8217063,798.9024568337633,810.161329005062,795.1201892712162,810.4542196240076
1731016101.82561,800.7916103575693,810.8623097175387,795.2788460132103,804.4311093512883
1731016101.8295133,802.0612384109946,810.7264248225883,794.9672864012502,798.6646972050709
1731016101.8334167,802.546160136287,809.7467053100212,794.6941247104662,794.9346392779127
1731016101.8334975,802.7784129029745,808.5872203658938,795.0940955094453,793.8371902424042
1731016101.83732,803.5866758934163,808.2188177631037,796.3994327876039,794.7748523399028
1731016101.8385768,805.4927922692582,809.3165094624645,798.285270400056,796.5149407376928
1731016101.8412237,808.30380341345,811.7492158345393,800.1443076452588,797.8509463111294
1731016101.8416817,811.2058218737841,814.5349231914863,801.498453633914,798.0873241020372
1731016101.845127,813.3138688929151,816.3653524963617,802.205906038844,797.2906431253533
1731016101.8490305,814.2426764144386,816.3748803361613,802.3627776289885,796.2614429460799
1731016101.8490856,814.2390450546854,814.6266776792916,802.0835933076539,796.1425678233849
1731016101.852934,813.8489632299847,812.0147340625126,801.4184908273461,797.7634583910361
1731016101.8568373,813.5018039322944,809.7156762718391,800.473307946177,801.126265582304
1731016101.857456,813.3414699274349,808.5834175913901,799.5445449463222,805.4454437411753
1731016101.860741,813.308955057902,808.8129291163192,799.0378428985065,809.70372018386
1731016101.8646443,813.2980489017957,809.968379903222,799.1622375964315,813.2169546160329
1731016101.8646736,813.2496223801161,811.2855943131254,799.6515107932128,815.7470954979904
1731016101.8685477,813.1620418153176,812.0735989945209,799.7940419233698,817.219292907883
1731016101.8724513,813.0594942078852,812.0184137134634,798.8282467984625,817.4856422514594
1731016101.8763354,812.9621653483566,811.2407798920659,796.476347526181,816.4158771291677
1731016101.8763547,812.8758974847038,810.1039732683189,793.2514898498172,814.1403878410136
1731016101.8767045,812.7966980825883,808.9408491773337,790.2767614195499,811.094402360508
1731016101.880258,812.7188199410513,807.919680807577,788.665909527821,807.7895886588076
1731016101.880262,812.6393293073918,807.1231253355564,788.8551284694466,804.586076618454
1731016101.8841617,812.5583106495014,806.698877922393,790.367666906364,801.7311415520865
1731016101.8880649,812.477068193843,806.8764108423161,792.1923574074384,799.6007409238838
1731016101.8919685,812.3965903448898,807.8053387883601,793.4661071287468,798.8052682380167
1731016101.8952146,812.3170868291209,809.3807804940722,793.9058120193586,799.8868403850302
1731016101.89585,812.2382762918498,811.2477484108971,793.686828727453,802.7109126979759
1731016101.895872,812.159816522708,813.0004134225642,792.9910667054099,806.0629735818039
1731016101.8997753,812.0815263753834,814.409125045172,791.7453087984306,808.0183545134523
1731016101.903679,812.0033785707577,815.4884557996542,789.8455006639481,807.1159766940367
1731016101.907582,811.9253986579232,816.3510112582603,787.6278106478832,803.5227441364136
1731016101.911438,811.8475891947998,816.957219726389,786.0317199687664,799.0674567599867
1731016101.9114857,811.7699163750015,816.9718639681137,786.142103791859,795.8469421552013
1731016101.9117272,811.6923341644074,815.9049516991288,788.396246456961,794.4962749472365
1731016101.914094,811.6148039907827,813.5126603841165,792.1301927846627,793.746545167687
1731016101.9153893,811.5372845874932,810.1595234630867,795.9196226509536,791.8108736852569
1731016101.9192924,811.4596988769067,806.7558137486632,798.5040597981879,788.3739437859983
1731016101.9231958,811.3819172162171,804.1807039510259,799.5605574973532,785.2914435335603
1731016101.927026,811.303806887833,802.6019429673793,799.7087209496729,785.2649053019928
1731016101.9270997,811.2253575764358,801.3084797753725,799.8082727799971,789.6123696173622
1731016101.9310029,811.1467946380665,799.2884995917207,800.2313777666661,797.0222767704289
1731016101.9329731,811.0684967038707,796.120121328145,800.7579441775432,804.2633430074321
1731016101.9349062,810.9905786159551,792.4323490915401,801.091135127571,808.2354471109425
1731016101.9388096,810.912303815343,789.5357339003704,801.3813298611776,807.8531524056126
1731016101.9426143,810.8319552974723,788.4936042005328,802.1863302266286,804.5401119297073
1731016101.9427133,810.7479612257271,789.335151036871,803.9155174586845,801.1446823210928
1731016101.9466166,810.6613029442399,790.9976410789257,806.3532964375869,800.1352062553884
1731016101.94675,810.5774056811438,792.052927545991,808.7782681966778,802.3519512706001
1731016101.95052,810.5040769321776,791.7059928901228,810.5852800142017,807.0522377523444
1731016101.9518523,810.4432459995971,790.3385912182781,811.8025389342876,812.8607496345234
1731016101.9544234,810.3802878203052,789.1863854962386,812.9905742736414,818.55793258419
1731016101.9582024,810.2832396841216,789.3949226811636,814.6164070229023,823.1086099725463
1731016101.9583273,810.1261516279891,791.1956345403636,816.5154407405383,825.3989095132996
1731016101.9622304,809.934575148382,793.8338489224909,817.9744075364977,824.5194951695969
1731016101.9661338,809.8162301353283,796.2310090295874,818.3638550157399,820.6241032633975
1731016101.9700372,809.9119905599787,797.7633175212231,817.7086367801363,815.3869562140742
1731016101.9707315,810.2308408061871,798.5409465084847,816.6453539057684,811.1889340318348
1731016101.9737904,810.448963427587,799.1085752576765,815.8208055108148,809.4339967146462
1731016101.9739406,809.8994603934339,799.968411998341,815.3326560530294,809.4927537068334
1731016101.9778442,807.9652139556835,801.315293511506,814.7583429673655,809.4058862407935
1731016101.9817476,804.7318699328664,803.0281224167917,813.723444474139,807.8596726690779
1731016101.981773,801.2812371323727,804.7431178003396,812.4241134521775,805.6361412506592
1731016101.985651,799.0868717063144,805.925913976486,811.5676082417721,805.1029302093972
1731016101.9893787,798.8478923828463,806.0248222305058,811.7713517850511,808.07757432941
1731016101.9895544,799.85010845277,804.7481506221325,812.992984194484,813.9129909023874
1731016101.989611,800.5554675473605,802.3078304235374,814.5366832970574,819.5020623307344
1731016101.993458,799.9157525690144,799.3944848344304,815.6303822121754,821.2760560126219
1731016101.9973614,798.1772080242436,796.8443816304662,816.0328882094229,817.6460932541839
1731016102.0012648,796.4285077434419,795.2392388144543,816.1235324695871,810.0474113601059
1731016102.0049667,795.3519201758663,794.7328814874089,816.4395284882156,801.9113357163571
1731016102.0051682,794.4148317839127,795.1576335329557,817.1375864559541,796.465104629415
1731016102.00849,792.3361749558741,796.1998190112432,817.8716131985519,794.990843396965
1731016102.0090718,788.4339090959195,797.4455629138312,818.1333105856748,796.6104279569447
1731016102.0129752,783.5842936477777,798.3508918442428,817.6855508065539,799.4217395822445
1731016102.0167954,779.8697917941153,798.3528166024539,816.7160924660745,801.9436488905458
1731016102.0168786,779.2112638334302,797.1847863454832,815.6606827146343,803.891298504487
1731016102.0205548,782.1494040966256,795.1556994381838,814.9121531072064,806.0009815596716
1731016102.020782,787.6571858072152,793.0714035440825,814.6296270869756,809.2497936532598
1731016102.0246856,793.8613845919766,791.766437201783,814.7034538746796,813.9920079329013
1731016102.0273695,798.9194070943536,791.5972747736868,814.8328780859189,819.4321997745371
1731016102.028589,801.5395967903646,792.3147043970195,814.6798275954632,823.7378629829527
1731016102.0324924,801.2133785207587,793.3863681203227,814.0614609965733,824.895344176265
1731016102.0361433,798.369170791398,794.4270239358523,813.0853164215796,821.9670514195407
1731016102.0363958,794.3169234137018,795.3395955905307,812.1112251364176,815.9460583694924
1731016102.0402992,790.7003534346436,796.1146967746336,811.5305308592837,809.4689134998566
1731016102.0442028,788.63217840448,796.5958768430695,811.5094177637349,805.4132517656542
1731016102.046249,788.1924010705732,796.5197866013618,811.8903042051218,805.3013801350854
1731016102.0481062,788.6973266641995,795.8188327681585,812.3312404547689,808.6293166506377
1731016102.051731,789.3756123977769,794.8829942920875,812.5862019462211,813.5185550730473
1731016102.051818,789.8232481618846,794.4902887266917,812.7213454642483,818.0774659431522
1731016102.0520096,790.021536170277,795.3896001136685,813.0914172884352,821.4245831767339
1731016102.055913,790.1209478775934,797.805648159861,814.0560810661909,823.7405917673631
1731016102.0598166,790.2480073598523,801.2139648213265,815.6146811905859,825.5098069760984
1731016102.06372,790.4390333356582,804.5601501050141,817.2405966960707,826.6484781039392
1731016102.065128,790.6686040979598,806.8074867943119,818.0926259917973,826.235743242736
1731016102.0673192,790.9005594218177,807.4901212252847,817.507474125348,823.1477852723381
1731016102.0676234,791.1166945562035,806.9463167595641,815.436484873418,817.2328860148207
1731016102.0715268,791.3178954602954,806.0934782964921,812.5015709043826,810.0992929164985
1731016102.0754304,791.5127058372457,805.8759653097276,809.6353053612137,804.6576515588184
1731016102.0793338,791.70763133187,806.718605912218,807.5975077606474,803.4747025285297
1731016102.0829072,791.9042471971986,808.3166899256411,806.7190872135287,807.0849875269663
1731016102.0832372,792.1010370352778,809.8675381083956,806.9632364710852,813.5935345408277
1731016102.0840073,792.2961161233475,810.5584691923116,808.0982268997509,819.9028658581977
1731016102.0868409,792.4886334407089,809.9905870525765,809.7570889379074,823.6221653153627
1731016102.0871406,792.6787297451201,808.3149625754382,811.4037877933653,824.2854229182492
1731016102.091044,792.8669008640805,806.0736497464636,812.4155253383117,823.1488241369461
1731016102.0949476,793.0535024798437,803.9020115344707,812.3779423791173,821.8962108644015
1731016102.0984955,793.2386246208886,802.2732959783269,811.3897094151323,821.2744422919826
1731016102.098851,793.4222040582025,801.381024259178,810.0494790573996,820.6375071336513
1731016102.1027544,793.6041710311831,801.1561266970295,809.0508151127029,818.6810742577898
1731016102.1028864,793.7845219976957,801.3706575334904,808.707281685618,814.7388978699735
1731016102.1066575,793.9633152689413,801.7717020137018,808.8223440260762,809.5380232428303
1731016102.1105614,794.1406295960222,802.1850383883108,808.9712977473179,804.7411188127053
1731016102.1140835,794.3165199379862,802.546039804353,808.8688440242651,801.7082899217086
1731016102.1144648,794.4909911274556,802.8654224522564,808.4998390933509,800.6398123927868
1731016102.118368,794.6640093848181,803.1756655647074,808.0051747070166,800.7670138626411
1731016102.121766,794.8355683680779,803.4970549004192,807.5181356245491,801.1533404661391
1731016102.1218636,795.0057906176193,803.8315747395902,807.0897792770219,801.2803504853741
1731016102.1222715,795.1749746960211,804.1720001266914,806.7053029232958,801.1023958381239
1731016102.1261752,795.343454171837,804.5116508590316,806.3312750945969,800.7955315373415
1731016102.1296716,795.5112245522478,804.848273347811,805.9472659600142,800.5178324293776
1731016102.1300786,795.6775702991276,805.1829528253699,805.5512178109835,800.3198064130656
1731016102.133982,795.8412319841036,805.5175625762187,805.150240892128,800.1738144070963
1731016102.137885,796.001586255304,805.8531759702538,804.7509179229486,800.0357770281406
1731016102.140645,796.1604670924542,806.1898838242482,804.3554627188569,799.8820456617257
1731016102.141789,796.3228320858199,806.5273297312358,803.962797640584,799.7125093629683
1731016102.14526,796.4937736035656,806.8652195143961,803.5710728530528,799.5372312378687
1731016102.1456923,796.6713719253486,807.2035012732399,803.179231478347,799.3643500675284
1731016102.1495955,796.8402665917968,807.542291210118,802.7871867886387,799.1960835829517
1731016102.1534991,796.9762527111825,807.8817361186765,802.3952921230949,799.030710914218
1731016102.1568863,797.0698729322388,808.2219340574115,802.0038380216617,798.8658862560231
1731016102.1574025,797.1599924701893,808.5629295651671,801.6128753338272,798.7004540074719
1731016102.1595244,797.3420523397623,808.9047450019079,801.222289142558,798.5344851088905
1731016102.160848,797.7062131456945,809.2474099311689,800.8319345262667,798.3685255518326
1731016102.161306,798.2047687918997,809.5909726476859,800.4417141278063,798.2029760552599
1731016102.1652095,798.5553180731341,809.9354944393698,800.0515818809226,798.0379174717095
1731016102.1691127,798.3699193325583,810.2810323787758,799.661511908272,797.8732396347771
1731016102.1730163,797.5681915332682,810.6276191658682,799.2714713480614,797.708821256951
1731016102.176436,796.7511949896716,810.9752556058451,798.881412662899,797.5446150875426
1731016102.17692,797.0181885671814,811.3239360453417,798.4912819442575,797.38062852905
1731016102.1784036,799.1644873856286,811.6737117654734,798.10103232653,797.2168615390907
1731016102.180823,802.9444875393189,812.024752267532,797.7106311193121,797.0532711636661
1731016102.1847267,807.1822554144097,812.37731469157,797.3200516812755,796.8898043114443
1731016102.18863,810.7082362049287,812.7315449008158,796.9292489058447,796.7264898682901
1731016102.1919093,813.2377138544077,813.0871759160126,796.5381339512252,796.5635127635516
1731016102.1920242,815.330459624808,813.4434253466087,796.1465822468816,796.4011427853866
1731016102.1925335,817.4789117142782,813.7995044951632,795.7545052030305,796.2394420559009
1731016102.1964371,819.2630559882698,814.1558103490024,795.3619649792822,796.0778914689189
1731016102.1972828,819.5033065675418,814.5149735724801,794.9692227930458,795.915373001309
1731016102.2003405,817.4014075875097,814.881047955351,794.5765629633158,795.751003071454
1731016102.204244,813.6395803292907,815.2555537307569,794.1838513975302,795.58573175157
1731016102.2076125,810.3105627279982,815.6319515909632,793.7901181928104,795.4233979534469
1731016102.2081475,809.5607954250285,815.9944941023093,793.3938030623233,795.2689852645215
1731016102.212051,812.0378530693855,816.328916766194,792.9941860382692,795.1229009727912
1731016102.2159543,816.4670092984311,816.6450892474935,792.5934960636932,794.9743191939992
1731016102.2161622,820.6923467304891,816.9944301464158,792.1975318646117,794.8020215763962
1731016102.2198577,823.2542717395206,817.449410213051,791.8119201665113,794.5914525775571
1731016102.2232003,824.2068263669697,818.0233784464359,791.4336667959551,794.3646851601723
1731016102.223761,824.6489403509639,818.564186752756,791.0440488086318,794.1968003520268
1731016102.2269318,825.5509214553193,818.7294683079563,790.6149904906439,794.1766576027236
1731016102.2276647,826.9239457140578,818.1508314973358,790.1376374508785,794.2947325925012
1731016102.231568,827.9270682814116,816.7292022456235,789.6613331355594,794.3225286699824
1731016102.2350414,827.6595288049575,814.7914266433561,789.3010469022629,793.8421585897552
1731016102.2354715,825.8958105674044,812.8893804716965,789.1634044362029,792.5653055911598
1731016102.2387884,823.206164981804,811.3830596902093,789.1994834186588,790.8253876952244
1731016102.2393749,820.4802600410173,810.2010465634912,789.1061344204626,789.7516082088865
1731016102.2432785,818.3111669196176,808.990885138326,788.4304669235572,790.6272164719873
1731016102.247182,816.7104591974977,807.4793242079147,786.8605323323507,793.6531489019377
1731016102.2510853,815.3017796315702,805.6975694363596,784.4685228362899,797.2121098451984
1731016102.2539208,813.7672078564335,803.9174705833678,781.7060253821581,798.6222417907819
1731016102.2543766,812.1584873629087,802.4345285811582,779.2020354534336,796.0810252425547
1731016102.254989,810.8349689220446,801.4196118087478,777.5586168209319,790.2537402727475
1731016102.2588923,810.1294442832185,800.9127246744291,777.2368975414732,784.0780364315322
1731016102.2619543,810.0800246348252,800.8687132627183,778.4727513054785,780.819102266465
1731016102.2627957,810.4774737472334,801.1685254379169,781.1778704847693,781.8974862549844
1731016102.2666993,811.1481235606266,801.6267140885684,784.921874191539,786.1778013878175
1731016102.2699647,812.1569348387098,802.0712185207342,789.113304882061,791.1222336364298
1731016102.2706025,813.7097742378119,802.4783398943721,793.3061546110064,794.6716023276289
1731016102.2728,815.8503118832014,803.0417553243262,797.3737654294797,796.3086064507462
1731016102.274506,818.2615827886355,804.0826495154934,801.3834404177392,796.7442054804824
1731016102.2784095,820.3883760568647,805.8421914645663,805.3097702815393,796.9629242004308
1731016102.2823129,821.7881241477957,808.2891490521472,808.884391284734,797.6796408692178
1731016102.2855527,822.3919911387815,811.0496838491549,811.7003064193391,799.4476791309211
1731016102.2862165,822.4418870685577,813.4911619692272,813.4065547145492,802.7862647301037
1731016102.2901196,822.1893889315307,814.9452840241944,813.7971418758666,807.7897466987321
1731016102.2916791,821.6686339525668,815.0133020559592,812.8136431335756,813.5439768039314
1731016102.2940233,820.7446376324823,813.8129571807202,810.6115739717034,818.1786930809977
1731016102.2969773,819.3270119961288,811.9766548604512,807.7009196749967,819.8580446503958
1731016102.297927,817.4922449502532,810.3271636357568,804.9675983448248,818.0240911624917
1731016102.301141,815.4196866355483,809.4160106975605,803.4106282840062,813.8517638026739
1731016102.30183,813.2674838556079,809.2650269223836,803.6806304633086,809.5139194965064
1731016102.3057334,811.1132029588051,809.4950217233614,805.7066707268816,806.8268783649231
1731016102.3096373,808.9395559534807,809.6842388041013,808.663891262395,806.2650055058909
1731016102.3105586,806.6333397339764,809.634398458548,811.3287297937013,806.9480097505909
1731016102.3135405,804.0812243531282,809.3844693510587,812.655707954836,807.461174782623
1731016102.3167293,801.4051613072459,809.0670891023368,812.2854693329302,806.858612256695
1731016102.3174438,799.1348274086386,808.7791134179078,810.7000840653694,805.1973031603933
1731016102.3213472,798.0291191614888,808.5437095932103,808.9126007735266,803.3534587351826
1731016102.3252509,798.5744750057402,808.3386031403985,807.8620888378612,802.3741083666353
1731016102.3291545,800.5799240290189,808.136123409424,807.8876010390658,802.8791911981144
1731016102.3294375,803.2528232036669,807.9236285984686,808.5905016369964,804.8774679674112
1731016102.332,805.6824540147338,807.7028423323171,809.1190086656417,807.9488906870467
1731016102.332317,807.3028595088907,807.4805753029854,808.6732247154291,811.4790539906907
1731016102.3330576,808.017769599792,807.2615527591975,806.9818756515841,814.755710323193
1731016102.336961,808.044202031389,807.0466324562748,804.5539619624141,817.0474219504732
1731016102.3408644,807.7193422418922,806.8344542593345,802.5526717230144,817.8586672786564
1731016102.344768,807.3830815305854,806.6235344399462,802.2498928846189,817.2879416711464
1731016102.3479054,807.2593717999545,806.4132426605942,804.2843839641307,816.152377147441
1731016102.348317,807.2813337968414,806.2036882811865,808.1947534610429,815.6420789073625
1731016102.3486714,806.9862122301787,805.9952088919943,812.6125740065685,816.6602365411205
1731016102.3525748,805.6749774960307,805.7880074802472,816.0340117422406,819.2938852450221
1731016102.3564782,802.8421744097661,805.5820803200338,817.6245734678611,822.7749042482932
1731016102.3603818,798.6000444720581,805.3773150904292,817.5004935611571,825.9391108227926
1731016102.3634934,793.751181953435,805.1736009826485,816.3909980674102,827.8731724876454
1731016102.3642852,789.4115539870647,804.9708749353042,815.0675627082646,828.3419800564802
1731016102.3670228,786.4341450585034,804.7691108294456,813.9903525320391,827.7501676275506
1731016102.3671963,785.0259171425163,804.5682901642087,813.2930769640213,826.7380495777529
1731016102.3681886,784.7934786867214,804.3683833316686,812.9072229746728,825.7717531386246
1731016102.372092,785.1504696862976,804.1693493686174,812.6164428865542,825.000360044148
1731016102.3759956,785.7849561811332,803.9711474400125,812.0478272430645,824.3594806901116
1731016102.3790815,786.8514431985648,803.7737478548346,810.7560863442021,823.7383893548489
1731016102.379899,788.7501730593067,803.5771306849912,808.4791747123137,823.0773148137908
1731016102.3838024,791.6741187203945,803.38126611939,805.4315993194643,822.3762819281275
1731016102.3860755,795.2894758164746,803.1860857841851,802.3660059646137,821.661179054763
1731016102.3877058,798.7892071974937,802.9914750231524,800.2295938277827,820.9528918446628
1731016102.3916094,801.2498018692729,802.7973233123424,799.5566299967327,820.2571223605103
1731016102.3946695,802.0396391230457,802.6036350484662,800.0456465280961,819.5694869418742
1731016102.3955128,801.0890359010432,802.4106192859938,800.7421924818952,818.884004494276
1731016102.3994162,798.9630169661139,802.2186003839063,800.7810001664197,818.1977410840911
1731016102.4020455,796.7127262920819,802.0276423784594,800.0963629632452,817.5109012201553
1731016102.4033196,795.4816788688784,801.8370536589931,799.452997953541,816.8249052501916
1731016102.404955,795.9501150788409,801.6453332752083,799.7302730447831,816.1408025241038
1731016102.407223,797.8929746836192,801.451222792315,801.0860918720282,815.4588204211213
1731016102.4102578,800.202302432872,801.2558014141206,802.7457032416443,814.7786834334578
1731016102.4111266,801.5009500520716,801.0639635681343,803.5852472138262,814.1000639298915
1731016102.41503,801.0212906869136,800.8823146926952,802.9768164101735,813.422807881757
1731016102.4189334,799.1110779968715,800.7118014962614,801.1886114099859,812.7469227041413
1731016102.4228368,796.9330744172752,800.5388319779594,799.0953022070086,812.0724701956666
1731016102.423834,795.5709583411583,800.335873096402,797.5532426675486,811.399485391997
1731016102.425846,795.2655906730907,800.0834834375047,796.9711745814791,810.7279574931567
1731016102.4267404,795.3737463550077,799.8109669902651,797.2845902212545,810.0578502749592
1731016102.4306438,794.9972475636229,799.6236527546624,798.1442209877936,809.389127846511
1731016102.4345472,793.7049812829601,799.6667898363494,799.0692006415469,808.7217666752791
1731016102.4370682,791.8114714217486,800.0171868097401,799.5521340157608,808.0557517028667
1731016102.4384506,790.1405672661417,800.5985851857926,799.2567351708163,807.3910632462271
1731016102.441434,789.6006680166187,801.2489152838392,798.3000624952432,806.7276649425831
1731016102.4423542,790.9006408410115,801.8975327795033,797.3660965216405,806.0655049108595
1731016102.4427133,794.4383650488293,802.6313358609846,797.4128581036724,805.4045390894278
1731016102.4462576,800.169579485511,803.545281478555,799.0716826713033,804.7447696134136
1731016102.450161,807.3790463390608,804.5545116993875,802.1684607273775,804.0862632544549
1731016102.4540644,814.5947068683442,805.3920959380325,805.7635884954319,803.4290985108369
1731016102.4570222,819.9874399859036,805.785063696242,808.7063666103666,802.773224745602
1731016102.457968,822.2482886366271,805.6180646010876,810.2919653786308,802.1183216073811
1731016102.461593,821.4099426221075,804.9594877652617,810.5569106371978,801.4638631064306
1731016102.4618714,818.9335288296325,804.0013061476656,810.0679130079088,800.8095643381263
1731016102.4657748,816.8575078801458,803.0199722912341,809.4396580047154,800.1560689108767
1731016102.4696782,816.5428339294431,802.3679159116753,808.9528620330539,799.505197012975
1731016102.472091,817.9047600692702,802.4082449188653,808.4896900750665,798.858810363271
1731016102.4726102,819.6656717842271,803.3363133173178,807.7431147463518,798.2161080389797
1731016102.4735816,820.3756825566738,804.9655408053679,806.495080801462,797.5711985981477
1731016102.4774852,819.3795678782176,806.6626177497844,804.7746208697672,796.9148316342404
1731016102.4804718,817.0290148185426,807.5761315043699,802.8436974134215,796.2432499720971
1731016102.4813886,814.1279293896114,807.0950050952436,801.0889468462275,795.5706191029276
1731016102.485292,811.2304908608985,805.2447660466202,799.9197277577676,794.9313389700422
1731016102.4881985,808.4169057955165,802.708300745609,799.6915174138696,794.3543127745218
1731016102.489195,805.6011043264853,800.4226111455125,800.6011467183334,793.8062627507134
1731016102.493099,802.9065392009427,799.044328168284,802.5413401886212,793.1403832675308
1731016102.4970024,800.6957082069348,798.6716779968715,805.0206207886429,792.1299000487445
1731016102.4993513,799.2939983381265,798.9661117910787,807.2911358279649,790.6555983931786
1731016102.5009058,798.7369903631694,799.4797721094643,808.6840727075968,788.9932530757394
1731016102.5037866,798.7408554586247,799.8878305875551,808.9429215443582,787.9653106017713
1731016102.5048091,798.8365465365496,800.0081918913415,808.2966947316576,788.6875440319282
1731016102.5071137,798.5511479959509,799.7312519921782,807.2154533355204,791.9055365233762
1731016102.5087128,797.6091402475455,799.030660764913,806.0668302194986,797.3165551763474
1731016102.5126162,796.124733745079,798.0732574448539,804.9774494952991,803.428053532553
1731016102.5165195,794.6584935667784,797.2884409051002,804.0049756117678,808.2065587019227
1731016102.5182304,794.0249063703169,797.2599590114564,803.4209271746328,810.2134878801259
1731016102.5193746,794.9218689623092,798.4471444682637,803.7710356584736,809.5192296814389
1731016102.5204227,797.6071412673014,800.8864316492413,805.5529220874024,807.7320899927925
1731016102.5243266,801.7967828964788,804.0616737137628,808.705459961326,806.9981632221117
1731016102.52823,806.7874653452346,807.0565694367808,812.3484700622928,808.5557693141233
1731016102.532133,811.6952519129183,808.956911140781,815.103979881408,811.8622258528212
1731016102.534963,815.7027289137635,809.3094757386334,815.8918753823693,815.0028397462556
1731016102.5360367,818.2355447345426,808.3574113707577,814.6515593369489,816.1349244295899
1731016102.5371096,819.0233523963752,806.8621099218502,812.4028754096955,814.8644956851988
1731016102.53994,818.0744306917276,805.5926394783398,810.5320627664554,812.4820530273008
1731016102.5421364,815.6615861399653,804.8389888849398,809.8182964945485,810.9162344813983
1731016102.5438435,812.3625819322191,804.3314001030527,809.9570411825074,811.2968436777809
1731016102.5477471,809.0363433253949,803.6402894271507,809.9439286250381,813.2699928929253
1731016102.5505507,806.5560089512578,802.7130441657467,808.9716121508123,815.5037392994983
1731016102.5516503,805.3186236195094,802.0505360741632,807.0819374089082,816.8171189832351
1731016102.555554,804.8594506451551,802.3188797710708,805.0712730249079,816.9352661310562
1731016102.555989,803.9686591477735,803.7104096509057,803.8242385280021,816.3319199330291
1731016102.5594575,801.3791394588978,805.6446090363717,803.7146964184152,815.4761986825174
1731016102.5633607,796.6120575816294,807.1373938544319,804.5483125209566,814.2707622663364
1731016102.566139,790.3723723492939,807.5587049840009,805.9434614631725,812.1999951124916
1731016102.5672643,784.188443425726,807.1099925337157,807.6632557909419,809.0053062358257
1731016102.5711677,779.5527699519102,806.5908641228658,809.5737036016002,805.1947706072899
1731016102.5748682,777.1722289404261,806.6826861068402,811.3693793627353,801.834767576376
1731016102.575071,776.7935402519154,807.40717372727,812.4618580509573,799.7888232813
1731016102.5771592,777.5940740544443,808.2042212976586,812.2396746691098,799.1498737465748
1731016102.5789747,778.750718828371,808.4701028821067,810.5163577381081,799.3599027242843
1731016102.581727,779.7949265827442,808.0222030008996,807.7755154235232,799.754560419656
1731016102.582878,780.6325720175852,807.1225973153694,804.972540160329,799.9670460092993
1731016102.5867815,781.3639786378516,806.149157737262,803.0131806599738,799.9642728371697
1731016102.590685,782.10214839596,805.2846102071541,802.2889790935413,799.8696586998664
1731016102.5937476,782.8922642808294,804.4942065168195,802.5921251960854,799.7942913939357
1731016102.5945885,783.7212715506665,803.7465720531623,803.4145183000154,799.7737295023634
1731016102.5973153,784.5589718429819,803.2076802498416,804.3395519166484,799.7885726236691
1731016102.598492,785.3865892952218,803.1841062143264,805.2112762511144,799.8078194050113
1731016102.6023953,786.2019740631638,803.8466459109852,806.008083851037,799.8148100629809
1731016102.6062987,787.0114708575643,804.9926554661728,806.6181085040286,799.8094349770995
1731016102.6102023,787.8211229833448,806.0905748108323,806.7736227711238,799.7987493369118
1731016102.612182,788.6330823481718,806.6000968233458,806.2240574657759,799.788464659036
1731016102.6126268,789.4464988432611,806.3138559599514,804.993473044266,799.7801323051713
1731016102.6129034,790.2597788938067,805.455534829003,803.4835719919856,799.772532993264
1731016102.6141057,791.072021116148,804.4870499645199,802.3002521368206,799.7640057556902
1731016102.618009,791.8832010987123,803.8039844503309,801.8956666218794,799.7537252975502
1731016102.6219125,792.6937029523868,803.544787763707,802.2800378965347,799.7417290377792
1731016102.625816,793.5038627729479,803.6074767109673,803.0418894673252,799.7283898703442
1731016102.6284914,794.313802677463,803.7991996198476,803.6729224634048,799.7139805826127
1731016102.6297195,795.1234938073044,803.9765724180542,803.9088973656621,799.6985506309962
1731016102.631506,795.9328785967281,804.093320611885,803.8053998752782,799.682014585654
1731016102.633623,796.7419416317573,804.1690705103031,803.5676978488511,799.6642752275228
1731016102.6375265,797.5507126939923,804.2379700118992,803.3579826942924,799.6452816685089
1731016102.64143,798.3592371516132,804.3185752411442,803.2253586523359,799.6250201736542
1731016102.6440794,799.1675511396935,804.4109888746871,803.1418360426823,799.6034829530936
1731016102.6453333,799.9756786069057,804.5072708927324,803.0644856270553,799.5806562674007
1731016102.6472046,800.7836468699702,804.6009746990895,802.9710053525514,799.5565389499086
1731016102.649237,801.5915039672739,804.6903246203148,802.861962147841,799.5311683321045
1731016102.6503854,802.3993156777259,804.7766670408164,802.7474151861474,799.5046100426848
1731016102.65314,803.207128108114,804.8618552511874,802.6352186309455,799.4768816365113
1731016102.6570437,804.014911094958,804.9468091748065,802.5273663029315,799.4478424788999
1731016102.6596675,804.8225407930835,805.0314797384156,802.4220805862664,799.4171712704855
1731016102.660947,805.6298971387771,805.1154391611674,802.3170663351773,799.3845810779636
1731016102.6648505,806.4370848921637,805.1983714126112,802.2112327819757,799.3502724744299
1731016102.668754,807.2446199022212,805.280213291977,802.1046811783114,799.3152800076238
1731016102.6692646,808.0532637333094,805.3610571763044,801.9979547499482,799.2810660839918
1731016102.6726573,808.8632810042246,805.4410120869371,801.8914402183168,799.2479545202524
1731016102.6752558,809.6734335250337,805.5201336434083,801.7852084406005,799.2131421737405
1731016102.6765609,810.4808243271245,805.5984273872452,801.679143473521,799.1706197872264
1731016102.6804645,811.2829456563161,805.6758815595658,801.5731151353808,799.1156499798
1731016102.6822274,812.0818774901509,805.7524920540463,801.4670625299041,799.0533385244316
1731016102.6843677,812.8873866212914,805.8282684115665,801.3609868947299,799.0042707898191
1731016102.688144,813.712965033731,805.9032279141168,801.2549093499241,798.9951330226133
1731016102.688271,814.5612074211953,805.9773882416295,801.1488393641154,799.0280542923243
1731016102.6908438,815.4056644557525,806.0507640824791,801.0427678104837,799.0450708307162
1731016102.692175,816.1909442833698,806.1233675491231,800.9366768534464,798.9330914350735
1731016102.696078,816.875330064515,806.1952099774375,800.8305538539543,798.6164595212153
1731016102.6999817,817.5110011332711,806.2663032307463,800.7243993995014,798.220563030154
1731016102.7038848,818.2970966147615,806.3366600134204,800.6182229451894,798.1684633344105
1731016102.706432,819.4985284822588,806.4062935445093,800.512024261204,798.9983334209402
1731016102.7070231,821.1923504830092,806.4752170309313,800.4057699461673,800.8493790323754
1731016102.7077885,823.0208588136136,806.5434431759588,800.2993899479891,802.9984227237148
1731016102.711692,824.2849574879261,806.610983913772,800.1928230806598,804.0887634437912
1731016102.7155952,824.4602228248939,806.6778507022942,800.086109412509,803.1809075511343
1731016102.71725,823.6797481509461,806.7440556422142,799.9794577608351,800.7860814471528
1731016102.7194986,822.5867189186786,806.8096129981884,799.8731578612114,798.7733255580135
1731016102.72202,821.5619029109141,806.8745395433268,799.767259264619,798.95211342782
1731016102.723402,820.0836350205901,806.9388516920945,799.6611743411917,801.4030123050986
1731016102.7259023,817.0105414932132,807.0025593016705,799.5536816786687,804.0608644828458
1731016102.7273057,811.7411894742572,807.065660693174,799.4438559367549,804.1439182461005
1731016102.731209,805.2589158194248,807.1281477220534,799.332801354063,800.4213768214225
1731016102.7351124,799.9745564217902,807.190026847532,799.2247349711039,794.4361612208631
1731016102.7376082,798.259884007641,807.2513467939086,799.1249821661432,789.5683357631727
1731016102.7390158,800.7902504514865,807.3122013345259,799.0337020367631,788.6388363342977
1731016102.7429194,806.102957869473,807.3726701448494,798.9387981371109,791.9752825771434
1731016102.7447815,811.7581388968092,807.4327015445688,798.8172353580612,797.4221085034499
1731016102.7468228,816.0653032503413,807.4920304912919,798.653986837956,802.1547145043036
1731016102.7507262,818.8689572805574,807.5502977928018,798.4744153760901,804.7756289298005
1731016102.7522726,820.8374379871941,807.6074641551245,798.360716944922,806.0743781383229
1731016102.7531962,822.1460433102451,807.6643082641514,798.4070078161362,807.96889215444
1731016102.7546296,821.9689482111899,807.7223962847037,798.5958076105431,811.5892692480438
1731016102.7585332,819.2972682219187,807.7828658433765,798.6676779387296,816.1243190892761
1731016102.7624366,814.2144482723209,807.8442193132582,798.1535984524165,819.4101240320758
1731016102.763661,808.2969364082313,807.901019267084,796.7047847020058,819.7782839822299
1731016102.76634,803.7061052944342,807.9465767309832,794.5764984837459,817.6017861283069
1731016102.7687843,801.8217376719695,807.9810131297398,792.7982686570368,815.2225553366923
1731016102.7702434,802.615796922969,808.020080721825,792.665934015392,815.3143359505627
1731016102.774147,805.1198680928329,808.0928516726002,794.8157059484209,819.0171751679925
1731016102.7780504,808.2998957642714,808.2166419539502,798.6527593087209,825.2681586569446
1731016102.7819538,811.4909315257349,808.3547257371469,802.6802234106912,831.656394400764
1731016102.78254,814.2603265493528,808.3933327376371,805.4946929240026,835.9177881466007
1731016102.7843726,816.2138837543531,808.1903362919038,806.644598758356,836.9257215695585
1731016102.7858572,817.1104154222675,807.6996188324647,806.7030151329401,834.7730147571832
1731016102.787295,817.0664157830404,807.0617373582186,806.5965032234516,830.3640038299397
1731016102.7897606,816.4941418283512,806.5169573926386,806.8149165431348,825.0374002577787
1731016102.7936642,815.8158476358574,806.1789380305746,807.1343304995714,820.2691484931507
1731016102.7975676,815.251579035065,805.9201086646611,806.9927153588088,817.2272087719429
1731016102.7999606,814.8155937381136,805.5351708433581,806.127355228719,816.2356001973247
1731016102.8014195,814.4308202351459,805.031035270582,804.9234612567592,816.6053797952331
1731016102.801471,814.0310288445176,804.7255518044376,804.1968589140886,817.1688158609634
1731016102.8053744,813.5966424686176,805.0070225893493,804.5838370996179,817.2098573819212
1731016102.809278,813.1405459396086,805.938292533451,806.0011593601614,816.9908049088261
1731016102.8131814,812.6815621129647,807.0737095031743,807.5831308765468,817.3321958966542
1731016102.815549,812.2292946720956,807.7051886788605,808.1617438359183,818.5666288630852
1731016102.8170848,811.7833581424566,807.3703722668669,806.9765783908394,819.8550064096703
1731016102.820299,811.3392829936803,806.193707847511,804.1453962784459,819.6188504157453
1731016102.8209882,810.8936034324637,804.7660557088674,800.5979431581223,816.8235980141443
1731016102.822318,810.4454160299504,803.6904779479867,797.5500680135655,811.9810617182476
1731016102.8248918,809.9954480527475,803.2153394744685,795.9001919748983,806.9221417348836
1731016102.8287952,809.5446377739001,803.249300111099,795.9353196090885,803.524588675349
1731016102.8311367,809.0933920136223,803.6517865090705,797.4428609545514,802.5537827129929
1731016102.8326986,808.6415982419394,804.4398889418219,799.9996740995009,803.5827355384466
1731016102.836602,808.1889529021563,805.6946730189668,803.1450939127253,805.819589340703
1731016102.839178,807.7352205688879,807.3070174717604,806.3696456239621,808.8196658418151
1731016102.8405054,807.280302881033,808.8809760736324,809.0966506047888,812.3690267297948
1731016102.844409,806.8241852248976,809.9299440486262,810.8320787158768,815.8650421068255
1731016102.846725,806.3668657336827,810.1729402064666,811.4308684419132,818.1017527918654
1731016102.8483124,805.908317979046,809.6306727187273,811.2350345164805,817.89186154547
1731016102.8522158,805.44848214819,808.4480072138349,810.8868046760066,814.995513651804
1731016102.8561192,804.9872637348292,806.6751938812686,810.878838612373,810.4353690694684
1731016102.8573408,804.5245387954013,804.2861316447629,811.1601356093727,805.8636762240665
1731016102.8580573,804.0601873347956,801.4449343317979,811.143019169601,802.5651493892993
1731016102.8600228,803.5941656599902,798.7333944552561,810.1796838120081,800.9541628140742
1731016102.862313,803.1265732066188,797.0357757836537,808.173373275271,800.8198579340374
1731016102.8639262,802.6576071676923,797.0739331446405,805.8050894026039,801.8177701523108
1731016102.8678296,802.1873164626937,798.9196987217726,804.1185887403536,803.6191519431306
1731016102.871733,801.7152430144829,801.8716408151344,803.7525199626078,805.693247181038
1731016102.8756366,801.240321943478,804.8153363774175,804.4552438534064,807.182522349591
1731016102.8769364,800.7615304798405,806.8287189869059,805.3004266561492,807.2051807334493
1731016102.8779013,800.2793366843891,807.6348085006188,805.404533975606,805.403044384845
1731016102.87954,799.7969034239392,807.6296847222487,804.5164384063386,802.2481283725352
1731016102.8834434,799.3189725832299,807.4974122312627,803.0194980782254,798.8160632263945
1731016102.8873467,798.8469738675298,807.6808293992142,801.4620454041129,796.186777435161
1731016102.8912504,798.3724596207096,808.0695478406211,800.1266505944842,794.9111164535652
1731016102.8923635,797.876187155042,808.1315967947496,799.009837874581,794.8808797030201
1731016102.8934894,797.3416690496846,807.4091519926209,798.122894027124,795.6005494435896
1731016102.8951538,796.7826694976404,806.0129319125132,797.7289922334389,796.5867154085845
1731016102.8958158,796.2631252273909,804.7022056539851,798.2486480876819,797.6043523209651
1731016102.8990571,795.8703286105645,804.4037493313258,799.9127390724307,798.6336696641171
1731016102.9029603,795.6178820219303,805.4569799658329,802.4693675799695,799.6667786530318
1731016102.906864,795.3248753701116,807.1669677901748,805.188221102498,800.5337750280644
1731016102.9090774,794.610887656725,808.118840685536,807.1618834954123,800.9217683656424
1731016102.9107676,793.1538884898788,807.1489713253482,807.702242634692,800.5957787042478
1731016102.9146707,791.1423153917402,804.2750117179087,806.6088047993185,799.6438946259501
1731016102.914695,789.4807303273614,800.808018736263,804.2141120736718,798.5137933864445
1731016102.9185743,789.2910946371616,798.481923915339,801.2535820843364,797.7731647209841
1731016102.9224775,790.9686461321851,798.2619921149578,798.6509336552407,797.7758153478792
1731016102.9246657,793.7585807652757,799.7816341311235,797.2633926439496,798.4977470415106
1731016102.926381,796.3951663042411,801.8111685913492,797.59793265665,799.6412029387669
1731016102.9273863,798.1452691244228,803.2754177809244,799.5660013824561,800.8661592562437
1731016102.9302847,799.1348066617365,803.9281025793518,802.4322614177262,801.9328210404134
1731016102.9335744,799.6893511321442,804.2043999222013,805.088618919212,802.6836415717203
1731016102.934188,799.5748737889129,804.560093501041,806.584113457923,802.9981216289628
1731016102.9380915,798.1570257801035,805.0041860807501,806.5999027158061,802.8864670707721
1731016102.9402535,795.4334344037082,805.2244323139413,805.527379274266,802.6790818395483
1731016102.9419951,792.7842884717603,805.075029842641,804.0925682329216,803.040747543824
1731016102.9458983,792.3794654424621,804.8733705770852,802.8544400778884,804.6154932428522
1731016102.949802,795.4762322464045,805.1925899210048,802.0063424999485,807.4982658907446
1731016102.9524536,801.0590683164244,806.3456015326926,801.5871492833295,811.0120335291244
1731016102.9537053,806.15708360168,808.0458207542647,801.7738262263425,814.06469239543
1731016102.9558418,807.7740685197996,809.5671635596833,802.8519697440764,815.8317877331476
1731016102.9576087,804.9740696295953,810.2883918744295,804.8491414969361,816.2082330509492
1731016102.9615123,799.5317174976468,810.1819199084498,807.2481639457927,815.7024263311878
1731016102.962409,794.7274650091964,809.853759781503,809.1760716989401,814.9528377128765
1731016102.9654157,793.2572771713393,810.0938781002549,809.9806728904713,814.3221750817088
1731016102.969319,795.7115783482809,811.259294218182,809.6765563318008,813.8413911832097
1731016102.9713328,800.4640905962193,812.9275416695904,808.8413528517868,813.385586522363
1731016102.97143,804.7942271750244,814.0777438390746,808.075133402419,812.7928896341919
1731016102.9732225,806.4265053901041,813.7105891109056,807.5430976282279,811.82435031983
1731016102.977126,804.6366121918849,811.5100105111031,806.9976844634771,810.1328214769167
1731016102.9810295,800.4270051595023,808.0842758948245,806.1821629154427,807.4229258513168
1731016102.984933,795.775694878771,804.600551499603,805.1705570699896,803.7397262814052
1731016102.987018,792.4509870764821,802.0817236835421,804.3164361690899,799.6243507733819
1731016102.9888363,791.1238475088539,800.8875838118644,803.8973726715959,795.9503021289771
1731016102.9902122,791.2793623399577,800.7102883085221,803.8296200253975,793.5192816347771
1731016102.99274,791.8518195804457,800.9637006188841,803.7438418407659,792.6848695808001
1731016102.9966433,792.0348662637157,801.1783528566825,803.3701314441497,793.2249954006559
1731016102.9974318,791.6984036603868,801.1428892345568,802.8884504957186,794.4766219127423
1731016103.0005467,791.2242968967879,800.8459363732055,802.9051011106222,795.5950157949187
1731016103.0026062,791.0238965368413,800.4146404561197,804.0272299077197,795.8275455089897
1731016103.00445,791.1990000346468,800.1142475480733,806.3696834184731,794.7858528150844
1731016103.0083537,791.6185439076029,800.283188053008,809.4009092602993,792.6734707600547
1731016103.0090914,792.2540925062477,801.0946704189084,812.2301050908799,790.3118890139923
1731016103.012257,793.3433619135394,802.2733834380025,814.0657250440889,788.8413537509522
1731016103.0161605,795.1474022983701,803.083990155001,814.5162982045373,789.2152881628615
1731016103.0181944,797.5618322396908,802.7664658944278,813.6540842193652,791.7900387299735
1731016103.020064,800.0637022859332,801.1724841014116,811.9599739320271,796.2028992704433
1731016103.0239675,802.1147698892831,799.0613940572277,810.1997330803999,801.4890988795569
1731016103.027871,803.6005709648492,797.7015683843745,809.1510380829429,806.3251856617233
1731016103.0279708,804.8230873255048,797.9888041746073,809.1942019116337,809.4027713193237
1731016103.0317743,806.0690257891173,799.7389187381832,810.0260975917423,809.9484234448241
1731016103.0324545,807.2442464571922,801.7310209803172,810.8073544024403,808.1975744166102
1731016103.0337825,807.9631380743764,802.5266778481191,810.7455305946021,805.4515736931342
1731016103.0356777,807.9664073493041,801.4999212327502,809.7091214035794,803.5002716923091
1731016103.0395813,807.4132598032755,799.3289437934026,808.372620845492,803.6513205679336
1731016103.0434847,806.7869153317839,797.567336153615,807.7458375398551,805.992388800331
1731016103.04685,806.601324860809,797.5772634017965,808.4442067028341,809.4328243793736
1731016103.047388,807.27396382237,799.5819952349935,810.2591189772797,812.5123618900847
1731016103.0493703,809.2273705427531,802.516910354849,812.3184790285278,814.3557851162943
1731016103.0512917,812.8639093147631,804.7746320771964,813.6537756750762,815.0189377825658
1731016103.0551949,818.0933587795406,805.2827989512532,813.7274969701803,814.9731281991318
1731016103.0590985,823.676499451675,804.1202089516257,812.5938588510294,814.2395698355741
1731016103.063002,827.1577554341916,802.2615554176238,810.6927739458533,812.0636312555849
1731016103.0649586,825.8857906075679,800.7456066392331,808.5193275546562,807.5964357145203
1731016103.0657291,818.6530000082575,799.9910328456737,806.4154780959071,801.082817204548
1731016103.0669053,806.751371849877,799.7646576469285,804.5591263406254,794.3971610912182
1731016103.0674772,793.5436429640903,799.6730592319964,803.0546511375846,790.1722611062861
1731016103.0708086,782.7856726893044,799.6218677597598,801.9894327361467,790.0394693429914
1731016103.0747125,776.8871112370703,799.8350837298902,801.4033762951918,793.4671396211533
1731016103.0786157,776.2130683709144,800.5173016961315,801.2150436552719,798.27023616297
1731016103.0805469,779.5586590784706,801.5593042553239,801.1795156822915,802.33325953648
1731016103.0825193,785.0699908450096,802.5837851857741,800.933832932699,804.9717033253235
1731016103.0846086,790.9217530411179,803.2854400749873,800.1545339502701,806.8319635911618
1731016103.0864224,795.6986327101425,803.7658352668336,798.7927947840615,808.7519211001793
1731016103.0903258,798.7394411220271,804.5659466705508,797.2512635695632,810.9142794972657
1731016103.0942297,800.3719518387219,806.3187000856698,796.3094641780763,813.0420152030853
1731016103.096135,801.6510276031788,809.2285208511996,796.7195708042749,815.1147890223878
1731016103.0981328,803.5456639703849,812.7482589495737,798.6620071293748,817.5732596785487
1731016103.1020362,806.175006786884,815.7311261886621,801.4506581728012,820.6878714205507
1731016103.1025,808.8038224133469,817.0178214797071,803.7848194537974,823.8022735353097
1731016103.1034875,810.622541737381,816.0951163359059,804.4684524553514,825.3694954918898
1731016103.1059396,811.5597805038711,813.385994071986,803.1334139304349,823.9123469869539
1731016103.1098433,812.3375512166969,809.9830720010513,800.4449332219434,819.1297976598793
1731016103.1117227,813.72311085959,807.036843549865,797.6348239784159,812.2436692512256
1731016103.1137466,815.707010840417,805.2400230476816,795.7315849969084,805.373879936351
1731016103.11765,817.3922623104038,804.7154126183013,795.0805149242216,800.5024579912885
1731016103.1215534,817.6865521067125,805.2465889002843,795.4492413267558,798.7428084316703
1731016103.122367,816.1423125077129,806.5409292405382,796.4729820073712,800.1750342687071
1731016103.125457,813.2072881870313,808.3016804510715,797.945165457017,804.011863154269
1731016103.1273112,809.7624955133082,810.1671344584864,799.7307063294044,808.8106893668996
1731016103.1293604,806.476551022144,811.726474993648,801.536014202882,812.7659026317992
1731016103.1332638,803.5595368743358,812.7010778615675,802.8977354095992,814.2845264226826
1731016103.1371672,800.9906389075417,813.146866195182,803.4472676514105,812.738300512287
1731016103.1375227,798.8173472843177,813.4447213939437,803.1662903446627,808.8334918062241
1731016103.1410708,797.155258945642,813.9994697123774,802.3661016574449,804.1228405217581
1731016103.1412463,795.9422163683652,814.8356892212668,801.4396476796181,799.9278145977336
1731016103.1428993,794.811643049567,815.4292572844735,800.6567196704882,796.5912156734012
1731016103.1449742,793.3163234135077,814.989852984077,800.1671582654814,793.7314217696866
1731016103.1488776,791.3287495078504,813.0573610025336,800.1108566157958,791.1799707026346
1731016103.152781,789.2303070128261,809.957869619982,800.6281845816438,789.5839311077717
1731016103.1566844,787.7142255626305,806.6960522739251,801.7199947500569,789.9960762912382
1731016103.158487,787.4080080305297,804.2994841099584,803.1219303205748,792.8059924271755
1731016103.1601255,788.6276078251042,803.1279891207992,804.3821096408258,797.0380831876126
1731016103.160588,791.3316028799601,802.7312862468103,805.1334103006801,800.7235896187966
1731016103.1644914,795.1263389274274,802.36663872908,805.3393881796618,802.0981756456138
1731016103.1683948,799.2787267560471,801.7066953453021,805.2905661570226,800.6872496927755
1731016103.1722982,802.9021839834271,801.1314665910082,805.3469899161037,797.4862796535556
1731016103.1725454,805.3798823189378,801.4084747862657,805.6510769160692,794.2034083064714
1731016103.1740756,806.7250143718637,803.0860503271593,806.0502496213755,792.2041195618611
1731016103.1762018,807.4631292555028,806.0780426074397,806.2621896404647,791.8729804750583
1731016103.179005,808.0257920290189,809.6659080024668,806.09239391229,792.6591559062242
1731016103.1801052,808.171155751552,812.8238475167001,805.4894222354511,793.5696224348851
1731016103.1840086,807.0020064830852,814.6489390401382,804.4191779690271,793.7079580911198
1731016103.187912,803.654187878774,814.7116485445026,802.7585497177283,792.6388401023488
1731016103.1896636,798.1556031748642,813.1911724984295,800.4096767252968,790.5840879897396
1731016103.1918156,791.7943818862583,810.7253819044975,797.582790687272,788.4527694187474
1731016103.195719,786.6657553400361,808.0565048065755,794.9444796982004,787.5675706859106
1731016103.197884,784.6232396354088,805.7144607322941,793.3882378061868,789.0222269651891
1731016103.1996224,786.2774216430311,803.9577032875245,793.542903169592,792.9725808443111
1731016103.2035258,790.6963578964472,802.9504400123716,795.4155280137692,798.4106531222194
1731016103.2052517,796.026800036619,802.9265201643138,798.4475941152716,803.692800018432
1731016103.2074294,800.6323736529171,804.121951941047,801.8745189525123,807.4836550898045
1731016103.2075682,803.9659876038891,806.5143439940883,805.0469163504233,809.4343371075324
1731016103.2113328,806.570290328023,809.6148101912572,807.517798047759,810.1421843191417
1731016103.2152362,809.2515811936746,812.52371886887,808.9986875753907,810.495634287517
1731016103.2167633,812.1213060037611,814.2578905694846,809.3792796799861,810.9459537767659
1731016103.2191396,814.3083268732253,814.1803930288834,808.8264191241404,811.2773600054128
1731016103.2208395,814.5847290084757,812.3134744391501,807.7932667874421,811.0287652869425
1731016103.223043,812.3679687109893,809.3637756618054,806.8166692323518,810.1203239516957
1731016103.2269466,808.2434826570454,806.4082159729996,806.2019188100218,808.993673774593
1731016103.23085,803.5910716866069,804.3742076412647,805.8412701960964,808.0488778612009
1731016103.2347534,799.6945491984084,803.6120621029594,805.3343707539075,806.9837442040506
1731016103.235643,797.1182457017106,803.8328451086783,804.3462344045728,804.902208906336
1731016103.236428,795.7852921325152,804.4260945655884,802.9427345161616,801.3238712691599
1731016103.2386568,795.4893874458579,804.8861319919363,801.6361650720785,797.1835010679438
1731016103.2425604,796.2398190329146,805.0360662897571,801.0741384912351,794.6982818443314
1731016103.242591,798.155634697454,804.9664543672803,801.583623278603,795.929886194544
1731016103.2464638,801.1588870668618,804.842781535562,802.9183326298023,801.1049903102605
1731016103.2503672,804.8565487869191,804.7665714885156,804.4066526005186,808.0949820732208
1731016103.252016,808.6515124289862,804.7507655201948,805.3601806527262,813.5618919767188
1731016103.2542706,811.7992261539484,804.7629001184647,805.3923241428387,814.9616263022309
1731016103.2545218,813.3044386433319,804.7715195299365,804.4333122830669,811.9975600733769
1731016103.2581742,812.0103008018859,804.7653273245211,802.567733612633,806.644846660357
1731016103.2620776,807.2480412412802,804.7487673401017,799.9778892178178,801.9208925444558
1731016103.265981,799.7391916993188,804.7302714231994,797.071158747972,800.2702218702766
1731016103.267604,791.8201961979178,804.7147103563486,794.5610515350979,802.4242937898557
1731016103.2698843,786.4229595751256,804.7023722216333,793.2516477298774,807.1921932927768
1731016103.2734013,785.4264000797851,804.6913860397486,793.5891934035386,812.2119401540806
1731016103.273788,788.7148199685871,804.6801123254597,795.339812238393,815.2991512103664
1731016103.2776136,794.6472200204829,804.6680258715083,797.6976157485818,815.6447093087546
1731016103.2776914,801.3130386089058,804.6553989185401,799.7717152616402,814.0504280455119
1731016103.2815948,807.3938172216796,804.6426666924302,801.085330732922,812.0530534157439
1731016103.2831924,812.1836039303287,804.6300528631075,801.7249153296899,810.7556728331352
1731016103.285498,815.3093338394197,804.617540760933,802.0830489085615,810.3409993866085
1731016103.2894015,816.7192087839485,804.6050112034877,802.4689282439473,810.3982454290976
1731016103.2922804,816.7971161829562,804.5923658270585,802.9206774482774,810.4776399921931
1731016103.2933052,816.2086311190396,804.5795671361636,803.306402385271,810.3805308967054
1731016103.2972083,815.5340258493761,804.5666177420478,803.5238536918741,810.1360767367653
1731016103.2987804,815.0388936360381,804.5535264452409,803.5883137804134,809.8517798526665
1731016103.301112,814.715137160299,804.5402898655979,803.5842261210287,809.6012308148602
1731016103.305015,814.4510542246329,804.5268922425399,803.5846426880797,809.3973529212869
1731016103.308919,814.1631521901859,804.5133131793477,803.6158613322536,809.218907833755
1731016103.3111596,813.8332186592947,804.4995339722273,803.6688856724949,809.0432654085539
1731016103.3126364,813.4828284254843,804.4855393854505,803.7255737657586,808.8613685433236
1731016103.3128223,813.1373177372099,804.4713163687794,803.7753221935443,808.6756873839255
1731016103.3143685,812.8078810967918,804.4568522706991,803.8174394385678,808.4921379008276
1731016103.3167255,812.4926894433381,804.4421339599126,803.8559444186311,808.3144549690057
1731016103.3206291,812.1855002393899,804.4271478945467,803.8943784551143,808.143136067809
1731016103.3245327,811.882112668836,804.4118805637122,803.9338709140216,807.9770094530661
1731016103.328436,811.5818647299636,804.3963188213048,803.9738140296274,807.8149505000915
1731016103.3299568,811.2860642667581,804.3804499728576,804.0132382198625,807.6565892803682
1731016103.330039,810.9960826179183,804.3642617097603,804.0516293561367,807.5021424090332
1731016103.3323395,810.7124944327148,804.3477420265922,804.088995576961,807.3519735322405
1731016103.336243,810.4352046202313,804.3308791903013,804.125569803759,807.2063117816209
1731016103.3401463,810.1639202502218,804.31366175821,804.161541549133,807.0652140263547
1731016103.34405,809.8984758382669,804.2960786128662,804.1969688872947,806.928655479947
1731016103.3455448,809.6388923437013,804.2781189893026,804.2318228658932,806.7966188419961
1731016103.347659,809.3852848455496,804.2597724887639,804.2660610950138,806.6691270979592
1731016103.347953,809.137762882407,804.2410290846328,804.299667889134,806.5462316066756
1731016103.3489182,808.8963899256054,804.2218791277003,804.3326549254573,806.4279884199772
1731016103.3518567,808.661193555927,804.2023133540629,804.3650444791828,806.3144443329862
1731016103.35576,808.4321909516873,804.1823228952094,804.3968556172767,806.2056357803249
1731016103.3596635,808.2094048658988,804.16189928855,804.4281003227857,806.1015938403065
1731016103.3611329,807.9928654912999,804.1410344872087,804.4587864241262,806.0023486461082
1731016103.363567,807.7826053890655,804.1197208689068,804.488921748878,805.9079308335887
1731016103.3674705,807.5786552384994,804.0979512442702,804.5185161742376,805.8183710930089
1731016103.3677976,807.3810430838921,804.0757188647538,804.5475811159939,805.7336995834204
1731016103.371374,807.189794984741,804.0530174300171,804.5761276010497,805.6539457222409
1731016103.3752775,807.0049336481792,804.0298410945127,804.6041646122321,805.5791374513694
1731016103.376721,806.8264742192878,804.0061844735653,804.6316994462672,805.509299030458
1731016103.379181,806.6544213265438,803.9820426500377,804.6587410702122,805.4444482604974
1731016103.3826818,806.488774801534,803.9574111828606,804.6853050689249,805.3845966854367
1731016103.3830843,806.3295476832417,803.9322861171676,804.7114151864967,805.329756777299
1731016103.3866768,806.1767863357217,803.9066639925112,804.7370949790887,805.2799550712597
1731016103.3869877,806.0305658180463,803.8805418431865,804.7623487733047,805.2352400008244
1731016103.3908913,805.8909341953153,803.8539171876904,804.7871454396742,805.1956658931058
1731016103.3923092,805.7578190218763,803.8267880156441,804.8114322317418,805.1612446731947
1731016103.3947947,805.6309818596004,803.799152794701,804.8351983830297,805.1318926097732
1731016103.398698,805.5101507442557,803.7710105202073,804.8585619812067,805.1074429305668
1731016103.4026017,805.3953741099758,803.7423607978601,804.88178470389,805.0877933407328
1731016103.405556,805.2873754329131,803.7132038881001,804.905097304279,805.0731529334648
1731016103.4065049,805.1873939891293,803.6835406014685,804.9283384877044,805.0641613804022
1731016103.4078972,805.0960615267544,803.6533720032552,804.9506845873054,805.0615376804366
1731016103.4104085,805.0116689464317,803.6226991070963,804.9709834391036,805.0651449947302
1731016103.414312,804.929533554549,803.5915229909356,804.9890085754527,805.0730564089595
1731016103.4177046,804.8448467007079,803.5598457290685,805.00703132697,805.0819809396301
1731016103.4182153,804.7594791621074,803.5276718692862,805.0298471252205,805.0902349362929
1731016103.422119,804.6881017188717,803.4950090315929,805.0611670186715,805.1023160496508
1731016103.4234853,804.6538159552106,803.4618655929011,805.0967977768369,805.1305569043016
1731016103.4244354,804.6657344504231,803.4282449572293,805.1202627888299,805.1875820348542
1731016103.4260223,804.6871655115419,803.3941402099636,805.1104619573639,805.2683378440069
1731016103.4299257,804.6282144309398,803.359537434643,805.0661887937505,805.3339998693322
1731016103.4338293,804.4060252794012,803.3244343590163,805.0341743775766,805.323681921012
1731016103.4377325,804.0750611023003,803.2888675559936,805.1044104858806,805.213929908969
1731016103.4390736,803.9316923859504,803.2529200017416,805.335656554177,805.1032846804056
1731016103.441636,804.4092773268166,803.2166719418199,805.625303351464,805.2334157655212
1731016103.4433146,805.6454230993006,803.1800912813131,805.6343333705031,805.8391101630701
1731016103.4455397,806.9374388065459,803.142942608036,804.9353204920322,806.8446747473592
1731016103.4494429,806.7222095226012,803.1048718112653,803.4204171180537,807.6731627510685
1731016103.4527273,803.5789843351508,803.065776211839,801.6625496913504,807.5251375884309
1731016103.4533465,797.7077687442188,803.0263008803389,800.7386201979887,806.1154138633549
1731016103.4546616,791.4119810421116,802.9879070343015,801.4444133078964,804.2562943438328
1731016103.45725,787.7599707726501,802.9518454306701,803.534300391419,803.5662473975556
1731016103.4611533,788.3985407995613,802.9170745753645,805.7289109181091,805.3016630873145
1731016103.462194,792.4096998559954,802.878750354189,806.5671102545784,809.2291324831226
1731016103.465057,797.122668026194,802.8302409045403,805.4430110574829,813.5965075661917
1731016103.46896,800.0435146576356,802.7704147054546,803.0235548898088,816.3790774947943
1731016103.4702497,800.300699382639,802.712604311996,800.7479215886852,816.8548267486373
1731016103.4728634,798.7197708945208,802.6844441013119,799.8278636831428,816.2301956827422
1731016103.4767673,796.865909078965,802.7067307226409,800.5177759007433,816.7886865296891
