timestamps,eeg_1,eeg_2,eeg_3,eeg_4
1731139312.3654351,856.9671355590615,795.147923227668,856.2769333698268,825.8121665610996
1731139312.3843331,877.3236111578367,794.7634093459599,871.3207393825267,834.329321645422
1731139312.4032311,859.3894728067311,795.8809925011067,859.6710272055706,827.0812177513393
1731139312.4083664,793.3828200355031,799.2247084207505,813.2821712800725,799.2026325012641
1731139312.412267,707.0710523626399,804.2950236913142,749.3426293971098,760.2922453701742
1731139312.4161673,647.5399553776595,809.4342350787205,699.5573399924641,727.7835593013688
1731139312.4200678,646.6539776550594,812.3823133581639,688.1222781643693,714.2980149479058
1731139312.4214156,695.5261982997898,811.1597398905975,713.6676471217879,718.3504822824506
1731139312.4221292,749.743223719761,805.0076586620295,749.5337087821275,726.1505823656819
1731139312.423968,763.9745157431859,795.0057954586233,763.733450475845,723.606416291333
1731139312.4278686,728.9017033162698,783.9515665977227,743.8120203148909,708.6374475365509
1731139312.431769,678.645494557127,775.3183969465632,706.4139860885969,692.9354275240297
1731139312.4356694,660.6719657281284,771.6604980028067,682.9731825636486,691.2518267467422
1731139312.4370005,693.5324692457501,773.3304800270557,692.9682550181716,707.594843247028
1731139312.4395697,750.0511519459267,778.3218854399829,727.4473409830497,730.8712275921052
1731139312.4410272,781.6300525179356,783.3843091222725,757.3750328226664,744.1784999721797
1731139312.4434702,762.1518347424202,785.7842971186936,759.897523274091,739.6068344689879
1731139312.4473703,711.7029216160886,784.7320233092397,739.2061727920503,725.3603617565376
1731139312.4512713,678.2537106657886,781.6949277932081,722.4458620815024,718.8165197837259
1731139312.4525847,693.6533047587671,779.4143578398152,733.3196176519374,731.6102046941128
1731139312.455171,744.1810361665562,780.1831860876451,767.6520402867768,759.8275386751255
1731139312.459072,783.1951688287064,784.4500960025238,795.2571826789643,787.7744597271635
1731139312.4599252,774.8099922146297,790.6454115758598,788.3970955678059,801.6835131754948
1731139312.4629722,728.1029075804739,796.25265614362,750.2828228253168,800.9151960878339
1731139312.4668727,689.1787733712995,799.2677508520067,714.5197792076823,796.6822644800089
1731139312.4681697,697.6362841019751,799.0876312259275,713.451510231433,799.9898494219337
1731139312.470773,748.2600452078887,796.5267266596348,745.0997559135876,810.6059430459096
1731139312.4746735,794.7466712728353,793.275878084278,772.3843168435088,817.7493773317962
1731139312.4785738,792.648323528477,791.172203605498,758.0757940921012,811.6788328254657
1731139312.4788232,741.2162351138093,791.4572934608109,703.1038194039071,794.6291183434554
1731139312.4824743,684.7358406116844,794.236436096042,650.4901436214762,780.1221224698483
1731139312.483754,672.22897695943,798.4715803575856,648.9270357255632,780.943895146631
1731139312.4863746,713.1784130573387,802.6204892576326,708.6590878496074,797.0079941302919
1731139312.4902751,769.9240507739114,805.5422049700794,790.5411529513065,814.5874205789628
1731139312.4941754,792.8924303363181,807.0496060051761,838.806304480235,818.0115185176087
1731139312.4977212,765.564915606652,807.7742805012161,827.7536578152276,803.5608981037933
1731139312.498076,717.9609586808056,808.5248944475588,780.213375170551,783.1394809174238
1731139312.4993386,697.1089981721153,809.6156796223216,742.6284582716818,774.2329840813635
1731139312.5019765,722.7020114939191,810.5711832498928,741.9054147905845,784.836951687033
1731139312.5058768,769.2786096132912,810.3505991939123,764.5317997016369,806.6624734057707
1731139312.5097773,791.0030161249124,807.9779986434676,775.212796914119,822.6827426547833
1731139312.5136776,765.2874765105742,803.2620872597672,754.1014776836835,822.2576760438701
1731139312.514923,714.3082561023427,797.1614939704021,715.6023443149822,810.2502805350697
1731139312.5166192,684.5356059849237,791.4497363607343,691.8775186361135,802.0201750645161
1731139312.517578,703.5343980918096,787.7764012766548,699.3334497657294,808.9734395049865
1731139312.5214784,754.1169760260292,786.7567910627306,722.1054576813891,827.8180289655353
1731139312.5253787,789.6733706668654,787.806185424449,728.7474279388568,843.2211135278405
1731139312.5292792,776.4930637131812,789.8411399408637,705.2960142985676,841.3909509677588
1731139312.5305078,724.191485710108,792.1983600058223,671.7314476804813,822.2328540455007
1731139312.5331795,676.8716095624794,794.9418710439807,664.9035000889598,799.1441182422285
1731139312.5355172,674.5469773602558,798.3320704761901,703.51977281139,786.9496720581797
1731139312.53708,721.2709544477424,802.0206515736451,768.3873633551941,789.3345629207463
1731139312.5409803,787.2997424165537,804.7848758575893,816.9848391157932,797.2415237500846
1731139312.5448809,837.8791197846808,805.1489213432471,819.4035452284049,799.0558860725264
1731139312.5460925,858.3166091153967,802.4795996040051,783.1829284243804,792.2516167162918
1731139312.5487812,856.0281956510568,797.6853525142224,745.2984663520804,785.2093475269988
1731139312.5526817,846.4518318500794,792.863148936478,739.5112631744627,787.8911849563846
1731139312.5544152,840.1363524699508,790.0328162083789,768.4538833661675,801.0688316484162
1731139312.556582,839.3633861397706,789.88017894375,803.9444396999361,815.0572117524678
1731139312.5604825,841.573806951658,791.4947123482442,813.2183742214132,819.2963639977289
1731139312.5616772,843.7718164587855,793.2876943915691,786.9353537815325,813.1882036198787
1731139312.5643828,844.6604308753543,794.2864377253749,745.2386308733998,807.1179419573969
1731139312.568283,844.4880324945193,794.7275118089145,718.5811615564611,812.1306089781575
1731139312.5721836,844.013619232028,795.5647578396574,721.6858409735854,828.0806126121839
1731139312.5733132,843.7419595361047,797.4938404256193,743.5352848451533,842.0870590741598
1731139312.576084,843.7533629944365,800.4327737760987,760.8980779803093,839.5682609775284
1731139312.5772617,843.895624345212,803.8021942509438,761.7546805006231,817.9834229283213
1731139312.5799844,844.0117778679128,807.0877276149514,756.6148037099356,790.3435544331229
1731139312.583885,844.0409561690028,809.9798695442128,767.2078123107092,774.7175886909445
1731139312.5877852,844.0016916887996,812.0546580462864,803.0746973865014,778.9051330067916
1731139312.5916858,843.9351290700298,812.6522222786366,848.3416490719951,794.068271882695
1731139312.5922112,843.866502039001,811.4305946544374,872.4930947401558,803.084232055535
1731139312.5928464,843.7985460771662,809.1578972665664,857.3157856865537,796.1539855244014
1731139312.595586,843.7227524208719,807.7427951751883,816.5022008750566,779.8130273578711
1731139312.5994866,843.6312220240867,809.0617710030804,789.0390305997863,771.4146237799371
1731139312.6033869,843.521304925054,813.3442293901954,809.2382588881995,783.8491914782077
1731139312.6072874,843.3942020987113,818.4954976548016,876.865304182421,813.6458713766596
1731139312.6074152,843.2519279866572,821.1146864268705,952.5818553846686,842.711332687893
1731139312.6084309,843.095707580513,818.6457086760305,984.7321979652534,852.5059921022975
1731139312.6111093,842.9262521789449,811.2049642606493,948.4165067427258,839.1008552827931
1731139312.6111877,842.7445966967706,801.805426194446,866.5585543742873,816.70173473059
1731139312.6150882,842.5519109094538,794.740783066591,794.7715939835149,806.4704433770017
1731139312.6189885,842.3477648447982,793.0936020900169,779.6655908634784,819.5116133124745
1731139312.622889,842.1282548298253,796.9347287542047,823.0330744531224,848.0350718305631
1731139312.6240156,841.8870387020145,803.3661833540826,881.9639348177594,872.2452889601443
1731139312.626789,841.621641972655,808.355859031869,905.968264374345,877.2615788474851
1731139312.6300073,841.3426468170649,809.1473582033935,879.9032730515727,865.6341818183204
1731139312.63069,841.0760551724511,805.7186574750418,835.4670512935115,854.7534774634777
1731139312.63459,840.8462865161753,800.4707785340739,821.3583301757084,861.5130320746148
1731139312.638491,840.6388728846713,796.5022130767477,858.7831552854741,887.4050782951822
1731139312.6396005,840.3701986590886,795.6776760678306,921.6740493515683,916.5259237740006
1731139312.6421692,839.9176452008473,797.7324293859365,958.7450849365421,927.9192443615908
1731139312.642391,839.2464511664737,800.8806993858273,937.7745474825056,912.0537062357445
1731139312.6462915,838.5771710629479,803.295841187702,873.5157641420474,878.3587962031878
1731139312.6489053,838.4041875278484,804.2296735012009,815.0881669766491,848.170125911859
1731139312.650192,839.1409140093529,804.0428977693166,803.6743420002998,838.7837434223609
1731139312.6540923,840.4126559805869,803.495833076364,837.0969577045073,850.8980831754027
1731139312.6551847,840.5589572749243,803.1094908860038,872.3477978784382,868.8523480377451
1731139312.6579928,837.3506162711338,802.9972878490873,864.4766899119586,873.1336614881513
1731139312.6618931,830.5022222381397,803.0333509138704,808.1886714793573,855.2514965838706
1731139312.6657937,824.7460926616408,803.069810915691,745.397732825884,823.507207662136
1731139312.6678033,829.8561135695726,803.0424607194755,731.3127452541794,795.6040415303571
1731139312.669694,853.8863823835027,802.9634124155801,787.709820239957,784.4471558792633
1731139312.6707697,891.5160121860583,802.8700974880212,882.9839349790432,788.5208532419528
1731139312.6735945,919.0522406563346,802.7874742823064,955.4206346814701,794.1214960955281
1731139312.6769233,908.3729042071749,802.7195606854125,960.0660114992138,787.1539498656315
1731139312.6774948,853.5917747033925,802.6588733420931,901.3949803234195,764.8700600011925
1731139312.6813953,784.1352408564779,802.5976692361696,827.1872731591627,738.313828032231
1731139312.6852956,745.8187932051521,802.5329389867676,790.6216949084113,723.7164667180717
1731139312.686354,763.3709221267733,802.4655947738735,811.3818639812872,729.771177307012
1731139312.6867013,818.2581066050159,802.39767043613,864.9542822135342,750.9305768021221
1731139312.689196,863.178901643261,802.3304168001426,905.7832942161265,772.1004996945991
1731139312.6930964,862.0036928539304,802.263972348467,904.0560072721868,780.9766933071501
1731139312.6969967,820.9657487678231,802.1979172795022,867.1040715641901,777.9462171122151
1731139312.7008972,783.6539885186659,802.1318609896904,830.1636233586744,775.2350008161934
1731139312.7019386,793.208124395865,802.0656755361944,825.8844239384126,785.8087747253065
1731139312.7047975,853.546696783411,801.9994288147573,857.9230460591388,811.3189798228487
1731139312.7055993,922.8959421283113,801.933229263221,899.0887013429646,839.5366142817431
1731139312.708698,946.1644539536255,801.8671326264407,914.0285368000608,853.9163759197438
1731139312.7116773,900.3976995368342,801.8011420712395,887.6020038090571,847.6173679949561
1731139312.7125986,816.0470485721406,801.7352570143375,836.9834276719411,830.179260610501
1731139312.7164989,755.3123409544171,801.6695090175351,798.7582310581869,820.7301336056222
1731139312.717523,763.2403145045644,801.6039432548266,801.0442759460913,832.6676496583792
1731139312.7203994,830.6262817060134,801.5385464707163,841.7064917135122,862.2085477177703
1731139312.7242997,900.1382497534612,801.4731803867583,889.4589090311282,890.5917289918722
1731139312.7244973,912.4684916319145,801.4076250417888,907.6592848175129,898.7036896977208
1731139312.7282002,855.3591286556602,801.3418044259155,882.9165329043306,882.45732816442
1731139312.7321005,774.6024835260279,801.2760996104245,836.0963619814686,856.3745138404757
1731139312.7331078,737.3048828586627,801.2114078169832,806.5397907077718,842.4799011789302
1731139312.736001,777.6039521748265,801.1485262946854,821.4639663279555,853.614211324294
1731139312.7399013,869.2830323275019,801.0868634670279,874.463318366,884.4394562531917
1731139312.743395,946.7683373735343,801.0234598165549,929.8300486390966,916.5590384336649
1731139312.7438018,956.4391875434294,800.9541527684106,948.9260941164193,932.5914578585528
1731139312.7464314,897.0085098777121,800.878036037318,917.6590333248399,927.552249701627
1731139312.747702,818.0687304891034,800.8031017211179,853.9865281307943,909.4568126396329
1731139312.7486925,779.5156454061984,800.746435249538,791.4337634765043,890.8109315431376
1731139312.7516026,804.6974588381725,800.721463681471,754.4842692271085,879.5246279460198
1731139312.7555027,864.1766442793411,800.7136498958384,746.2716338620879,876.0422976556492
1731139312.7594037,902.2047963530304,800.6647298153081,754.5724702222617,876.4607760191604
1731139312.762293,883.6160262039066,800.5000188443456,765.4555984367377,876.950969627563
1731139312.7633038,822.3877112020175,800.2170843514768,771.8549495423729,875.9194123792466
1731139312.7642772,768.5971212188281,799.9909290751261,773.7111211387163,873.667901493727
1731139312.7672043,765.4338068535426,800.172815043002,773.8968104312488,871.1044034249644
1731139312.7711046,812.8059538490357,801.0683637628391,774.7122489167992,868.8236796471859
1731139312.775005,867.8391890420148,802.5716770090876,776.7621801627837,866.9121923665044
1731139312.7789054,881.1086666512164,803.994793520959,779.5408816234517,865.1832696868228
1731139312.7798617,837.9524963347918,804.4092275415321,782.3801805386347,863.4493073863929
1731139312.7811854,770.8933208272358,803.3517477474367,784.9593144008776,861.6394972729915
1731139312.781191,733.3228018490943,801.2796954334966,787.3072898576875,859.7774971929825
1731139312.782806,755.796974269523,799.2876473581953,789.5854376862862,857.9128200938732
1731139312.7867062,820.2862588549252,798.2864018899378,791.911294720093,856.0751900126801
1731139312.7906067,873.9408763925708,798.3916454051223,794.3102743657403,854.2672861633122
1731139312.794507,872.2996363958122,799.0421941723329,796.7524574488331,852.4785197486941
1731139312.7954464,816.8470039099949,799.6000157670397,799.2029809791153,850.6992425575665
1731139312.7984076,754.9481340408194,799.7911247593065,801.6467831540255,848.926262978781
1731139312.8000894,740.9504052915878,799.7014123320696,804.0868549770369,847.1611790340879
1731139312.8023078,790.4232278415864,799.5350303072472,806.5321867711472,845.406665565159
1731139312.8062084,866.0659918953385,799.4250059602231,808.9888198329047,843.6642021618494
1731139312.810109,907.4061730634378,799.392496931732,811.4578530729307,841.9338404127333
1731139312.8110309,879.7178148572522,799.3979477988036,813.9377318153812,840.2149933983646
1731139312.8140092,802.0166676775673,799.400614049292,816.4269677592013,838.5071708712
1731139312.8159397,731.9555907257718,799.3847599312604,818.9252736358591,836.8102304006051
1731139312.8179097,720.6984138748069,799.3552504049945,821.4331261430494,835.124262022128
1731139312.8189874,774.1286151584573,799.3227707598563,823.95075218478,833.4493877070717
1731139312.82181,850.5119139033488,799.2938324874714,826.477596280406,831.7856536180217
1731139312.8257103,895.3388644457901,799.2690840733535,829.012911961476,830.1330366581898
1731139312.8266156,884.8061793146727,799.2462478986396,831.5573387593906,828.4914998447701
1731139312.8296108,842.8497307808854,799.2232108098073,834.1141909624204,826.8610247259179
1731139312.833511,818.3011332028015,799.1992497641779,836.6883006825507,825.2415874157527
1731139312.8374116,841.7308444710117,799.1746901082277,839.2810560423756,823.633097983962
1731139312.8378854,898.5601070307168,799.1501037025452,841.8839214780606,822.0353718308221
1731139312.841312,941.17818065098,799.1258103041565,844.477856410772,820.4482149450405
1731139312.8422005,929.6826972798949,799.1018208412798,847.0472578298763,818.8716359879669
1731139312.8452125,866.8776693712439,799.0780060586372,849.6073851445421,817.306034700935
1731139312.8491127,798.3135658470754,799.0542566683507,852.2232711820812,815.7520590985231
1731139312.8506937,777.1854390461532,799.0305398337083,854.9813400792758,814.2099024201692
1731139312.8530133,822.3194014369753,799.0068758812218,857.8922626806898,812.6783219085986
1731139312.8567834,902.7512467762683,798.9832953143157,860.7750481199653,811.1544382856588
1731139312.8569136,961.2969535025638,798.9598141138823,863.265945526303,809.635642908932
1731139312.8577847,958.9076423706451,798.9364320529942,865.1046836969001,808.1236354047096
1731139312.860814,904.932394869287,798.9131416873357,866.6495503608728,806.6275479978206
1731139312.8647144,848.8261871359182,798.8899364687785,869.1752147210735,805.1604031689541
1731139312.868615,839.3296136760525,798.8668143307366,874.2294083356718,803.7252107343769
1731139312.8725152,884.0647716729376,798.843778459935,881.7267545634851,802.2971713565736
1731139312.8733697,943.0173540531041,798.820836818001,887.8495466468528,800.8226918448388
1731139312.8756814,961.6892338142376,798.7979990631083,885.4711120185214,799.2589437506787
1731139312.8764155,916.6312851418951,798.7752688337018,869.5868269488128,797.6502369641637
1731139312.880316,835.7252790585403,798.7526341642894,845.7444431216308,796.1790076610641
1731139312.8842163,776.5754908067464,798.7300669628278,832.4710255700154,795.0835841252318
1731139312.8854475,780.7786101483957,798.7075448984274,849.1400055911924,794.3854246974864
1731139312.8881173,841.1784868650085,798.6850942972343,895.5652644129175,793.5692128448052
1731139312.888954,908.1936810340408,798.6628198705727,944.2779874519737,791.6171299634472
1731139312.8920174,929.5834985579072,798.6408605526868,958.5417895088306,787.8136629457354
1731139312.8945794,891.3558014525254,798.6192374647896,923.3065795664097,783.1619163639618
1731139312.895918,826.963584992021,798.5976718082228,860.9394210173095,781.1291883724352
1731139312.8998182,787.8162928210689,798.5755975028129,815.3999905607037,785.8752223052917
1731139312.9037187,799.8908469938661,798.5526085566801,816.5651554669171,798.0248563377505
1731139312.9045386,842.848044649551,798.5292675097611,855.1980946838014,811.8723980227927
1731139312.907619,869.1035646881624,798.5075785800044,891.165168474301,818.5402095013741
1731139312.9115195,846.206889886894,798.4899924998983,888.8037725431119,813.9403929182567
1731139312.9134774,786.0033863854608,798.4764406493434,848.8899440848492,804.1143372670435
1731139312.9154198,735.67103020023,798.4610917797179,808.7093423238584,801.680414212054
1731139312.9193203,738.3329899585086,798.4331658965367,809.2730119996543,815.2631649770274
1731139312.920123,796.3089435044112,798.385966693542,857.7972035285898,840.7970661714903
1731139312.9202018,867.4715536979209,798.3317891872729,918.5453929271508,862.793602525323
1731139312.9232206,897.9145258003659,798.3084708335646,941.2384820889318,865.6274374863829
1731139312.9271212,864.7357533830378,798.3558878380858,903.6352914511817,846.3148267024363
1731139312.9310217,794.3572168823168,798.4533426278255,831.5920217167328,818.2584045969741
1731139312.9323754,741.1185114534902,798.4466694750811,778.1906363572158,802.068507645438
1731139312.934922,743.0797083555775,798.0373701663569,778.7415977115903,809.9814731472201
1731139312.9357078,791.1910490273582,796.9143375316445,820.322888040617,836.1675343047841
1731139312.9388225,837.6083388734793,795.021745405855,853.0283759439222,861.1008024993494
1731139312.9427228,836.5228465321695,792.7673709512508,834.1850850921372,866.9268943373472
1731139312.946623,783.4095800789362,790.8802390294107,767.6183303056382,851.5583819192891
1731139312.9505236,719.7440170370901,789.8790685128239,703.5945237926112,830.0219898230174
1731139312.9512734,699.2021550236858,789.5663689898631,698.5668139195922,821.9934776391141
1731139312.9512925,743.3073956086045,789.0878717316524,768.0427504921261,835.7447639642622
1731139312.954424,822.7595543191945,787.6454234924781,871.5795195880545,861.4615762009995
1731139312.9549558,879.5477016974323,785.3212714418622,942.3279444217934,879.1240832598645
1731139312.9583244,872.3790510889474,783.2887714751098,937.5946261962954,874.5022404825019
1731139312.9622247,809.4330128128483,783.1584685321103,870.3971524642456,850.5018870282838
1731139312.9661252,742.0204126564018,785.9229488809389,797.3347657660663,824.8433681578739
1731139312.966877,723.5352241265564,791.2712448421703,773.0026196831433,815.9363594966884
1731139312.9700255,766.4627537493902,797.7014892871733,807.9252307145634,828.3139399844534
1731139312.9701717,832.6747579820495,803.255590463646,863.5943245595272,849.366414253972
1731139312.973926,865.3822874321143,806.3834840770021,887.1253572560462,859.909875460938
1731139312.9778264,836.5475508348657,806.5410445535985,855.4350666082669,849.9023473791709
1731139312.981727,770.4887579303503,804.3409958334759,792.3285846705269,826.6131029738565
1731139312.9824617,724.1693242349083,801.2026171287553,746.225882751876,808.835285794943
1731139312.9856272,740.5014860305214,798.5974244815505,749.4398621653062,811.9241615289077
1731139312.9890697,812.8184426082469,797.2669035012493,793.4551819408867,835.5115727905144
1731139312.9895277,889.0841132502187,796.9547872011447,838.8485432738723,863.3972579275847
1731139312.98971,912.3625541797194,796.9076223739526,849.1161293504756,875.5695708810706
1731139312.993428,865.5330956820334,796.7489039096091,819.7418906207239,863.0146446686316
1731139312.9973283,784.976449024277,796.932480467382,780.0230434160804,833.8967548067934
1731139312.9980464,732.1231895027613,798.3281475891323,767.9740949462134,806.4326425717803
1731139313.0012288,745.0363781678867,801.328243013968,799.2328140621009,794.3273693639762
1731139313.005129,808.6632560563318,805.3413701413704,854.2693256801447,796.665815776963
1731139313.0079677,867.9779748442272,809.1389397112722,893.1943401011013,800.4479661462765
1731139313.0090296,873.4661812923523,811.6778314061158,886.2612809885658,793.2716503402811
1731139313.0129302,821.6569477479001,812.647332034248,836.7135334779055,775.0326802493805
1731139313.0136309,757.4492853753177,812.4023571511667,778.990633865989,758.4788697673143
1731139313.0168304,736.6994633907926,811.5571152471515,754.0295535835432,758.1937889060838
1731139313.020731,780.1696947690582,810.6436022709931,780.0714252061442,777.565094125519
1731139313.024464,856.38519030386,809.961642050847,839.9219507881174,804.9602164405168
1731139313.0246313,906.7960662111446,809.5658021042096,893.1829238346373,822.5305739317071
1731139313.0268655,892.5338415042768,809.3493240128873,904.3773810918841,820.5511044414568
1731139313.0285318,825.249781201747,809.1744497001874,867.2324499576182,805.5641993601353
1731139313.0292156,757.445875289864,808.9627288082453,808.1453927994486,795.4280888185972
1731139313.032432,739.9492034724555,808.7058510770778,766.2182207502599,804.8806999526167
1731139313.0363326,780.8468777009467,808.4294259340805,764.277733675519,833.1881612351956
1731139313.040233,839.7712293914782,808.1571786047365,792.945562955918,864.2038517724379
1731139313.0441334,862.7654227038593,807.8970495566351,820.6884249175267,879.151606500607
1731139313.0448003,828.7796778792205,807.6451836801272,822.0335025006075,871.7262883098374
1731139313.0457635,768.4550464599536,807.3950479417849,800.272114362938,852.9919002989191
1731139313.0480337,738.9988411689783,807.1430340942187,784.5357083275517,842.096479475935
1731139313.0519342,775.9606299612968,806.8890425212458,802.6503329202873,850.6177331133557
1731139313.0558343,861.9451077050658,806.6345416610031,852.8833197664052,873.3449289897144
1731139313.059218,938.1124437663815,806.3807542383615,900.3507472214394,892.6926543388613
1731139313.0597353,949.4113011214821,806.1280313130333,903.7541174267006,892.862247732904
1731139313.0603848,887.5851932128901,805.876128163914,851.3697204367525,872.3545767187896
1731139313.063635,797.9626818777829,805.6246952553904,775.0101865648933,845.0581077213089
1731139313.0646615,744.5427893526747,805.3735540152143,727.412565728449,829.2244724799359
1731139313.067536,760.6120364868964,805.1227065201987,739.6029018967864,833.1232084538516
1731139313.0714362,823.8793779807893,804.8722243415986,793.8832816781663,848.822930315112
1731139313.0753367,876.1954983720584,804.6221571031414,837.173375542536,859.1781131943834
1731139313.0759697,872.1917839376031,804.3725117296225,825.7229686321089,852.4283784395782
1731139313.079237,817.1134386681078,804.1232794429812,764.0510653691686,832.3822116405872
1731139313.0831375,762.4605471336515,803.874462824002,703.9028328030855,815.5692193553067
1731139313.0835595,762.8817754985266,803.6260690414933,702.1244735049228,817.5040787535213
1731139313.0870378,829.9370959833645,803.3780693740669,771.6738737653,839.341855121683
1731139313.0909383,920.6966342285559,803.1303651595247,866.9608618077378,865.9860296074884
1731139313.091554,970.3584521118694,802.8828240214202,917.1087622458258,877.3899856535854
1731139313.093972,942.6971317438674,802.63542044951,881.4676294407191,864.1557222813065
1731139313.0948386,858.5117427220882,802.3884070822781,782.923758591132,835.0972846494358
1731139313.0987391,779.8802198916746,802.1423050052101,691.5627768010572,810.7043864355818
1731139313.1024575,762.4996015517884,801.8974876562044,670.9431957234103,807.4486480232184
1731139313.1026394,813.3725189199243,801.6534260535637,729.9608035026971,825.1645448103243
1731139313.10654,887.2469854072656,801.4082446057054,819.1635652516887,847.5227127540624
1731139313.1071386,924.5479330216341,801.1596454511491,873.480482830711,855.2783709466548
1731139313.1104405,899.775440422931,800.9076726456441,864.5048633082646,841.6215344887198
1731139313.1143408,840.5791201225971,800.6577381130177,818.6729310599786,817.23203820768
1731139313.1182413,802.3260386981204,800.4198575443253,788.6496739781988,801.2030548562522
1731139313.1213555,820.458131101398,800.2001791232715,805.6041726993924,805.602350503628
1731139313.1221416,881.0289128974568,799.9868950317373,854.1045015733441,826.2678339484725
1731139313.122723,933.4292287293085,799.7435617437222,888.8686159686805,846.8134688135392
1731139313.126042,933.4992773734748,799.4293581960021,875.8690406373316,851.9982635132001
1731139313.128726,880.5415148733989,799.0525384109536,821.4168182864552,839.515180768431
1731139313.1299424,817.7521050357155,798.7233214734023,765.6980372730796,821.0429077719111
1731139313.1338427,796.1707905399027,798.6283192121559,748.418882235235,812.133428001283
1731139313.1377432,832.2090543376452,798.8587701189476,776.8392144873382,819.3040718709204
1731139313.1383078,894.0438098294956,799.1458122568956,822.6231758803424,834.8561999773802
1731139313.1402535,928.3826412317817,798.7565236984551,848.365004606055,843.717514365197
1731139313.1416438,905.5284510491181,796.891162667237,839.801508410014,836.735851885789
1731139313.145544,844.9871205094314,793.5953021987972,816.361614874404,819.2507420569643
1731139313.1494446,799.6412809688277,790.4574826550539,812.4706902601238,807.3288004927356
1731139313.1533449,811.2172089784929,790.0230508335592,846.8765551046434,814.269703639189
1731139313.1538925,874.2415039116543,793.8507185823393,905.9584749485731,838.4652248016384
1731139313.1572454,938.8420971498133,800.7470220760265,953.6436073937023,863.04257529435
1731139313.1591516,950.4157630001108,806.9751966979982,958.3640053529447,868.2147250484438
1731139313.1611457,893.8806552067197,808.639769306938,915.1712513707794,846.7713791654509
1731139313.1634803,806.7302215738205,804.5566829616565,846.9269544101733,810.3270118450981
1731139313.1650462,750.2756945594865,797.3811623365724,785.9764719946171,781.0799803285316
1731139313.1689465,761.771591233944,791.9651410943054,752.5869117101632,775.3078211152475
1731139313.169477,825.5333187242974,791.9953509904118,746.638070740958,791.562267143349
1731139313.172847,886.3678397187753,797.3825482663727,755.1792734612615,812.9257909193636
1731139313.176747,894.5945320585711,804.4182943433013,765.1893963593218,821.2969243905616
1731139313.1780496,845.8138869115897,808.5863168526711,770.6752079529138,811.7609234955222
1731139313.180648,782.6412260238205,807.8003243865436,772.0540929917884,795.1889863843166
1731139313.184548,757.4463207937448,803.5503505243067,772.1227123619478,787.3969901174848
1731139313.1850617,787.9553271009361,799.234371535515,772.9154549893356,794.6717359750374
1731139313.188449,843.0531463472913,797.2612753365707,774.85572990111,808.240117671181
1731139313.192349,869.8402468349752,797.3748639799982,777.4059925563305,812.1284288249476
1731139313.1962495,838.28012710666,797.4420230507249,779.9502526476214,797.2742631048691
1731139313.1969476,766.2009391338418,795.8069440963076,782.2232835992131,769.7826185245918
1731139313.1982343,704.8895314581256,793.0438054491494,784.2762225512907,746.5940053822649
1731139313.2001498,697.8452800395153,791.5299692687363,786.2642027957324,742.3617225529283
1731139313.2006464,746.164727259994,793.1878326730204,788.2901234564505,758.218989270784
1731139313.2040503,808.2003704201543,797.4228301540984,790.3701470387318,781.2873817674358
1731139313.2079506,833.796336354515,801.2492993131465,792.4730727086769,795.1090040138998
1731139313.2118511,805.4566590443866,801.7084590416845,794.566861267044,792.4901883070224
1731139313.2157514,752.4555762866462,798.5136443217167,796.6391609802414,780.3454495386281
1731139313.2158456,725.6535526767799,794.4891786102775,798.693824409748,772.7485339282908
1731139313.2162309,753.7529062707231,793.3136681885611,800.7392708902936,778.2704707394057
1731139313.219652,817.8432320925923,796.5275330389265,802.7806147067097,792.4509519105567
1731139313.2235522,865.8605627372871,802.3585471007856,804.8183544916744,801.7216563796958
1731139313.2274528,854.9822530061573,807.1968918610183,806.8507487092679,795.2304546637067
1731139313.231353,786.9539422031473,808.2910720698783,808.8763232329017,774.425952439266
1731139313.2318156,707.8911146055403,805.4766507732446,810.8948194120875,752.4636166774752
1731139313.2329884,673.3203004102807,800.862529039158,812.9067122794148,744.1393422769538
1731139313.2347436,706.2810075010705,797.1030162635742,814.9122171927971,754.5750530917813
1731139313.2352536,780.6558282193923,795.731222404378,816.9107152773246,775.4710505387478
1731139313.239154,842.1180572228952,796.6171593077989,818.9012122258401,791.6620609482925
1731139313.2430544,850.5364572974356,798.5687917877221,820.8838384797544,792.8864911563588
1731139313.246955,810.8147060761626,800.311804908338,822.8613648682408,781.6656834863655
1731139313.2474003,767.2098890063968,801.0680279035947,824.8386675775708,770.9525932746769
1731139313.2508552,765.0589007435154,800.5592455955687,826.8183911358027,773.1537035571251
1731139313.2536416,811.3954762484566,798.8478959888444,828.7941743437693,789.3478250369266
1731139313.2547555,868.0534407529724,796.4016761075607,830.7480549516147,807.812326467984
1731139313.258656,883.8762652351327,794.2239806847167,832.6613254334811,813.4540102725299
1731139313.2625563,839.0964771054498,793.5520007704722,834.5408663653714,800.5053546190029
1731139313.2629848,764.1203970400934,795.0134581608042,836.4431978657178,777.8929532150876
1731139313.2664568,716.4117756336067,797.8720283184366,838.4582646459256,762.6803229983338
1731139313.2677424,734.2928701002276,800.1800360288236,840.6231180114896,766.8006658358951
1731139313.2703571,805.539389663643,799.9570394909261,842.7979747138432,787.6987902854312
1731139313.2725396,876.4804781549734,796.5902850237951,844.6348829387183,810.3001035456632
1731139313.2742577,894.5925656056414,791.4194636331372,845.8072870090771,818.7660411423409
1731139313.278158,850.5236854732304,787.0877297389802,846.5125480791722,808.812979092544
1731139313.2785697,785.3947049628274,786.0822229966516,847.8780251605391,790.8065311497853
1731139313.2820585,756.8172059099369,789.3165294313815,851.5494861246043,781.0113652847833
1731139313.2859588,791.0564931087749,795.5289323732413,857.9663295153123,787.9936974984546
1731139313.2898593,861.028221788989,801.8832467191135,864.0606953783945,805.4770353426668
1731139313.2914376,908.7767210990856,805.5611442886309,862.8741767085028,817.8623975594282
1731139313.2937596,893.7279646072758,805.4564657972218,847.9259177539486,813.9231744637235
1731139313.294154,826.3932148045939,802.795028127012,821.4632336107614,796.9927000336442
1731139313.29766,759.8290795003976,800.1132505156897,798.8380868164737,782.767362833321
1731139313.3015604,746.6009157659086,799.3069653107784,800.1143519874392,786.4106772968364
1731139313.3024964,796.937905216442,800.319550515596,832.1187075646957,809.8248358090622
1731139313.3054607,871.700227454573,801.5408207194638,877.9143995560861,839.8374229806136
1731139313.3093612,914.8094405122611,801.4729932269097,906.4917247137276,858.8187868369207
1731139313.3097386,898.1509558906479,800.1090396346366,896.0233704238493,858.8117421203763
1731139313.3103356,842.629780215914,798.8266617177098,851.05507343023,847.3697109083147
1731139313.3132615,798.794932703959,799.0371786911294,799.3878783140577,840.3054548965574
1731139313.317162,803.4133194084802,800.9356660446391,771.2671273305629,847.5991597142872
1731139313.3210626,848.2530623312534,803.4620197677798,777.4654397709494,864.5540117945145
1731139313.3249629,887.4913785698815,805.3203138880467,803.4526749599455,875.8874551555358
1731139313.325323,877.863709393961,805.9506160001729,823.8519701311835,869.4119843463418
1731139313.3288634,817.7433653338232,805.6495607941122,824.9936618627303,847.69532077462
1731139313.3292336,751.8064521943851,805.0382337076858,816.716784208242,827.6391111322586
1731139313.3327637,736.5249992970719,804.5484927355684,823.1803994491099,827.8338180591975
1731139313.3366642,794.126516666855,804.2803288149714,859.7390506408063,853.5126622864307
1731139313.3372505,892.1964753465447,804.1348874659221,915.2867028612665,891.0400694485382
1731139313.3405645,965.854299470285,803.9916544000325,956.5251135366346,916.7118624638811
1731139313.3409078,966.0564317951288,803.7967713350745,953.3373488868772,913.719155753043
1731139313.344465,896.884208365643,803.5589001569417,905.64862826888,884.5671273156626
1731139313.3481317,812.3975715356013,803.3082354140815,847.9212934128144,849.1730694467718
1731139313.3483653,774.5671386956681,803.0653855650426,823.9132574219318,829.665645018847
1731139313.3522658,804.9236645400439,802.8339719476093,850.0611199493807,833.6246353505562
1731139313.356166,868.8304869617829,802.6080569715674,898.6563171962139,849.2564100173477
1731139313.3564923,905.6044236542455,802.3813083037093,918.0617980452113,856.4910805175374
1731139313.360067,879.7809140268766,802.1511842985835,875.994755056324,844.6756368974624
1731139313.3639672,810.8452697063519,801.9183646126403,790.2119347939006,821.9327139073363
1731139313.3670297,756.8985213897446,801.6844928443531,719.1674914678297,808.4044892350679
1731139313.3678677,766.3965480701621,801.4506038911841,717.8186927799325,819.1940711695133
1731139313.371768,837.9991870767028,801.2168280631147,793.4085429001901,851.1270652705003
1731139313.3720045,920.7845883199384,800.9828290803862,897.4743084855992,883.9652755575006
1731139313.372077,953.8757934883376,800.748284711626,961.7336205869517,895.0300937931872
1731139313.3756683,913.558125347852,800.513086537387,949.844322813461,875.8998266137062
1731139313.3795688,830.8680072317118,800.2772942187231,883.486371612756,838.5050747844454
1731139313.383469,766.2775683899463,800.0410103130215,821.758690633202,806.1532833426932
1731139313.3859277,761.994545717279,799.8042943382831,811.5413656689188,796.5469127979937
1731139313.3873696,810.1517673289553,799.56714420309,850.7806442570387,809.9465578080279
1731139313.3876617,862.1542041883841,799.3295234098243,895.012128104038,831.308069087369
1731139313.39127,870.6136096107226,799.0914081385552,899.5536377690797,843.8100495211885
1731139313.3951705,828.5875087057603,798.8528335373195,859.273725778614,842.1821239897798
1731139313.3990707,773.8753880146971,798.6139083237941,811.5917764202036,835.1744858042456
1731139313.4029713,756.0262144623217,798.3747553777448,801.8777633450326,836.1426840875132
1731139313.4032464,794.5075010230731,798.1353672627022,842.8534378998756,850.4472480857659
1731139313.4048257,862.5134068503031,797.8954654526785,903.0318470619,870.2522526909829
1731139313.4067583,908.7933763121641,797.6545657243938,932.9995528356077,880.6768637015791
1731139313.4068716,899.1534288012934,797.4124260317109,906.5501644819286,872.0854471057996
1731139313.410772,844.1332777287556,797.1697345101746,842.3535337030768,848.5934631436093
1731139313.4146724,790.5369622122997,796.9283579861083,788.6753350068874,825.779764449888
1731139313.418573,783.2194023289328,796.6902077423131,784.2238955465544,818.9699205636476
1731139313.4188309,827.8860183762811,796.4545370869612,827.6569838620842,831.1675926786154
1731139313.4224732,885.8005145263036,796.2155185594495,880.5547203209323,850.5359275564082
1731139313.4237237,905.6753785500695,795.9639935851746,900.2798700525151,859.948240690708
1731139313.4263735,866.902262316663,795.6963866566161,874.5302974681189,851.1181557286119
1731139313.430274,797.979801928629,795.4273319230639,829.3615170065132,831.6152754507699
1731139313.4341743,754.0742708240548,795.1925888489167,805.8159133320406,818.66270303018
1731139313.4344156,771.7360422540253,795.0251485407589,826.0167273390167,824.6249603049062
1731139313.4380748,838.104182279884,794.903768751832,876.3558133345491,846.2225692127471
1731139313.4415126,900.1344747598544,794.7123850605047,919.5386343997077,866.5928706369039
1731139313.4419754,906.6094119597711,794.2844679301226,923.702619486178,868.7580882630792
1731139313.4426217,849.1190542249658,793.5824917285635,884.790355642086,849.6187359453729
1731139313.4458756,768.9958840417706,792.936895475578,825.9266069299484,822.9378975063544
1731139313.4497762,724.3194763515103,793.0946647581619,777.2395540235715,808.5117520286664
1731139313.4500003,743.2497846407055,794.8211083684529,754.8047287866146,816.0371278618352
1731139313.4536765,801.630584714352,798.1863757176775,755.069448683383,836.9517078867376
1731139313.457577,843.737816887877,802.1959762705228,764.589595844431,851.3730522136306
1731139313.4614773,829.5785407448535,805.3273602659627,772.3760659334226,844.7618163567541
1731139313.4615197,769.4949937889829,806.6412065810626,774.9249391767731,820.5218122918288
1731139313.4653778,716.8222468049609,806.4475578694494,774.0462723533593,797.8621560917029
1731139313.4655848,724.1699245908314,805.8958578759795,772.6731136939686,796.4361494192142
1731139313.469278,799.1390521925288,805.8956322103318,772.3787841231768,820.220671612648
1731139313.4731786,895.7156531914716,806.3829380334053,773.1659617213933,853.7316742200942
1731139313.4762666,948.540978047626,806.588811997071,774.359564479804,873.7082259774422
1731139313.477079,922.9633856683516,806.0048176633769,775.414719250085,867.0474393522716
1731139313.4804175,841.4332212934119,805.0527138232194,776.1829160643588,840.8090497945379
1731139313.4809794,765.499674480191,804.7137244339144,776.7788221495842,816.3657040704911
1731139313.4811697,747.603473827506,805.3980288920891,777.358618552275,812.3814575184311
1731139313.4848795,790.9263908191814,806.1864427388236,777.9987934090933,830.3074669432042
1731139313.4887805,849.4400557712082,805.3471126080658,778.6938438857748,854.0751915756566
1731139313.4926803,867.8350963272173,801.8253520095482,779.4065245378939,863.9862377549591
1731139313.4965813,828.0830927979266,796.3841872664677,780.1092854756583,853.0559878207969
1731139313.496754,763.8698719725646,791.3073504076135,780.7960287749238,832.2679375916416
1731139313.4993155,731.3488527240589,788.8611573121287,781.4737525684058,820.8051665168654
1731139313.5004814,761.3694929648998,789.7659677178148,782.150762122849,829.8787007448597
1731139313.504382,833.2051287325929,792.8087999177957,782.83077403683,853.6345117187461
1731139313.5082822,891.0793321926317,795.7430836931619,783.5132639194067,874.2538477699096
1731139313.511021,889.2572192996049,796.7442879198846,784.196324215706,876.6149300823404
1731139313.5121827,828.674261098951,795.4779796914773,784.8788355141265,860.4125344586108
1731139313.5123386,755.7348602003586,793.183154066924,785.5609221261049,840.0848428819908
1731139313.516083,724.8148074026495,791.7786289444377,786.2432187991186,832.9200807996483
1731139313.5182135,755.084041917175,792.6059731301438,786.9259211325577,845.1845357392164
1731139313.5199835,816.5998354674477,795.6801155820151,787.6084181677311,867.5417926387821
1731139313.5238838,856.7574927960052,799.9284863137962,788.2899383613334,883.3270138669329
1731139313.5277843,844.9593367640401,804.0788753605283,788.9710365018383,882.6207203146635
1731139313.527923,798.0028409687985,807.3544771606973,789.6547867371443,870.3051819141549
1731139313.5316846,764.8120640558719,809.4691271409674,790.34573434218,861.4816325682818
1731139313.5355852,783.737664309751,810.2107604218432,791.045337414561,868.3863116869198
1731139313.5371118,848.9422722137011,809.2732807963462,791.7459379337774,889.9706199072655
1731139313.5394857,914.2275182445567,806.584048724045,792.4300537325682,912.69900323361
1731139313.543386,930.7441872537308,802.7193486410366,793.0830315941574,921.52124777533
1731139313.5435078,887.0863761699966,798.8532908554121,793.7183628409764,911.7759663417927
1731139313.5457747,819.0383939974356,796.1567083168924,794.3956543672883,892.5101122631288
1731139313.5472865,781.3241644477404,795.1132054994695,795.1953970110026,878.9622672808067
1731139313.5511868,804.1680633472197,795.3224974935533,796.1299068172991,880.566498695924
1731139313.555087,869.4300219193215,795.9710593712784,797.0352284957527,894.0696404528717
1731139313.5560098,925.4904902289884,796.6116624078597,797.5758567085804,906.9559358569376
1731139313.5589876,929.0714292718366,797.6131812890546,797.5049807389292,907.9990883740735
1731139313.5590923,880.2076358222597,799.8490488437977,797.1406335386279,896.1340465029664
1731139313.562888,821.7115082593335,803.795139279431,797.6511688149603,880.4759442041183
1731139313.5667884,803.3624681143592,808.7701295758416,800.4796580068241,871.7989779142355
1731139313.5706887,840.2805050508601,813.0555388169007,805.5940774844281,872.8512874092136
1731139313.5745893,899.889670873384,814.9568451997468,809.5258813231579,875.6748617247466
1731139313.574677,928.2079216124336,814.0228337468615,805.6953695245685,868.1760984161463
1731139313.5749078,894.030920145939,811.3965026564771,789.3623006879288,844.6575076448419
1731139313.5784895,815.4851951238137,808.9280483291132,765.4574430633081,811.8906218153562
1731139313.580529,747.763818159896,807.7217817975969,751.1049536645191,785.6961926492714
1731139313.58239,741.2391576091127,807.3071782911057,764.9190466425513,780.1299028936693
1731139313.5862904,802.2325090936897,806.1406107097818,808.5090793966275,797.087202805919
1731139313.590191,887.3050406719289,803.0487750978217,858.8193191471098,824.2607819785633
1731139313.5902617,936.4238771887689,798.4390301489648,882.9583890173283,843.4439029874991
1731139313.5938058,919.4841583255345,794.2756503926997,864.6816880143695,843.2827787501714
1731139313.5940912,859.0176312132816,792.7932212688718,818.8517861485485,826.8921206981287
1731139313.5979917,810.3197295385374,794.9009908158355,780.3746905279291,808.515940327237
1731139313.6018922,814.9819387606524,799.4751501512517,776.6672827978555,801.9273033573836
1731139313.6057923,866.2948840189882,804.0741582768638,806.8734861543334,809.7664272438356
1731139313.6058464,915.4822259816368,806.549830080613,844.7293076326525,822.1995415814956
1731139313.6096933,913.4719557806006,806.3763591541442,861.541230072256,825.7047116303881
1731139313.6127038,852.9917468675901,804.7828013477327,849.5151940239787,814.5798809212698
1731139313.613593,775.736666747891,803.7046907382174,826.79357528493,795.6271973294171
1731139313.615283,738.7757882662809,804.3858923909116,821.2148596568906,782.1680341457487
1731139313.617494,768.1082007438424,806.5747752317773,846.3458444390202,782.4830572423942
1731139313.6213942,837.6313017593216,808.7442880039786,888.81115044986,792.6216952827855
1731139313.6214309,890.7725695911353,809.1157873944286,917.407171186087,800.0331710653134
1731139313.6252947,886.8782128385604,806.8547184183251,907.8508173975329,795.1512963991692
1731139313.629195,833.8100000961343,802.7152282486911,863.7826953050541,780.7318022133205
1731139313.6316018,779.541423645518,798.6481420662859,815.8176155955778,770.2000241394938
1731139313.6330955,770.1393562701703,796.4737804324657,797.4413594873866,775.8913354036787
1731139313.6369958,810.2554405767448,796.4468831730223,816.7109913401348,797.4946010863348
1731139313.6370156,859.9921238288598,796.842225169739,847.9708774660536,821.3858392054267
1731139313.6408963,870.3733432487269,795.1000956844409,851.858528470928,832.0216455039828
1731139313.6447966,826.4555870426015,789.8647848381075,807.9937232341699,825.5994098221145
1731139313.6486971,761.3177316902787,782.4115245206148,733.890267497386,813.8209364924767
1731139313.6500373,729.6679181066785,776.2927081547152,674.6879041268912,814.0529339039101
1731139313.6504998,763.3332909307074,775.3321652889367,671.0664134355673,833.9460679419925
1731139313.6525974,844.5923779877503,781.3064886243268,729.0385912327569,863.470473066329
1731139313.6526003,918.2192886363293,792.8506519215005,814.1972484684005,881.397154915132
1731139313.656498,932.9392879154462,806.231036245845,875.8227625514542,871.5241593919503
1731139313.6603982,880.5497958029703,817.3448307333186,884.0021377404506,835.845177683785
1731139313.6642988,802.2870227561663,823.5632243782015,851.1160389483169,793.9265171660658
1731139313.6681848,756.7576772254777,824.3516928970597,819.226344332903,768.6420242226199
1731139313.6681993,774.1349260528551,820.6495564428305,822.5727490933066,769.4748446453434
1731139313.6693978,833.1572553007242,813.8457269892779,857.1293751825821,786.5940395498279
1731139313.6720996,879.6975736891901,805.1861907039283,884.6969214532057,800.0554808945698
1731139313.676,871.859147196144,795.8029617876903,868.7306910209425,796.2554128111381
1731139313.6799004,814.7962271203799,786.9815168190901,809.9982040544273,778.3773497219224
1731139313.6837697,757.0463269490218,780.1948522774387,749.55512749183,763.0487766022144
1731139313.6838007,751.6098281877797,776.6976302268081,735.3438301900708,766.6278067141831
1731139313.684791,813.0807738698961,776.8302201060005,780.7941206172351,792.2072223289682
1731139313.6877012,904.6529102639928,779.5004050659168,851.0035491561604,827.082017425057
1731139313.6882958,965.1232262725616,782.4237584416918,889.1082732799171,852.0813938672289
1731139313.6916015,955.184234833658,783.3405345863688,862.1878094663889,855.4915448292221
1731139313.695502,887.3913661711227,781.602356131977,789.4212318581737,841.2266892157942
1731139313.699354,816.2300509893907,778.8746000159701,728.5272115033393,825.2067811478455
1731139313.6994023,795.3974496969173,778.0652422677201,730.0179543247248,822.6381017069725
1731139313.7033029,835.7808882648632,781.0116618156501,796.0762083155315,835.9928872214001
1731139313.707194,898.0189046691223,786.7742978694469,878.4588057277446,853.335518969353
1731139313.7072031,925.9730865740714,792.1799969343743,917.8125034590851,858.6268204396454
1731139313.7111037,893.7596626270406,794.3925687965785,891.6787538152452,845.7258787900619
1731139313.7149386,827.5932514792087,793.3513278325527,831.2125861223554,824.3494643524594
1731139313.715004,784.5785859699902,791.8258009914098,793.8439670947718,812.6712107736713
1731139313.7189045,806.0929818771982,792.8830850354382,816.2527805799531,822.4507963691548
1731139313.7195451,883.7862700883402,796.9674182586267,886.6305851086062,849.0360438293734
1731139313.7228048,965.3647037556143,801.2868048679654,956.6588896715939,874.6861730023288
1731139313.726092,995.2030125686103,802.2107358869134,980.4873193057422,882.7093366646603
1731139313.7267053,957.472539929415,798.6372258317411,948.3863642830033,871.0338809161963
1731139313.730523,887.733954134483,793.296127789537,890.0772759054945,854.2002704808341
1731139313.7306056,843.7558200945898,790.7108968100266,848.126399525545,851.945871620842
1731139313.734506,858.8067041309292,793.5308787784841,844.5140377609138,873.2492308975993
1731139313.7384064,915.318380522024,800.4321820131116,866.9272482078285,908.4458306651585
1731139313.7423067,960.6958570853883,807.338594055241,883.9361418532104,935.7477261906491
1731139313.74499,952.1709283023143,810.6958143277152,874.4159102615544,937.1458134394496
1731139313.7461078,893.1234518760144,809.8521445404538,845.8699635946518,911.3956219206057
1731139313.7462072,830.4553245176697,806.7647485257056,827.0203839058662,874.2981152534416
1731139313.7501078,815.2746732595342,803.8550785591217,842.0893734062665,846.4332396728944
1731139313.754008,859.5295784709392,802.221762661499,888.6884348360804,837.9136467239856
1731139313.7542992,924.3863505195986,801.536934510558,937.243452596821,841.6178842448762
1731139313.7579086,950.2471222838228,801.1377196032865,952.3348783420297,839.6948982142917
1731139313.7616923,904.6458546976419,800.9612504990124,919.6323050414777,818.056875185289
1731139313.7618089,809.568167673791,801.5420191774577,858.0984207825928,777.5853403650902
1731139313.763888,725.5548315691473,803.3516900585829,807.7756558882336,733.3596711357936
1731139313.7657094,704.2052670880421,806.259252599029,801.136863161035,702.5524819473926
1731139313.7696097,746.7069064674928,809.5821234795133,838.6240118697453,690.6905767853312
1731139313.7735102,802.4152299739592,812.564222247787,887.1630376882813,687.5330596721723
1731139313.777277,809.6604570268488,814.7813465900347,904.0808476521386,676.1348631410681
1731139313.7774105,746.0328925172143,816.1954468725787,869.2947053577932,647.5880814589013
1731139313.781311,646.9264858037968,817.0336704234269,801.3482164568103,608.8152023452475
1731139313.782786,577.0741881951299,817.7819063464965,744.572247904429,576.5026002218308
1731139313.785211,578.4742606252262,819.2287795761762,736.6801061640133,562.2747178163133
1731139313.7890532,637.037128966347,822.2106600805034,781.2139017695334,562.0643039414929
1731139313.789112,694.4876284125569,826.9995777878434,845.7757613571547,559.2377602235267
1731139313.7928617,695.3584142899213,832.8639229635304,887.5072108124444,539.1070404870754
1731139313.793012,630.9605662594021,838.4009645371071,886.1634508861722,502.2901376048575
1731139313.796913,544.9494737909758,842.4968104889256,858.4507906837924,465.01934299454206
1731139313.800813,496.4458722165873,844.9772412928909,841.5665204482957,445.7872433924075
1731139313.801684,511.625557659048,846.2040034366775,859.3944234881296,449.9085096723716
1731139313.8047135,564.1433780183013,846.035277892654,900.5649692806924,465.56972560971303
1731139313.8084464,600.0357384341548,843.44524922597,928.3807120205405,474.6664172685632
1731139313.8086138,584.7878010432147,837.5445581252211,914.6850343688064,468.5684091853555
1731139313.8125143,532.0902863022249,829.1778503179296,867.6404950884034,455.00366286515384
1731139313.8164146,490.8218024486505,821.3717473631025,827.7874082305008,450.73153774433075
1731139313.8203151,502.94804649906325,817.7660670875365,834.4362709372303,467.2109901566356
1731139313.820582,568.4050250413086,820.0398213016208,890.7278916295621,501.6555263550005
1731139313.8238072,645.0987863565329,826.4152036905707,957.5091954334403,540.0797474761241
1731139313.8240309,682.3960291749923,832.5573563585317,982.5292546262818,568.5992966099711
1731139313.8242154,660.5445805534164,834.2871992820304,942.4084157152838,583.4359396876255
1731139313.828116,605.3531484558772,830.1313331689536,863.5354509000201,592.3720970447794
1731139313.8320162,567.3567951322109,821.9442140608197,803.6004037252973,607.5353537980428
1731139313.8359168,582.0866580921829,813.3785096927959,806.853873787639,635.6006462853586
1731139313.83948,642.7775397361673,807.530351399471,868.894678350746,672.8051449410516
1731139313.8396156,707.2941781790829,805.4258665839847,940.6501181727054,708.2130567327216
1731139313.8398173,733.756871585334,806.0632420411889,969.0198392718291,732.4512174272751
1731139313.8437176,715.7976907489921,807.5031605878796,940.1830453333444,745.1129493070442
1731139313.847618,688.2748785356665,808.033765551514,889.0293658805646,755.108042078138
1731139313.8515184,698.3797841308381,806.8101806505646,867.5447586192804,773.6414808288381
1731139313.8552003,765.5993780740532,803.933672837354,900.1210431928235,805.1811014613585
1731139313.8554187,863.1947991106904,800.1821959326086,963.5963255077025,843.3783568295456
1731139313.858378,936.5061439722377,796.5800101106756,1007.208189414255,875.2228719807567
1731139313.8585613,944.2357288681623,793.9656403523161,994.1203704850743,890.5667781120126
1731139313.8593192,890.8721986187753,792.7310887602292,930.1382817493047,890.0292322325038
1731139313.8632195,824.6763510354418,792.817180938009,857.5146187490705,885.1189010259876
1731139313.86712,801.5360228783428,793.8559825440652,820.3640546885791,889.9301742524854
1731139313.8707848,842.0196883943628,795.2764180755167,830.4082896357943,910.451574790412
1731139313.8710206,916.0715296821036,796.3659145172218,860.6931634957728,940.1382889908272
1731139313.8749208,968.8822912756432,796.4710210718033,871.4093192048177,965.8566791002618
1731139313.877276,967.3164717616801,795.380792647521,845.0221053017043,979.4996766995317
1731139313.8788214,927.7442333636441,793.5664571459254,800.4758991970463,985.1686172901948
1731139313.8827217,901.0441512307699,791.8863082201286,775.029315163192,995.3077952196559
1731139313.8863697,927.3509493919964,790.8628367965855,790.7070467167028,1018.9253692568376
1731139313.8866222,999.6117448871953,790.1950024519207,835.0696059454809,1052.2636292341754
1731139313.8905225,1067.568075134622,789.060079314948,872.3004444367388,1080.3842616804218
1731139313.8933156,1079.0417455804366,786.9922051761927,873.8675000265828,1088.7981223152576
1731139313.894423,1023.744779326863,784.5084656364535,842.1825711863698,1075.6387854449742
1731139313.896174,942.9334869529076,782.8672652942716,808.0823028726949,1054.1938180260845
1731139313.8983233,896.7875495987778,783.1637323083764,805.1785491021653,1043.3207641308554
1731139313.901954,916.2896397650441,785.5544140796098,842.1898658532251,1053.1244774193665
1731139313.9022238,979.1901774191087,789.2167736978364,895.1250977640113,1077.3612983378725
1731139313.906124,1029.9138664685556,792.9375836984084,925.4319883460855,1098.8601018243946
1731139313.9100246,1026.7690715169563,795.7066895729956,910.0478789146662,1103.654091729583
1731139313.9139247,976.8066255621347,796.8473952841757,859.7308590547259,1092.1769693344932
1731139313.915072,929.0907224631849,795.8331170392051,810.916031160447,1078.26176684709
1731139313.9175386,932.4508370701883,792.3208236413385,797.3105728159912,1076.9910686299386
1731139313.9178257,993.5572600204847,786.6068221015736,823.6755362729583,1091.7868793990328
1731139313.9217255,1070.217233760674,780.0219233612112,862.3284324423149,1111.5170530001847
1731139313.9256265,1105.0065373997502,774.5872723113608,874.7177371655514,1119.8239068654757
1731139313.9280696,1071.420229186785,771.9206523305903,841.120895554872,1108.8076957265728
1731139313.9295266,995.2969417109739,772.2480573293464,776.0789583490214,1085.8213999891682
1731139313.9331234,934.7163066594156,774.4144408764636,718.5546344607957,1067.8507391430314
1731139313.933427,934.6024752268398,776.8473233201631,704.3105520838908,1067.9608742792664
1731139313.93397,991.8847582318883,778.50530746266,740.3440319534037,1084.6825477231573
1731139313.9373274,1058.608672798746,778.988094866757,799.7605396101584,1103.0255560421836
1731139313.941228,1080.6408612427354,778.0342933550562,841.451437688156,1106.6269395937607
1731139313.9451282,1041.3240045153375,775.3361026358613,840.8970558003848,1091.4052497476387
1731139313.9487078,974.9068299130712,771.0906189491451,808.6689203732327,1069.4360740701236
1731139313.9490287,938.4452679515312,766.6087736493367,780.9164610801663,1059.4475515065326
1731139313.952868,964.7560004841077,764.0072730348413,788.1302749378026,1071.4184026357814
1731139313.952929,1034.9861411210393,764.9485595956829,827.7264794451775,1097.931556173788
1731139313.9568295,1093.515895757851,769.4861030322587,864.5836913229961,1119.5615436285018
1731139313.9607298,1093.0574851101442,776.0490761144272,860.5500451329409,1120.031948672074
1731139313.9628236,1032.9949640139941,782.5131282821928,808.3737696296953,1098.8677919052257
1731139313.9642923,959.7326264904955,787.3686906088138,740.4083329337839,1071.4163749369236
1731139313.9646304,929.0099185475896,790.1213474736368,703.2435739557703,1056.454586233236
1731139313.968531,961.045695989745,790.9146019605798,718.7693229638098,1061.536231785471
1731139313.971766,1025.0559670331709,789.9847510277217,764.9312515286932,1077.8003699602864
1731139313.9724312,1065.7423949040924,787.4682461583805,793.9916582896348,1088.126603157821
1731139313.9763317,1049.9529615770437,783.6078941861446,774.3503637897005,1081.6948681390656
1731139313.979877,994.7123123427439,779.0573115814684,720.3517710272731,1062.8943163779766
1731139313.980232,952.781094467749,774.9422689316415,682.7052244851827,1047.2991615948274
1731139313.9841323,967.3688196103673,772.5245232368583,705.3715227118388,1048.2290578598813
1731139313.9880328,1034.0310356675584,772.6136840708424,785.1628655636172,1065.2448912000502
1731139313.990664,1102.1790906931528,775.1115314033946,869.9934473033717,1084.1910040208222
1731139313.991933,1115.4459661923347,779.0249692850504,899.1162547934985,1088.6593926526052
1731139313.9954617,1057.775333165832,782.9330238435341,852.0708831231937,1073.3556085189248
1731139313.9958336,967.6213439042073,785.5622961260872,765.2091687878475,1048.4985472380606
1731139313.9975777,908.8089696174571,786.138468942585,702.3467603920149,1031.803572643516
1731139313.999734,921.3016998342226,784.4730992428929,704.515834621517,1034.5132456059011
1731139314.0036345,990.7981251989889,780.9587162027304,759.993580356339,1052.5368069978551
1731139314.0075347,1060.9947977972793,776.573640627874,817.4165717432878,1069.6475621158274
1731139314.009562,1078.5551944163742,772.784338193718,828.9193998629994,1070.1997204764093
1731139314.0110464,1034.778613719703,771.1585697869273,787.0030101154607,1051.3535235317813
1731139314.0114353,970.4928662934964,772.6854202687872,726.136493898593,1025.1354894988176
1731139314.0153356,940.3888602207265,777.1073143969198,690.2996508359984,1008.5950224911617
1731139314.019236,966.3414496552012,782.7408091549521,695.3947328737364,1009.7829650683485
1731139314.0231364,1018.701530289249,787.0884908311867,718.2977348159279,1020.847887342559
1731139314.0266309,1041.4411309963657,788.0449552906452,720.5492442372386,1024.0829075422266
1731139314.027037,1000.1729279375116,784.9980961345807,684.7891656147168,1006.2556594763671
1731139314.02846,912.6499329364226,779.0767187619803,631.7664481966121,969.5232781289793
1731139314.0309372,835.9130636287347,772.375055510167,603.5043515104692,929.77934427534
1731139314.0323317,820.2875095059345,766.784495210139,627.5838368846978,903.5945832704143
1731139314.0348375,867.8357182601399,763.3300097373577,692.8714743553276,894.4866605067318
1731139314.038738,929.4619460978047,762.3214276068866,756.4752260320587,889.9970921141971
1731139314.0422156,943.5877568421821,763.7867722408948,775.784017687087,872.1378322798266
1731139314.0426383,885.2821761278697,767.5057327399835,739.8889692340698,832.4930609927181
1731139314.0465388,785.6576065769052,772.6620705764301,676.1836434656151,779.1845398395067
1731139314.047358,705.4550244827132,777.7870479585808,627.9606810510056,729.7618109270682
1731139314.0504394,684.7736694961704,781.423944774343,621.1580215810832,696.1647880575056
1731139314.0543396,710.8682972198972,783.0872364321748,645.9863695771257,674.7345053579932
1731139314.0578,730.5145263880551,783.6531594681811,666.7392372522913,649.8316613419271
1731139314.0582402,695.8101497926192,784.7979094458442,650.9205149712146,607.898093282346
1731139314.0621405,604.7846997936377,787.935887814809,594.4979850363228,549.9856997859738
1731139314.066041,503.67724999121947,793.4490041285042,524.4255812368062,492.24788619723654
1731139314.066256,450.1104353508271,800.6337733762088,478.0797743315528,453.9843517613676
1731139314.0670855,467.6312945101036,808.224351271669,476.46721866004185,442.87927369104216
1731139314.0699413,527.5461462354913,815.088028354551,511.0419788827126,449.10700521912815
1731139314.0733848,571.5530450857887,820.7449723929773,552.383712064518,452.9237666647495
1731139314.0738418,557.1198914567881,825.4657782391326,573.0332949149268,439.9485262915246
1731139314.0777423,490.3286974847653,829.8235542238388,567.4734116818292,412.3093160938993
1731139314.0816426,420.4126795939849,833.9260207150996,554.6345382181834,386.7492971112127
1731139314.085154,400.0027844951106,836.9926179079451,560.7193133277219,380.887103562502
1731139314.0855432,442.8043327145459,837.8729026061719,595.1927654991249,398.5284838430297
1731139314.0889697,513.1436111376286,836.2602891679256,639.6777765815714,426.0974002591974
1731139314.0894434,555.8563031160515,833.4768324492876,660.8372739878321,443.31681056074086
1731139314.093344,541.4659285216408,831.876295537693,638.5985244963648,439.4159317984409
1731139314.0972445,489.1902545230873,833.1879267883568,586.3460384932459,421.4950952616963
1731139314.1011448,449.5559355784022,837.2308403827641,544.3601072953451,408.3224338560561
1731139314.1018398,462.18682918754666,842.140880915619,549.6687801598439,415.02240483471195
1731139314.104052,523.8118730888547,845.8291379638804,606.137428741188,441.3686685321441
1731139314.104554,591.7680282424781,847.3181577831309,679.8698570943145,472.8739885105479
1731139314.1050453,619.1659603253559,846.9151570710459,725.2119402989974,493.14024012680716
1731139314.1089456,593.107214160758,845.3971506965736,721.5270793829491,497.0682937701647
1731139314.112846,545.2044835573001,843.1875871888641,690.7126302411416,494.27292851147484
1731139314.1167464,525.4413185932337,840.2295404435687,679.8160245283611,500.12828615815357
1731139314.1201386,560.0541282976967,836.4291628728378,722.383727728845,521.9004409274899
1731139314.1206467,628.3324523050981,832.0790738416874,811.6952215152296,551.6093681013808
1731139314.12295,678.9033460231497,827.8849715279734,908.8374705132792,572.020533821501
1731139314.1245472,673.2121250555012,824.686284496789,975.6552095449807,571.2735873651927
1731139314.1284475,619.8889384045584,823.1764414128521,1000.4653749185886,553.9678786213167
1731139314.132348,570.0915370249295,823.7875195055811,996.9589346255171,538.9175387142225
1731139314.1357234,576.4116149654025,826.6287644981595,985.8576382949126,544.7624882047367
1731139314.1362484,648.9080914508662,831.2520286051924,979.8875303743573,574.9193812320049
1731139314.1365938,744.6997528315737,836.2587846861786,981.0138608240687,614.0963567530929
1731139314.1401489,800.1952453077458,839.2372355303207,985.5529337163525,639.3302946866575
1731139314.141848,780.5618574151594,837.6584884033454,989.7613296848895,637.1411119219483
1731139314.1440492,707.1278261286153,830.6591712946741,992.2308678853651,613.8046535143887
1731139314.1479497,640.5902027946804,820.4769264321504,993.4443402055235,590.9397755662428
1731139314.1513078,632.848771944401,811.9558960729412,994.3982824577429,589.5403111146575
1731139314.15185,685.9169050833299,809.8369407910719,995.6884620101939,614.3934257566024
1731139314.1557505,751.5025196340371,815.597706109026,997.36670500177,650.8498783272315
1731139314.1596508,771.8551708454175,826.3551695406519,999.2190591147646,676.5354796059257
1731139314.160746,727.9903271141592,836.780382102872,1001.0513603015734,678.7391823833441
1731139314.163551,655.1080078926441,842.4740264071248,1002.7995855424308,663.6028910746595
1731139314.1668923,612.8062681298561,842.2078389765255,1004.4959533227907,650.0292295463403
1731139314.1674516,635.5458958476611,837.6912505982186,1006.1942055962237,653.8115519743794
1731139314.171348,704.543726060728,831.6206211508867,1007.9240319229089,675.2371976715868
1731139314.171352,763.6560990912487,825.7694576300564,1009.6864970752813,700.0150247644739
1731139314.1752524,765.4763223275459,820.32076163745,1011.4699499628155,712.0541920563874
1731139314.179153,709.7268897328204,814.5081244051814,1013.2647950773871,706.9757787178637
1731139314.179644,642.9677078268877,807.8988848153474,1015.0685438349329,695.1281233615539
1731139314.182477,620.3731280154971,801.4556439962648,1016.8835292570539,692.067369103552
1731139314.1830533,661.0036930493519,797.6099887888126,1018.7128933204045,705.0119145149326
1731139314.1869538,732.9387192290587,799.0178959321522,1020.5583408622026,726.820795494419
1731139314.190854,780.0572700752965,806.5428559522719,1022.4200631302638,742.3151728608254
1731139314.1947546,768.2937506115861,817.8536208461403,1024.2976499144474,741.3052245581093
1731139314.1980617,713.5983830859471,827.9512012971345,1026.1908555315867,727.3766099731876
1731139314.198542,669.1139595108339,831.698015091184,1028.0998015972034,715.3842743532855
1731139314.198655,682.2155410116034,826.8890001643622,1030.024772428545,719.9190847627758
1731139314.2025554,755.9399529095268,815.8328642104656,1031.9659412205017,744.0103347347205
1731139314.206102,845.4376290160773,804.2824570387393,1033.9232858564917,776.8474589669704
1731139314.2064557,892.3661282834311,798.2438256614182,1035.8967801077586,802.2270960540169
1731139314.2103562,870.4064016964783,800.5580526440891,1037.886735714192,811.2263640700286
1731139314.2136464,806.0539652242127,809.327279603376,1039.893951335424,809.2410619596354
1731139314.2142563,757.7548679362554,819.1493471484531,1041.9192488341432,811.5951609494961
1731139314.21744,769.4029445267004,824.3997638490798,1043.9623211342632,830.7741837023967
1731139314.2181573,835.4589174285519,822.5094592513349,1046.02068099286,865.403509349853
1731139314.222057,906.4415981917714,815.2012607734068,1048.0903679902694,900.3953920469115
1731139314.225958,930.7111133351519,807.0481742513716,1050.1697026702573,918.9168287532477
1731139314.2292309,897.9937473790617,802.5400298549065,1052.2646621375402,916.7145230563339
1731139314.2298582,848.2744606928742,803.6819024381142,1054.3902120122655,906.6826967983819
1731139314.2337587,838.6893659449344,809.3906992304383,1056.5602979150997,909.2761176106985
1731139314.236338,896.0259716419569,816.4619081793543,1058.7660059775105,936.1451476736854
1731139314.237659,993.7497935326139,821.084729537714,1060.9579479077893,980.1398476577135
1731139314.240856,1071.8116524625675,820.2407293905261,1063.0640815675765,1019.8372403911505
1731139314.2415595,1083.099726715729,812.9114678056254,1065.064067668108,1035.275105284325
1731139314.2448156,1029.7330966752777,800.8720768676485,1067.0870681831507,1022.7607269835664
1731139314.2454598,960.6431878799704,788.2929396507585,1069.4219149409155,997.2301108745071
1731139314.2493603,932.3843593161164,779.6535449256602,1072.3086245698835,980.344087807106
1731139314.2532606,964.5865349114542,776.9491848197206,1075.5242859260475,983.9655441402606
1731139314.255236,1026.2905359673814,778.4014517099877,1078.0925515809395,1002.494046714439
1731139314.2571611,1064.3119193814773,780.0889998566337,1078.7030396396137,1020.0165379348953
1731139314.2604,1049.5481345521607,779.3470598187258,1077.1727776798793,1025.4494897621526
1731139314.2610614,1001.7988916832468,776.9507524770796,1076.2077860939735,1022.0989004279667
1731139314.264962,972.1279382420157,776.1036947196753,1081.3030152211254,1023.5032143427773
1731139314.2688622,998.3078761467625,779.2498273295496,1096.4592361257469,1039.9573828976118
1731139314.2727628,1071.5432954722762,785.6829971084626,1116.4024880122981,1068.165541046963
1731139314.2741342,1142.2610832527662,791.9648723747695,1122.0024549528039,1093.0773861787825
1731139314.2756102,1159.5949950525091,794.4849696738644,1088.8800448649863,1099.9919502052555
1731139314.2759848,1112.0407347047094,791.8187741813352,1009.8881974038788,1086.540582485114
1731139314.2766633,1036.7486868394924,785.1524368097419,912.3920448618612,1064.8103978029856
1731139314.2805636,990.1709625358457,776.9144906407884,846.0516881768208,1052.0717587465047
1731139314.284464,1003.282696973025,769.067377426674,843.3505549513537,1057.4909821334488
1731139314.2883644,1057.3901984156475,762.3977721811838,888.0409731982282,1075.3060590645418
1731139314.2915697,1100.8208358626184,757.0415070151204,925.1853614271054,1089.9445107217487
1731139314.2922647,1093.2984376815318,753.4217596912346,907.9248643499717,1089.0161688049072
1731139314.2930322,1040.7465016978501,752.5709624399669,839.4529430288507,1073.5304300024939
1731139314.2961652,990.43243405976,755.512993616991,770.9833506510487,1056.8234793158313
1731139314.3000655,990.0253827870099,762.3197303822245,756.1588004041829,1053.0862912651744
1731139314.303966,1045.3147754613983,771.7512100551688,802.1983449238733,1065.097171424033
1731139314.307154,1112.690170211647,781.78299699467,861.4657143171231,1081.3282005035767
1731139314.3078663,1133.085122518627,790.4770755149801,871.4000445081105,1084.7429171641102
1731139314.3103642,1079.5875981998483,796.4724978084352,808.327648736689,1066.1632469004421
1731139314.3117669,980.0867885530683,798.9837050798855,708.9323254409472,1031.6731758086405
1731139314.3119302,896.8319720073049,797.7776947612616,641.3557245543001,998.367221475501
1731139314.3156674,879.031903520238,793.4159679112879,650.5641930240287,981.7334888690441
1731139314.3195677,925.6886611151745,787.3979018184093,723.2997186443816,984.3562108806547
1731139314.3227386,987.8996895041872,781.6854461260288,800.4120284310657,994.7440494772807
1731139314.3234682,1008.9026597950796,777.7405282061942,824.7748344612664,997.315128695682
1731139314.3273685,969.8670315267827,775.8685898511462,784.7374976397494,985.5278027323541
1731139314.3308282,904.2395440976692,775.4466306253236,718.7131944276907,967.1929615821125
1731139314.331269,868.77715125977,775.7157423716328,679.7941392437567,957.243395686774
1731139314.3351693,895.2520672231263,776.2808692614927,691.5457213988884,963.9539394302687
1731139314.3383234,963.050676387701,776.8903769966151,731.0460103025595,980.5572753891541
1731139314.3390698,1015.3614303467234,776.9495269689322,750.6227967091269,989.8311750905148
1731139314.34297,1005.2755555892222,775.573185950016,717.9274964903304,978.113928710135
1731139314.3451183,933.8019605730209,772.423904231901,641.3412719406072,947.0239340944653
1731139314.346871,849.2446120357351,768.6557701664818,562.321273840306,912.9826768910632
1731139314.3497262,809.150527271277,766.9030033395728,523.4424744978785,894.7606546503433
1731139314.350771,835.6402755698806,769.887465143231,538.1413584314998,899.0792483450625
1731139314.3539078,899.4160963503391,778.456510957434,584.1425325554892,915.8393276742445
1731139314.3546717,944.6288537574462,790.6235823451101,623.2098183364376,926.7602546620258
1731139314.3585718,934.3516195703234,802.6020680853593,630.7189667821825,920.3739304236532
1731139314.3624723,879.8382405515397,811.1807377226535,612.6191534776352,901.0717770032823
1731139314.3663726,829.6563013478778,815.5254281390373,597.6232765184997,884.6636853631047
1731139314.3686242,827.6903009446874,816.9250404701007,611.1956113798224,884.0904929345677
1731139314.3694923,875.0943192674226,816.8768290652888,651.819365225788,897.3441218073096
1731139314.370273,928.2667638725794,815.4459560127146,688.9434288767154,908.0494802884842
1731139314.3741734,934.9281520537024,811.4843395823522,685.9525218535982,898.6665345584822
1731139314.378074,878.510445350633,804.3920093815864,631.4963707108182,865.591141238101
1731139314.3798723,793.8768891955967,795.5742216173563,553.818674441593,823.5289378355543
1731139314.3819742,740.7568199056163,788.0866654959336,503.82914015207024,795.098761800449
1731139314.385077,755.9909219412633,784.7181891156339,517.1048763710139,793.7121809889316
1731139314.3858747,823.4425976367173,786.1467973613185,584.0311640349214,813.4493519599849
1731139314.3875222,886.7227632299798,790.6225930805407,653.9467552793292,834.2105197841163
1731139314.389775,895.3224406057079,795.3012021718268,673.3607403876686,838.1653350807421
1731139314.3936756,846.7512713511563,798.1416930813245,629.3986878523109,824.216767454547
1731139314.397576,789.0361656275343,799.0136514573627,562.3424947379399,808.4390112222206
1731139314.4006617,779.8110292660474,799.3086025798706,534.4276220096799,809.6907493570353
1731139314.4014764,835.2578655179676,800.4374424483768,578.6534851482091,832.0986561153004
1731139314.405377,912.5816852296878,802.4530478368465,669.9806882553125,859.3789432794972
1731139314.4064202,942.6453953617902,803.9971356861424,744.118447307468,866.6063029975164
1731139314.4092772,886.8405156593229,803.6834535018211,749.3926796328085,840.391433610865
1731139314.4131775,771.0101886317917,801.707517250736,688.8587750109186,790.9086289608086
1731139314.4146264,667.8626462346123,800.1489728919702,617.5924294680913,745.5205721711575
1731139314.4162464,641.7024421818173,801.5138718279011,597.498974717414,728.7393211037289
1731139314.417078,699.7413694628491,806.619847508077,647.2508042518845,744.3807852803582
1731139314.4209783,788.3948279124501,813.5767164899477,728.6026867781795,773.8810884990781
1731139314.4248788,836.6918392129713,818.815817186001,779.7156581494183,791.6298766082799
1731139314.4253182,811.6851415653584,819.542074602504,766.9489115694794,784.6798896944874
1731139314.4287791,741.8907827849913,815.8300173117459,711.4704214517876,761.2120316700947
1731139314.431831,691.034282255984,810.7038025506574,668.6660227116341,741.8144181537092
1731139314.4326797,704.4844884673053,807.930468403286,678.5453307980497,741.6904143578049
1731139314.43658,772.2158784579374,809.0479539661749,730.0205504181295,758.6769513374235
1731139314.4404805,837.7644956588069,811.9998183027615,769.9996377262879,776.2743942292634
1731139314.4442165,844.8035745679603,812.7229670568498,749.9034185882829,778.1576512003078
1731139314.4443808,782.9493814264281,808.6323230671916,670.1717977184949,761.655795021669
1731139314.4474156,696.1137030531817,801.1243211589979,584.6209018402146,739.3754951951969
1731139314.4482813,647.526875016363,794.8039561462568,559.8356238903405,728.310971112634
1731139314.4493804,669.9698759171001,793.8943693298751,622.2156378602657,735.7865768170967
1731139314.4521816,740.8163169436825,798.8192815766163,735.8944067075233,753.6732021704365
1731139314.456082,801.31720065895,805.8688598314008,829.7704248254157,765.3644405707112
1731139314.4599824,804.3003929219441,810.1623720697069,851.8125946757392,759.7091665133065
1731139314.463,751.7413132376615,809.2910137157655,806.7833474777683,740.4974685206458
1731139314.4631145,691.7297933746008,804.6442706260821,747.8520767011574,723.5792883270011
1731139314.4638827,677.3798588178956,799.66923741968,730.9345620107986,723.6841966211562
1731139314.4677832,721.7622407798387,796.919943229794,770.4998630349902,741.6685639279087
1731139314.4716835,786.6241418534279,796.3978999388563,832.3116711614789,763.0203339578337
1731139314.475584,814.5650306616428,796.1614968798106,866.1126463109078,769.3922419937505
1731139314.4785848,777.7199337647768,794.2281596943602,848.2335412352147,753.9276644536981
1731139314.4794846,702.1590065089468,790.1093675248045,798.3715475146005,727.6288477749324
1731139314.4820125,647.8164763599515,785.0657775063082,759.2452320235345,711.2633055957325
1731139314.4833848,660.6065024971808,781.2813263956408,759.4113666892,719.1728284960986
1731139314.4841344,735.4950945547913,780.683352809624,791.3481497096693,747.8433381157234
1731139314.4872854,819.7891531508941,784.0207067704123,821.4747456529349,778.1709757781152
1731139314.4911857,853.8172206712004,790.5116302358015,821.4386998224082,789.6089828981427
1731139314.4941697,816.924953665628,798.1547762013155,793.5295743800021,775.3264392045005
1731139314.4950862,742.5817187561078,804.5851599423381,769.3570253535111,746.8937275730254
1731139314.4989865,690.7599824575999,808.0946340674928,783.4028198191409,725.1242395857419
1731139314.5009103,699.9654752072054,808.2955289914513,843.2290759093033,724.3413616967018
1731139314.502887,757.8507282241884,806.0749702825689,920.3973206749062,742.2944407708048
1731139314.5067873,813.9764260291671,802.903615051218,969.6149148685116,763.2707715747089
1731139314.509754,823.2349297394088,799.9576024694563,961.7786489770767,771.3288807453631
1731139314.5106878,783.2215348683769,797.6369524102502,906.0922848350076,762.6439969589003
1731139314.514588,734.7822858733133,795.8056927170103,844.6289178603184,747.2081792520214
1731139314.5184886,726.4361858794189,794.5194294971277,822.9750778222798,739.3167618012317
1731139314.5188885,773.129443062392,794.5148671217886,857.9356700597813,745.4491624356332
1731139314.5198083,843.3882879822996,796.8351738867129,925.4518975341289,759.6955074736777
1731139314.5223887,884.9459813012123,801.7672296474117,977.7415129174137,770.0115440223509
1731139314.5253386,867.7313117330461,808.0820263338107,978.0149657749598,769.4542417279708
1731139314.5262897,809.1355225983832,813.4623622008456,927.8406725159431,762.610180708569
1731139314.5301898,760.3375688369143,815.9099925990237,866.1650275016693,761.6138500097101
1731139314.5340905,763.992532148713,814.9356632110633,839.3480412077387,775.0239338961602
1731139314.5379906,818.0685583449421,811.5427782695125,864.685114157336,799.1621715749756
1731139314.5387063,876.7845231826542,807.213539909255,916.8090006666201,819.7981994889019
1731139314.5409234,888.8149360505255,802.9817374447681,949.0484361536533,823.3410524437156
1731139314.541891,840.9058192516358,799.3331117526922,933.0027337260165,808.3331011708952
1731139314.5457914,769.9798940691404,796.6343820752734,883.5369692950665,787.4378682889227
1731139314.549692,733.4094331642289,795.2886964427805,847.5661943250238,777.9582335185205
1731139314.5535922,762.2253630479654,795.3354935927513,864.8795290663797,788.4750830253646
1731139314.5536425,835.6855768690849,796.043019335933,933.1679814809258,812.3205555717306
1731139314.5565078,897.3875892458193,796.1939273269649,1007.0327175272051,832.89948093824
1731139314.5574927,899.480861358049,795.0648365357396,1033.253914316494,836.4229503989613
1731139314.5576043,839.9142088641561,793.2829426761273,994.1764967884146,822.0918298478749
1731139314.5613933,763.7881373492563,792.6526638005209,923.0370269181265,802.0727610095572
1731139314.5652936,727.8954604054422,794.8551891616413,877.201476521523,791.5575398231035
1731139314.569194,756.1657640887252,799.9788747248037,890.5320116394911,796.7868675964164
1731139314.5720923,821.2725564099924,806.1740582832183,944.9438438367886,810.5225496718767
1731139314.5730944,867.3858828915039,810.903386885937,986.1308284888033,818.6318954202646
1731139314.5765023,855.9494866858983,812.8745894567517,970.7900018384746,812.4530782930361
1731139314.576995,797.198581052882,813.0269847146802,904.866069185699,796.6725236667133
1731139314.5808952,741.4886753704124,813.640724950641,839.4376635330125,785.9335754296796
1731139314.5847957,737.553005698338,816.2254343845119,827.348587954112,792.6984603879904
1731139314.587677,792.0399704543494,819.9472422510773,877.747982843653,816.2818985956201
1731139314.5883963,863.4655626222082,821.9951027625453,947.6006544020668,842.2285980218694
1731139314.588696,895.4459264416728,819.7431186767388,977.5104021780124,852.9063121427112
1731139314.5925963,862.1961157626888,813.0675200391227,941.3848836317635,841.086533177979
1731139314.5954003,789.3738456335266,804.9125131628214,867.7875174327596,815.6750655190991
1731139314.5964968,733.1276583127665,799.4596464967246,815.0259046714405,794.814119125547
1731139314.600397,734.1564605097358,799.1811994351342,821.5697960826394,791.71647898995
1731139314.6032617,784.5672281860635,803.1115670618262,874.451135309684,804.6874875486932
1731139314.6042976,835.4080342354767,807.7957729411513,922.388778715738,819.4961388609493
1731139314.6081982,838.9030063459038,810.1230047807827,921.2210466909274,821.938252332955
1731139314.6120985,789.7499990877523,809.5965115405373,871.5272740180566,809.838491387867
1731139314.6142983,730.2809298053666,808.137683295488,816.4210814624923,794.4132711911989
1731139314.615999,714.9460370681153,807.8115433337499,803.0509031910303,790.1900207381196
1731139314.6188464,763.9846104364968,808.7075113131168,841.982897139219,802.3007964513325
1731139314.6198993,844.9741706999567,808.8884512360728,898.5056236976858,821.8102396083987
1731139314.6231508,897.588035003884,806.2755100209149,921.5806072406647,832.7803739755419
1731139314.6237998,881.5044675429493,800.6189171164607,885.279424286729,825.1867338327853
1731139314.6277,808.7489371380847,793.8542601662534,809.0373938110049,803.2459611875562
1731139314.6316006,734.276555608841,788.7572483836857,741.7609671806475,782.4578955477899
1731139314.6331964,712.1552421951749,787.1896432594607,724.0722458393275,777.5989124600862
1731139314.634431,752.6314064262025,789.2288664864124,759.2122550780848,791.1194185926659
1731139314.635501,815.0434706509783,793.483069542299,814.4885598787587,811.274595609523
1731139314.6394014,842.6044695903538,798.0520087020977,849.9575934776528,821.7209529552583
1731139314.6433015,810.5485769974088,801.4573320705937,850.0642741557647,814.9688944171072
1731139314.6472025,747.5884020203632,803.1403477462751,833.3528152372805,798.5635731073919
1731139314.6500156,712.4121704659991,803.4137406631422,834.1305765714177,788.5692423563252
1731139314.6511023,744.3699647315976,803.006201556291,872.0084829455944,795.5991219837003
1731139314.6520944,829.1281499292071,802.545049140121,933.4894343405887,815.2596031929164
1731139314.6550033,907.9341381386498,802.2999836656861,979.6330866578243,831.4917252656239
1731139314.6579049,923.7004179757384,802.2424470713123,974.3824918882905,830.4620556857183
1731139314.6589034,867.1840867862363,802.2402869621172,913.0715911386117,813.3654924718007
1731139314.662804,785.647930977701,802.2015990924078,829.4737000421359,796.6743142204401
1731139314.6656,745.658539096509,802.1099241013234,774.0436776788889,798.4714098411533
1731139314.6667042,778.998210709023,801.9917535434557,777.609929929589,821.747093469878
1731139314.6706047,856.0103348392006,801.8755691426345,827.9428881553847,849.392343898649
1731139314.6709924,909.5828297231017,801.7729420693047,878.7314051377967,856.6429854965965
1731139314.674505,891.0033044591369,801.6809582606198,885.3259962241862,831.6580278622074
1731139314.6784055,811.3734912433472,801.5923059143784,839.485987261007,786.9646426759401
1731139314.6811848,733.7298456772016,801.502356994805,775.6464515945979,751.4525759451477
1731139314.6823058,722.2673019760558,801.4105331365154,743.9287500937614,748.8756092483325
1731139314.6862063,790.5938396417905,801.3183618330132,771.1547905122893,780.1434937873629
1731139314.6898904,890.8498117831356,801.2273247971997,839.9001784781461,823.3068298968236
1731139314.6901066,951.3978363597132,801.1379614636196,901.5499231724792,850.5286242774212
1731139314.692659,932.1460589279438,801.0500719904668,913.6732851876087,848.2366887383491
1731139314.6940072,854.0558074255126,800.9632656730083,873.2259299316304,825.2821719898084
1731139314.6967697,780.8199130042841,800.8773149044966,818.9839929075932,804.0876802005641
1731139314.6979074,768.0933585933005,800.7922047172764,799.7034359489454,802.6848215539835
1731139314.701808,820.5197334789422,800.7080217293379,832.8967486940328,821.6324032198836
1731139314.7057085,890.3684223979881,800.6248449611535,889.174476006896,845.2688514174628
1731139314.7087884,918.3142642632181,800.5427056995482,917.1229155679778,855.4291388636343
1731139314.7096088,882.6392871000422,800.4615986576074,888.4254073072304,846.2477291448619
1731139314.712354,816.2209645800102,800.381501684582,823.7911186780818,828.2604307060062
1731139314.713509,777.717929095773,800.3023826722729,776.0928372235076,818.996345320999
1731139314.7174096,801.8431534562037,800.2242040339942,784.7137493179533,828.2813781810885
1731139314.72131,870.5897898116093,800.1469468767881,840.6800492670072,850.4497033481512
1731139314.7252104,928.6404285516203,800.0706554237623,892.9354929629719,869.47163480701
1731139314.7274127,928.9929740537366,799.9954579945951,890.8284255292618,872.2170000926336
1731139314.7276864,870.9583213667149,799.9214940293417,827.4288474967412,858.8118559714211
1731139314.727939,800.41422686582,799.848724000648,747.6580021851317,841.9948037510856
1731139314.7291107,772.9338070931227,799.7767433267552,713.7674942626018,836.4230196382357
1731139314.7330112,809.2804802113617,799.704878201012,755.3622182850531,846.6578090668315
1731139314.7369115,878.6109179507758,799.6327996389974,844.7288783244117,863.4277539610376
1731139314.740812,923.3914872673224,799.5614509653054,918.7582065836689,871.2870287618657
1731139314.7435234,906.7593271192372,799.4933558967974,930.0465953739223,861.6898747318678
1731139314.7447124,843.6627568634618,799.4310372574772,884.0785281416878,840.756549091495
1731139314.7465844,789.0220203409626,799.3733385491765,830.8736486263954,824.8654740897085
1731139314.7486129,791.6177273795485,799.31221392105,819.427421629524,827.1913202913529
1731139314.7525132,852.0120109349048,799.2352748212521,855.5742134249389,846.2748664135231
1731139314.7564137,920.3581572109588,799.1380290737129,899.3099572030784,866.4852158459983
1731139314.7591078,936.683353549797,799.0408817690472,901.7028669724317,870.379700436214
1731139314.760314,880.5016074297995,798.9925125605353,847.7760351759464,852.8757238614518
1731139314.762167,788.8395016189379,799.0366844674951,769.0135743043587,825.6093901778854
1731139314.7642145,727.9026098124436,799.1423379565525,716.8867634690016,808.0367310428942
1731139314.7654824,741.3027153720795,799.1502373065681,721.3097631390009,812.5630067387963
1731139314.7681148,816.3946187183528,798.8367585575987,768.686186663703,835.4910917169423
1731139314.772015,895.551845127472,798.1607819873313,816.4574308703054,860.6818907936918
1731139314.7746923,923.059559764826,797.5878255414714,830.481709267757,872.7011546569449
1731139314.7759156,889.3146503446607,798.1539096105004,813.0571408755438,868.7707996796807
1731139314.7798162,835.9858365229629,800.9180300245209,798.0804715343655,859.8775476994414
1731139314.7837164,818.2177620272427,805.9308783529742,818.4580083687496,860.306488637116
1731139314.7843804,856.3124848273835,811.5613680636538,874.7167522969954,874.5720427573974
1731139314.787617,918.211581175977,815.0948251151548,932.0112795947957,892.99331785002
1731139314.790277,947.4421287895369,814.4980202392445,947.709206030408,899.8157538642483
1731139314.7915173,912.2641374437491,810.0273844996258,906.141713523517,887.0169150813681
1731139314.7954178,834.2174964355235,804.2865560694205,832.3029181992259,862.0339673722856
1731139314.796921,772.2480524421842,800.5907612744122,774.2265823989567,842.7533628903245
1731139314.7993183,775.7196598143192,800.8712446311669,768.1804912052186,843.7199252756805
1731139314.8032186,844.7080101542975,804.6119491533917,812.7654782866867,864.687559938046
1731139314.8032784,929.419179772677,809.3712544130342,870.2937784810522,890.6168207657531
1731139314.8058617,968.9525754302434,812.2835286325112,893.8398860995134,903.0149093511028
1731139314.8071191,938.5433484501269,811.5068567906458,860.5331550084435,893.6702549552041
1731139314.8110194,867.922569876655,806.9576641467738,787.5820314730166,870.1914272298918
1731139314.81492,816.3420545940648,800.2384700673463,719.7124772265236,849.3408084902584
1731139314.8188202,824.3500714550428,793.927525483521,697.1509418221551,843.7049351327837
1731139314.8214464,881.1606606126313,790.4346414015159,727.5180467458977,852.2885063445619
1731139314.8221765,933.9076911664667,790.7870472260456,782.1026457887095,862.2345354954357
1731139314.8227208,931.1685228025718,794.0128403253939,818.8549476417791,859.9032912635708
1731139314.8266213,865.5958638573798,797.750422158467,814.6908537484009,842.2708033098733
1731139314.8305216,781.4625783329196,799.9254590681006,782.7506316291679,819.6812228243245
1731139314.8316753,741.0212214967858,800.2670499641188,761.0817451706233,807.9852241211511
1731139314.834422,776.0692440196353,800.2632258184196,780.6905078308101,816.3080935766615
1731139314.837031,862.6233309923473,801.4480483494468,837.9128433990455,839.8744583575724
1731139314.8383224,938.6284279965389,803.6048072889802,894.6448994301413,863.3326980531369
1731139314.8410745,951.2011131874119,804.7425108772842,908.5725289253241,872.0260444620975
1731139314.8422227,896.5969873005188,803.0327902061936,869.5733216144923,862.5734224635586
1731139314.8461232,821.227095466724,798.8638615285107,810.5072505668917,844.5550150327994
1731139314.8500235,782.8003168019278,794.9042823797412,780.5723313018005,832.0528073242455
1731139314.8526156,803.3398275554374,793.9482993289175,802.3401093239049,832.091581422606
1731139314.853924,852.9841727635526,796.48116412014,850.0842050085564,839.7003373156896
1731139314.8578243,877.6993364989975,800.191362255811,870.181844326436,843.6260615189591
1731139314.8599725,846.7386479918963,801.8393461112751,827.6650178121608,837.3905948172304
1731139314.8617249,779.3020936660882,799.8084366461005,739.137526412685,825.7411720854337
1731139314.8656251,728.2857326359925,795.2227352131129,662.9324156404243,820.7697744421872
1731139314.866429,735.5464979738898,790.8928043133199,653.4825441012288,831.1432255246815
1731139314.8682,796.4558037916245,789.1357511323571,717.3826818891788,853.8600170535678
1731139314.8695257,863.1075333506222,790.2396658457836,807.7500896980096,875.7284287643439
1731139314.873426,883.4028694911996,792.6220485014917,861.8506064868842,883.4120967201278
1731139314.8773265,843.7125679875536,794.3077833226789,850.6743951657157,873.514371378877
1731139314.8788705,779.6448357205321,794.3857319661236,798.8928222458417,854.1926243431119
1731139314.8812268,745.5950455997231,793.3293842780265,759.085831323893,837.5266569953512
1731139314.8837848,768.3692617791786,792.2062782829718,764.0163148969739,830.2580380184722
1731139314.8851273,824.2206698890617,791.7233136369406,799.6516234638619,830.9911601836576
1731139314.8890276,859.2125383207501,791.9077150603866,822.0774031597971,834.3415688411881
1731139314.892928,835.7827498128586,792.4027089308357,801.2191708967558,836.2050335297666
1731139314.8968284,765.816407426339,792.8767808245552,750.5128419304301,835.6539456450896
1731139314.8977685,702.2052463162072,793.2058113294968,715.6647116713235,833.770333020545
1731139314.8993697,696.1397510869151,793.428930038745,733.274306210485,831.8449365987062
1731139314.9007287,755.495287057411,793.6298631624387,796.5937548064607,830.4585328058542
1731139314.9011831,837.8954878760975,793.8588246411535,858.5834958595017,829.5260595769159
1731139314.9046292,883.6725800998529,794.1201285177615,869.8398913246868,828.7301193047839
1731139314.9085298,862.4319454042584,794.3956242027903,819.4958454212749,827.8519904729143
1731139314.91243,796.3298932604868,794.6688322495372,744.9043150092527,826.8520882917217
1731139314.914954,741.4260692715567,794.934282884904,702.0042085464142,825.792565091715
1731139314.9163306,741.8962750647707,795.1946536206196,720.9213024617044,824.7404551761322
1731139314.9166665,794.1886643276131,795.4544492983578,783.3120838988767,823.722986794403
1731139314.9202309,850.5979980072258,795.7161443371573,839.2850998614957,822.7332430799029
1731139314.9241314,859.5100670494594,795.9797935708227,848.6730688663154,821.753928348294
1731139314.9280317,809.1210077231681,796.2443770226131,812.2560018689901,820.7740670286214
1731139314.930539,738.3753235795114,796.5090495487709,768.6572988144811,819.792230943287
1731139314.9319322,705.9228406798784,796.7735686046642,761.7078694693105,818.8119595631263
1731139314.9355645,742.3913704088117,797.0381014794057,805.6861791672231,817.8366861354366
1731139314.9358325,824.7176276418155,797.3028866611073,874.7869075097311,816.8676220003908
1731139314.9359372,893.3353409011593,797.5680448105084,922.6317322351283,815.9042350816823
1731139314.939733,898.7958256746676,797.8335725444017,915.7023187886518,814.9455453045625
1731139314.9436333,840.9546893148919,798.0994177439198,856.4601340945649,813.9909617566939
1731139314.9461231,769.3020459572591,798.3655401706222,780.7087771849519,813.0403979240309
1731139314.9475338,743.509325154256,798.6319250441144,732.0750508130824,812.0940011498802
1731139314.951434,785.4250326673784,798.898568805301,732.2513555500027,811.1518832557341
1731139314.9544623,861.497608955332,799.1654700998589,768.3121714860894,810.2140242781015
1731139314.955335,910.3459847278498,799.4326420710265,805.6786912432312,809.2803237038312
1731139314.959235,893.0781243486588,799.7001320121057,816.155797167507,808.3506974037044
1731139314.9617078,825.0805527718293,799.9680116574197,799.4072755157748,807.4251304186906
1731139314.9631355,763.5146264028101,800.236309308579,781.705920204452,806.503638527591
1731139314.9670358,761.314943119522,800.504909800974,793.3354146391179,805.5861486602433
1731139314.9706914,825.191245316628,800.7735303796671,842.2669799104735,804.6723870258894
1731139314.9709363,910.68426787513,801.0419105827497,904.8291369230515,803.7619338176262
1731139314.9733603,957.0798152696941,801.310223571101,941.7573648238581,802.854564978952
1731139314.9748366,934.0607620646265,801.5794033641936,928.6201798110707,801.9507542076102
1731139314.9772923,863.7967707641161,801.8507998121996,877.0446966882085,801.0518183644023
1731139314.978737,801.8112835795872,802.124770928329,828.118069721125,800.1590268549985
1731139314.9826374,792.2388374561083,802.398849550905,820.5987094646987,799.271599240195
1731139314.986538,833.419204336982,802.6675851469024,858.5893720600897,798.3850281612208
1731139314.9904382,881.6101660497834,802.9265132795458,906.4837944185615,797.4925962569215
1731139314.9922583,889.4122653113362,803.1799588013492,917.6828842913782,796.5921177993467
1731139314.992877,846.6208115068694,803.4464179099431,874.4778245573714,795.695035027765
1731139314.9943388,789.1974491097643,803.7504929848035,805.3055823376221,794.827769495394
1731139314.998239,768.8264211736254,804.0952956646855,763.2979814930301,794.0130900566501
1731139315.0021396,808.5153851756758,804.429616527539,782.4341705442673,793.2320736323388
1731139315.0054457,881.4364862476433,804.6509225481756,847.4588307028102,792.3962097261252
1731139315.00604,931.182338664211,804.6882076682697,903.8568497695258,791.383649692478
1731139315.0084617,917.5019447133841,804.6528182211559,901.6876142667459,790.1719757595197
1731139315.0099404,850.1196602044839,804.9362707735199,838.0833567807391,789.0024601752764
1731139315.0111566,782.0586886003913,806.06746854421,762.1998053665103,788.378617448402
1731139315.013841,766.6061907030067,808.265891103102,736.1466503098426,788.6807621750966
1731139315.0177412,812.7678502928089,810.9532421191919,782.9933192158605,789.445732801162
1731139315.0216415,876.9711668020705,812.7418048895373,866.2889508494452,788.9092201289698
1731139315.0240464,899.4926009384073,812.2269297739577,920.380605579203,784.8075935554741
1731139315.025542,855.8356748432493,809.2109814386101,906.541051976247,776.8927772326607
1731139315.0294423,779.3009140798646,805.3164566016071,845.9914996451434,769.6179837668158
1731139315.0300546,734.7905085689017,803.1366637945891,800.6407869881161,771.3406279584452
1731139315.0333428,765.3334479087433,804.2776659928958,818.6238217969008,787.9769143240102
1731139315.0372434,855.7526216194457,807.8317037309137,892.2433433860476,815.4604041131129
1731139315.039631,943.18554340009,810.7140421289964,963.9704994641398,839.4099554147915
1731139315.0401995,965.6350074809677,809.8163885570875,974.3315445304897,844.7777446814388
1731139315.0411437,909.6885601079904,804.3729166962905,910.9317202877802,827.9947640964975
1731139315.0450442,820.0217670648632,796.6839117419227,818.2738272360563,800.8541360661958
1731139315.0489445,763.7084182803277,790.6026809045935,761.0484975347022,782.3215805375153
1731139315.0489526,777.7665567619749,788.9077225280269,771.7471620543467,784.6531652599689
1731139315.052845,841.5160614042524,791.4984339990724,826.1227882110262,804.852591770219
1731139315.0552156,895.5778075927751,795.6855848577383,866.6115651921373,828.0974232563758
1731139315.0567453,891.755935862863,798.2687494201443,853.1873917254,840.0752646529983
1731139315.0606458,832.8806644960827,797.8215995133062,797.7378355528232,838.0943572179822
1731139315.064546,770.0503995706154,795.5590300632425,752.7647298580715,832.0918756989046
1731139315.0678506,760.0174002089061,794.2870451408785,765.3055928831959,835.1296370327826
1731139315.0684466,818.1602701037151,796.3215006693017,836.496833535458,851.571615486575
1731139315.0708,905.3746351273884,801.8824454911077,920.4092441912198,872.8134244674475
1731139315.0723467,958.8238285564302,808.9832555700883,960.9379916115324,884.0233987692283
1731139315.0749536,941.1656249747138,814.7360693330966,934.8205668357649,876.3204567056978
1731139315.0762477,868.9841362521336,817.1076322927819,866.9490233496217,854.4485128135117
1731139315.0801475,798.5099890391548,815.9940326306554,808.5966621787894,833.6309177486932
1731139315.0840485,780.7256593111105,813.0190392656261,797.8046920181123,827.9560294585832
1731139315.0863848,821.9169490199193,810.3047601424037,832.6200930240361,839.5282779879185
1731139315.0867486,880.970428823288,809.0953224488168,876.0545972698394,857.1704828763092
1731139315.0879486,904.9316372768888,809.1421390736439,887.0257039823008,865.8267763364865
1731139315.091849,873.3060217520159,809.1752198844299,852.5180853723526,859.0380555738134
1731139315.0957494,814.6164378318571,808.0172854781197,796.4594626158622,844.2194251793078
1731139315.09965,781.8326505122027,805.4961136864322,759.7126692081309,836.3495255438406
1731139315.1019697,807.4081461366474,802.5223104972827,768.1143583822914,845.2747816619668
1731139315.1035502,875.2625568098632,800.3320576657213,813.7070710270727,867.0869134253908
1731139315.1056466,932.6267677835199,799.5045154107902,862.4867026757482,886.6441476270085
1731139315.1074507,931.9919103368036,799.5350263023174,881.0869945703648,889.2708609626144
1731139315.1097076,869.3986712854867,799.3266584967126,861.5877841948914,872.3452395569147
1731139315.111351,788.4033405273905,798.2180180063966,826.3692227103151,847.5063963688149
1731139315.1152515,746.1417919383532,796.67264545933,809.7754686442314,831.5315835951949
1731139315.117554,768.1265193752374,795.9793100140521,830.0462512626377,833.0635076647765
1731139315.1191518,828.2553873685907,797.1475787705323,873.0095605574835,846.0930745078315
1731139315.1230524,871.0027989603191,799.9365826479998,901.836890554843,855.8516943672043
1731139315.1245446,858.1001293209663,802.9091059218146,887.2898078707824,852.2416481634289
1731139315.1269526,800.6659435874807,804.5166426213526,834.3950184364589,839.0532934415403
1731139315.1308532,749.1504062897352,804.2704594043287,781.4697724240023,830.5563711130977
1731139315.133139,749.3209239040401,802.952427387852,769.4525483048337,838.2120383937998
1731139315.1347537,802.0180567488514,801.7048540430513,806.1350899164702,859.3062597835075
1731139315.138654,861.3190911102257,800.8837451454326,856.540879799683,877.8750601768704
1731139315.1425543,872.6920938885243,799.7732729091239,869.5855700518064,877.5702814350093
1731139315.1434426,818.834523758643,797.4521702823598,820.1902864879305,855.7167446606188
1731139315.1444616,735.0254200621434,794.0266917028675,732.2499165058896,826.7237451737753
1731139315.1464548,681.6016081718915,791.0512000416672,662.839955962212,811.7702548209182
1731139315.1487231,696.1345453480625,790.59148168059,659.1218037813176,822.7413812811162
1731139315.150355,763.9090660433114,793.5554309024362,721.7763053831543,852.9748753763504
1731139315.1542556,830.3960290966194,798.6583746830373,804.6730694663092,882.1177685779119
1731139315.158156,845.5243416976641,802.995898046539,851.8440807278076,891.3838614336183
1731139315.1620564,803.5785589153477,803.8899121335252,841.5899020785453,877.275621172974
1731139315.1623406,746.0334204555114,800.5856473511444,800.5663816777804,853.0800789110139
1731139315.1643078,725.4606948759127,794.5329547953389,776.2307994063485,837.3816136075458
1731139315.1659567,761.0671531112513,788.222546452738,792.7177615259675,839.2840795027815
1731139315.1698573,822.8492199715482,783.666753813748,829.6722677196016,852.2611670809481
1731139315.1737576,856.806077724647,781.6497984283803,842.3353940971459,860.9082363427859
1731139315.177658,829.6898268379791,781.9985411900116,804.0746014590867,854.1162356335554
1731139315.1792157,756.7316968582205,784.2718798423614,733.2390787494319,833.4496164029628
1731139315.1798923,690.5648933257718,788.1231529813848,680.6201227741853,810.4391274244547
1731139315.181239,680.5013719114821,793.1037397858931,687.6795626166701,796.4141775418998
1731139315.1815584,733.9494659829336,798.3032231302645,750.2287437465325,794.4591864422532
1731139315.185459,810.0678822621161,802.4203442812608,818.4604424133008,799.7006976829626
1731139315.1893592,851.4478738481153,804.4527742818522,835.4783506699335,805.4108004989952
1731139315.1932597,829.8236749527096,804.5123252349049,784.4833512285901,808.050871347788
1731139315.195477,769.1229620229951,803.9617899760626,705.2712997627879,807.8472758028738
1731139315.19716,725.8515925015797,804.5325421469935,664.0215104722517,806.6176735638523
1731139315.200137,741.8044610035977,806.9836331858421,699.5499053194078,805.7651484088533
1731139315.2010603,808.3524923933052,810.3500907729363,790.6744778512017,805.6499592878536
1731139315.2049608,872.8134355395491,812.4012795434988,872.5578729571345,805.9629295193165
1731139315.2088614,881.9874626127954,811.0034706906021,888.4063211502072,806.3015695055467
1731139315.2110617,826.4341205031157,805.4987116718827,833.3647628725577,806.4751506725837
1731139315.2127616,748.8006247279678,797.3179995944752,755.5264864917776,806.5032384685204
1731139315.2139697,709.9635890631198,789.5023310079634,715.8863961292642,806.4835725691307
1731139315.2166622,741.1726052461192,785.2611736786595,741.6056582467681,806.4864036174579
1731139315.219035,820.5467865820711,786.1816069418082,809.0585480026772,806.5262437277457
1731139315.2205625,891.7054045813649,791.1513228555781,866.7555045533869,806.5845496327134
1731139315.224463,908.7376044738604,796.9392581547695,876.9938823095221,806.6401274509881
1731139315.2266464,871.3013303053204,800.3021262283871,842.7324515691073,806.6838588659305
1731139315.2283633,821.8808968348393,800.1219425582472,800.1365326508802,806.7174851641839
1731139315.2322638,808.0051125185626,797.8264772331373,785.4954004484406,806.7462960293996
1731139315.236164,841.1982867092911,795.7587739897868,805.3118044547186,806.7737661429421
1731139315.2379327,887.2784294969988,795.0295618059457,834.0794183982609,806.8003856097126
1731139315.2400646,896.177931520593,794.8328340410683,839.6356704384724,806.8250353371349
1731139315.242231,846.0210263304297,793.73157627434,812.8124899929971,806.8466061007142
1731139315.243965,764.2702672284524,791.4923075283868,776.2012638673727,806.8647010742047
1731139315.2478654,708.0056171894855,789.56229049341,765.9139385669323,806.8794660828387
1731139315.2487235,719.1236871426711,789.67226489786,802.164700774846,806.8910997261726
1731139315.2517655,790.6621969068277,791.9365378565627,871.8161282525749,806.899527596454
1731139315.2556665,871.552555478873,794.4014454999534,935.7820455439577,806.904461665751
1731139315.2568307,906.4063280987115,794.6874235137386,956.0730949071033,806.905806407358
1731139315.2578156,878.7678680521326,792.3521451379305,923.5257137767632,806.904110608004
1731139315.2595663,822.9300615921729,789.7510362062914,865.8507110793623,806.900530381918
1731139315.2634673,794.2577601567774,790.3659484756414,828.2597677272689,806.8958317636273
1731139315.2673674,822.0111767671135,795.8239372084689,839.1063846255759,806.888681291991
1731139315.271268,884.0506343405856,804.1074272225244,886.5077765724415,806.8747705553538
1731139315.2734,925.2928993412893,810.5660206394807,925.8776268034117,806.8491268814602
1731139315.2751684,904.8820258610037,811.0586143752229,914.5290686834851,806.8124537715652
1731139315.2757287,832.3443391434017,804.877087397567,846.7837556929612,806.7776218666377
1731139315.2790687,762.1813324914874,795.3504283254434,761.2696670319178,806.7670782477481
1731139315.2829692,751.180184469755,787.800690722363,713.587164468099,806.7928994724688
1731139315.2834778,813.1792048353564,786.3391755241514,734.8177318629826,806.8254646812757
1731139315.2868695,907.4344064548864,791.6165066634092,807.7857684768112,806.7811917394785
1731139315.2889848,969.4937252051647,800.8293552379805,879.8838623129577,806.5724478861642
1731139315.29077,960.1442955331637,809.7190227179906,903.3530638530772,806.2295473452954
1731139315.2946267,894.18414344262,815.0555632213776,871.8702863824283,806.0130893028329
1731139315.2946703,826.6141203796105,815.9938158416173,823.7371137435775,806.3404410189999
1731139315.2985709,807.4297425156744,813.7071782500861,808.035467386202,807.3864588035112
1731139315.3024712,841.6326470913392,810.0084482320848,841.538248193817,808.5060163823625
1731139315.3045695,887.2870325408167,806.2187492605593,893.8009198903508,808.0791976923745
1731139315.3063717,893.095316072664,802.9908148555651,914.5523590456914,804.5580120396255
1731139315.310272,843.6714838366588,800.7741928614194,879.8616482079408,798.7657769618409
1731139315.3135247,774.1165268756803,800.127501237893,815.723317310891,795.7033303179002
1731139315.3141725,741.5276778473594,801.4878217054227,777.1009574959614,802.7405393347539
1731139315.3180728,777.209110436409,804.7150265678731,800.0393595264838,823.2509777402082
1731139315.3182318,859.1364327474134,808.9605361452374,868.5569873099776,850.5690195007263
1731139315.320154,927.4559139702421,813.0402674376361,925.6152078138816,869.7272522358902
1731139315.321973,931.0075783015702,816.0202130508314,919.8718590997075,868.0400489328256
1731139315.3258736,867.8743355057444,817.5880067876103,849.2781994354459,846.0414445625522
1731139315.329774,787.2672222885204,817.9822275971577,764.4214592668001,818.5269311667644
1731139315.3324227,750.644771010813,817.5709895118555,727.6737280114495,803.8259226328887
1731139315.3336744,783.0142775492244,816.4433663955925,761.6307377415663,809.9109163494709
1731139315.335739,853.8304033747129,814.4182192734013,830.3315451229228,828.9150963944123
1731139315.337575,902.8867373818349,811.5312727153861,869.6809566610043,844.4561727585625
1731139315.3414752,889.5613184295022,808.5350851624172,841.6154300409542,845.2844149509554
1731139315.3453758,824.9132812212263,806.8017517118628,766.1375359419386,833.7859692487721
1731139315.349276,761.1936657764033,807.5330304184022,704.5718829891449,822.7956042946205
1731139315.3513207,748.8039391920674,810.8676973955074,709.181961785963,824.1424127271937
1731139315.3513231,796.3685250236641,815.5950018407947,781.6982539309755,838.6826723707777
1731139315.352986,865.3134379155248,819.659103485852,873.7044858375178,855.6523351926072
1731139315.3531766,901.8603587324944,821.0802488968577,926.0532929379893,861.4843584433959
1731139315.357077,880.2148690205627,818.7942018107916,913.8815258773823,851.0070708383064
1731139315.3609774,822.5990072523817,813.0982535202548,861.8278035645922,832.1620461739731
1731139315.3648777,780.1074026518775,805.573715254257,819.6266692753109,820.185072576093
1731139315.3669078,789.6733705096145,798.4934221563028,819.9293393987674,825.4229528110892
1731139315.3687782,842.5637230333589,793.934537371186,853.2805022747765,844.5313444358407
1731139315.3702188,891.3224429696917,793.0138431944063,879.8231834886654,862.705279523309
1731139315.3726785,890.2059941070313,795.6010774625282,866.3071252739759,865.6704169475609
1731139315.376579,835.2222662012783,800.5336848664848,816.1358303490683,851.6171295057432
1731139315.380479,769.3730240521545,806.0820486744797,767.0037251020146,832.8367605349681
1731139315.3824923,747.9127634101396,810.4595344518414,758.9754893889328,825.4281157714518
1731139315.38438,792.3929069165872,812.3564217576791,800.8207220554707,835.7090758795123
1731139315.38774,871.7727800874695,811.4336187390624,862.7248112195631,854.8163867990892
1731139315.3882802,926.3434983693331,808.4728032629503,900.3154114762131,866.0066864076481
1731139315.3891168,915.1344650224321,804.9061895005829,889.4187565832003,858.5637445486761
1731139315.3921807,848.5203571223465,801.946293432124,843.894344414291,836.8321183866796
1731139315.396081,779.5507441322596,800.0014346796893,803.6945812502655,816.8821054410722
1731139315.398077,760.6426196808441,798.8419699154811,803.4307037816286,813.3555724690286
1731139315.3999815,800.7388265801794,798.1998847397342,845.7113074381941,827.2060585296607
1731139315.4038818,858.4685829750706,798.0393207701532,899.234891384221,844.6347874636032
1731139315.4077823,877.4977927590315,798.204930357052,922.8857325767507,848.450356523789
1731139315.4080148,834.77707669287,797.996083501997,897.489726166476,832.6121034852824
1731139315.4116826,761.2046245847022,796.3866874929466,840.9337703750161,807.804470426611
1731139315.4136617,717.3481026847539,792.8656424504064,794.9405081127918,793.2252666993176
1731139315.4155831,744.3081937527517,788.0765900918548,793.5322483333775,801.1564559702647
1731139315.4194834,829.7413594973739,783.536224541879,837.1851292409517,826.7583022769095
1731139315.4224942,915.9832224790498,780.6381861667996,892.1471356737749,851.270999600545
1731139315.423384,943.4432732151007,779.8920308447574,915.3623667951088,856.1824803952984
1731139315.4269128,895.3592436004564,781.0699772467115,886.5475794283766,837.3837388103191
1731139315.4272842,809.6164204282195,783.9173493933264,823.7321727098081,808.3051595670246
1731139315.4292464,748.8017383445577,788.4508889757232,770.3269530568276,789.4451733377903
1731139315.4311848,751.7159909507043,794.3711569217327,762.5368613199571,792.3121663202696
1731139315.4350853,804.2926003552423,800.2520607944975,801.4833628342989,810.4854229540935
1731139315.4389856,853.2062937742513,803.6698964763511,852.563247282864,825.1620823220599
1731139315.442886,851.3776470317746,802.62669761324,874.1659658959364,820.8890320679374
1731139315.444831,798.0180595180468,797.2387919790908,853.0634480682381,798.6264185688619
1731139315.4458108,739.7164076431027,790.1317217202337,815.9429035447569,775.3262100290317
1731139315.4467864,731.2936120305203,784.9472399178511,805.429153438763,770.3569429851865
1731139315.4506867,788.86687597829,783.9891059036901,840.2889832544328,789.9144039956448
1731139315.4545872,874.2275115952812,786.8185885553372,895.2208700306255,822.0015300785742
1731139315.4572482,923.8292612158223,790.8479366092006,919.8707199204994,845.7634247018862
1731139315.4584875,899.137659284688,793.3661039959595,882.2529060562379,847.4528160439196
1731139315.4604156,817.7438708546835,793.362473077732,799.1787808806603,830.3582871059007
1731139315.462388,740.1177288180035,791.8262118185451,726.1113906804418,811.2184504448738
1731139315.4647088,722.3841636061788,790.5193139684152,713.1408161515564,806.4531261394013
1731139315.4662883,772.769227761387,790.406772533558,763.3519943175271,819.3735900474238
1731139315.4701889,846.6424117703344,791.0495236986552,829.3097822689682,838.4266382315429
1731139315.4740891,884.0331713573319,791.3139210649285,852.2233855522958,847.5102176798467
1731139315.476,858.7595082350527,790.5926220962658,811.9532196771611,839.652397716141
1731139315.4779897,798.7003777653258,789.3809576557035,745.4352830073277,822.7336394843784
1731139315.48189,760.9541889692321,788.7720965535783,716.7428901896067,812.6408728082648
1731139315.4836068,783.3763629100076,789.4745597239522,763.1179313000429,819.7049605995817
1731139315.4857905,853.1008938922047,791.30661614463,862.4380152672709,839.7431332343558
1731139315.4896908,917.4981062534696,793.5387230725551,949.7832060525615,857.0817290631103
1731139315.4915848,927.5330912643491,795.6260067617208,969.1880029476057,857.0767849349095
1731139315.4920022,877.5554748539496,797.6027295433589,917.3464053108544,837.9931326091033
1731139315.4935913,809.4142589863113,799.8311840345309,843.7217603458233,812.6313674875486
1731139315.4974916,778.0938514154275,802.4106303777978,808.5192281773549,798.2700913337612
1731139315.501392,807.0890649417927,804.8257124721076,834.3757573197379,802.9471419876138
1731139315.5025048,870.0028695848056,806.1896468781374,891.2342766594256,819.3119980269223
1731139315.5052924,913.5190922181259,805.9187621155842,925.0452693959791,831.2658909592873
1731139315.5071695,902.6834903065322,804.2519772933899,904.4887781664922,827.8828654142707
1731139315.5091927,850.4755528353629,802.0784162636423,846.043263354674,812.727751190106
1731139315.5130937,806.5633476795196,800.1290313308631,797.3564238613155,800.5387295162689
1731139315.5169938,814.6465129515576,798.2680759684923,794.788270699772,804.2096828632989
1731139315.5208943,874.428828827738,795.6754469772426,832.3611168231064,823.3615223643387
1731139315.5214028,940.131681566041,791.9153675892369,868.2423908041727,844.2051195290427
1731139315.522754,956.7473453757992,787.9267655966303,861.978527415927,850.6742734326691
1731139315.5247946,904.5211095205308,785.8623575366535,810.1069435949918,837.6087276025909
1731139315.5267563,816.1398637345145,787.6871888148174,750.5208508808454,815.4101605634966
1731139315.528695,752.9956465158584,793.6246077093737,732.6958229957813,802.4524944930807
1731139315.5325954,758.7611382467624,801.7527286778,778.2891389513726,810.9928521100884
1731139315.536496,826.241851390552,809.0897758067978,863.1979215763756,837.433207508408
1731139315.538339,903.5943090319548,813.2923403522522,934.4602708668376,864.7078404971774
1731139315.5403008,935.3701294757498,813.7241892515809,948.5464502557094,875.2798452982308
1731139315.5403962,905.8560550873211,811.3255990010703,902.1515985405089,864.6582147354933
1731139315.5442967,849.6599090056391,807.6725324969508,833.0537093822124,844.5432569592682
1731139315.548197,820.8265812252494,804.049963112501,791.1526439064212,832.9048577100605
1731139315.5520976,846.2303051137177,801.109094802692,801.7266704646673,839.1208335582149
1731139315.5539231,902.5142714303641,799.1158045834144,848.2357571347554,856.5717584998447
1731139315.5559978,936.1081748610923,798.369436888716,886.7512680548974,868.8371465313933
1731139315.5591989,909.3581039091748,799.308334963552,880.0737193887986,864.0858924733332
1731139315.5598984,833.8424254182717,802.1278198976939,825.4157989110169,845.3734760927908
1731139315.5615103,762.8127479969903,806.2167981053094,755.5026391801266,828.1510635391982
1731139315.563799,748.6331318405239,810.005320294608,713.4793710617755,827.11863872412
1731139315.5676992,799.9901564887573,811.5942322087499,721.2988156440281,843.5144367159302
1731139315.5695078,874.2182969423523,809.8843061990722,765.4456204734779,863.666967234314
1731139315.5715995,911.6471053052085,805.3847159385311,810.2382531234108,870.2847636184537
1731139315.5755,884.0799354019907,800.0277990047614,827.5258630137415,857.125363664695
1731139315.5780969,817.175907982035,796.0866953957884,818.5199496059201,834.5281042349654
1731139315.5794003,767.8904517394529,794.9620340001076,809.602350779238,820.8380121584435
1731139315.5833008,775.9665269226969,796.5756430145681,825.5357500241066,826.8027471280726
1731139315.5850923,830.4647390708785,799.5673998625565,863.4242976875853,846.1688577842948
1731139315.587201,879.2988309610985,802.0523576444019,891.4212095514355,860.4893808089558
1731139315.5911016,873.1214682830322,802.5883639874321,875.3425359594178,854.1325593515246
1731139315.595002,806.5391026984798,800.9727999838358,811.2006186293421,827.1003760055979
1731139315.5962644,723.107727014575,798.4206366674458,734.643512367458,795.4293315228141
1731139315.5969949,681.1156969328428,796.8582978018212,696.565809871561,779.2137249606786
1731139315.5989025,708.2599177439611,797.6434976807337,722.786763211639,787.8422909930306
1731139315.600677,780.8193272828328,800.5740354203051,790.6899054161044,813.64321858874
1731139315.6028028,843.0135343621068,803.9795404066106,844.0175832921525,838.341462087957
1731139315.6067033,850.9822546211236,805.9136108596556,836.6378953736547,847.004652195436
1731139315.6106036,806.4942680804612,805.5795291462742,770.7964848320141,838.5775064911852
1731139315.614504,753.2312134028848,803.8932707109524,697.2496721481288,824.8911960131361
1731139315.615893,738.6628508363501,802.7402437954718,675.0464890620867,819.3604301599505
1731139315.6162615,773.377961272148,803.4912929788628,723.363292302067,825.0895242721714
1731139315.6184044,822.3561463370153,805.8988026274118,805.9747341328276,832.5041234819261
1731139315.622305,835.6851246365721,808.1921866846734,861.8231600793799,828.37200858588
1731139315.6262052,792.4886811664226,808.3040910252907,855.627086840617,808.3020353916569
1731139315.6301055,720.5547667966175,805.3412346500733,805.383672100571,781.9405034875084
1731139315.6310184,674.88139300278,800.2365065655079,764.142961873687,766.3467550091993
1731139315.6318464,692.9020201244969,795.1162649028211,773.1063351152875,772.8471752177276
1731139315.634006,763.3331520818791,791.8771829780751,826.8877940540317,797.9139766900042
1731139315.634791,834.3408092002343,791.059842135173,879.9126459404006,825.4070539149682
1731139315.6379066,854.9732996973054,791.8306165609436,887.1560456457648,838.6618537024258
1731139315.6418068,816.7033122450358,792.949220476326,843.5734364909906,833.142021988018
1731139315.6457074,760.7630895739992,793.8156764146229,788.2254271363581,819.5923647845717
1731139315.647431,743.9067276917419,794.7357797193109,769.5338678716003,814.8696223607013
1731139315.6496077,789.9596934616604,796.3149240106779,801.897600412561,827.6666865940597
1731139315.6535082,867.8633200010047,798.6418668471499,851.9265302610372,850.8828221275865
1731139315.653689,915.7102086557627,801.0297012286429,867.0133374291174,867.0892176606844
1731139315.6574085,891.4890207489734,802.5463326092176,821.8029526949355,862.6295235642591
1731139315.661309,808.4950546291067,802.8757946595687,742.3209444158673,838.7814447645212
1731139315.6630156,726.2658710691501,802.733228215975,686.9566803846207,811.0478577550917
1731139315.6652093,704.6677695433747,803.3728192036741,700.3559562812019,797.4126585093222
1731139315.6657724,758.033506598891,805.4968235795026,778.1961745266201,805.0079608689651
1731139315.6691098,845.0748297608006,808.4829164793608,870.3875957799107,825.4864888121898
1731139315.672587,901.5760746590892,810.6869812108284,918.6016803149195,842.3653317704591
1731139315.67301,889.9473513701549,810.672474357212,898.124796948465,844.3338456963352
1731139315.6769106,827.1721340526465,808.3494274958949,832.9455418586101,833.9322593032599
1731139315.6786,769.517827090952,805.0311294759168,774.8639754108584,824.6316330479423
1731139315.6808107,766.2854905766222,802.3775298676776,764.2391744557116,828.7003470677051
1731139315.6847117,819.9211032641697,801.1982813470319,802.1693440036269,846.0477158688067
1731139315.6886115,885.1045394726395,801.1584497874035,853.6148005515853,863.738026015256
1731139315.6914847,907.3888095418395,801.5012639589187,876.9070781226084,866.9219596653065
1731139315.6925125,868.8942777894376,801.9162983823534,855.7609364440981,851.971668088559
1731139315.6941848,802.8715508342384,802.6437379330605,809.6404631484882,830.4299833533796
1731139315.6964126,765.5240219755791,803.8373297291945,776.2563456923433,820.1115953667337
1731139315.700313,789.229279041306,805.0705292024492,781.3284124813308,830.6687128632215
1731139315.7005267,856.0126340987537,805.6439452918186,819.243738201722,855.6390600118457
1731139315.7042134,912.512899976119,805.29635247561,858.6094176807143,877.4489675557633
1731139315.708114,913.4914354456739,804.4254042560934,867.4343728993971,880.9618411787452
1731139315.7097695,858.2891807952009,803.6336058019823,838.3135857021917,864.3064614700384
1731139315.7103827,790.9646551211389,803.2262234632789,794.4094505059286,838.5905185818096
1731139315.7120142,764.2715107851911,803.1365082657558,771.4602597978186,817.9755569878396
