timestamps,eeg_1,eeg_2,eeg_3,eeg_4
1731654246.9391143,807.3337977152141,807.9261654225154,804.3056025976233,805.379950287671
1731654246.9430285,784.7573479670372,806.7775944615402,804.9958427913192,804.4091679216609
1731654246.9469428,770.543239234212,806.2298900148614,803.983999036458,804.7876643918136
1731654246.9508567,767.2793053342497,806.530542935903,800.7021865664681,805.6584450986845
1731654246.9547713,771.0825381342502,807.4592420475383,796.2000289452461,804.3964768059163
1731654246.9586854,775.9965805351536,808.4855110377794,792.550712938745,799.3422735001484
1731654246.9625998,778.7249142168562,809.0526891248259,791.3879614887453,791.836555761694
1731654246.966514,779.4767926774754,808.8293675913911,792.5917305920536,785.2681736125977
1731654246.970428,779.5210440040182,807.8643005802369,794.3017037862492,782.1269172226923
1731654246.9743423,779.2624899008036,806.6476786845977,794.4496951311523,782.15216339186
1731654246.9782565,778.787439134302,806.0334463868786,792.5663033955127,783.2497763882419
1731654246.9821708,779.035782264526,806.8917348623129,790.1943591091006,783.7727191924838
1731654246.9860847,781.2313853036457,809.4903708871587,789.4634279863521,783.6580894950397
1731654246.9899993,785.0983419783759,813.0082286680085,791.1300103598774,783.6702485026656
1731654246.9939134,788.312584476057,815.7847882439812,793.8861074273365,784.1001377107618
1731654246.9978275,788.1917759013985,816.3959220867038,795.5095904842201,784.4331930941411
1731654247.001742,784.1112090482872,814.7565485034663,794.7751455811234,784.1664513125984
1731654247.005656,778.4931892376695,812.2155989687658,792.5068349141367,783.818680386743
1731654247.0095704,775.4673082155241,810.4647214175991,790.983924271651,785.0030541914997
1731654247.0134845,777.958699601031,810.2137853255261,792.2019888264579,789.1373106673587
1731654247.0173988,785.2605595592436,810.8217152091408,796.2822293094968,795.6548323947707
1731654247.021313,793.3453476780657,811.1638055524915,801.2103648848122,801.5057961457759
1731654247.0252273,798.2001691629908,810.8490975869311,804.1635681927268,802.9816177350738
1731654247.0291414,799.3039629892698,810.5886901906102,803.4881573394184,798.6546110922535
1731654247.0330555,799.5984176855856,811.3607642435112,799.8224834221793,790.8007466673218
1731654247.03697,801.78919692736,813.2003568708062,795.515888896244,783.9023359319659
1731654247.040884,805.0284247755351,814.7909616481614,792.8932442384047,781.5487129043504
1731654247.0417817,805.7651721229553,814.2519302830216,792.7917245958229,784.3704215452415
1731654247.0447984,801.7778573347534,810.4662833633978,794.4017214030207,790.3751788525777
1731654247.0487125,794.72607931983,803.960776610314,796.276165715147,796.8363221366722
1731654247.0526266,788.3350421157071,796.8109879133655,797.5255733306167,801.942520751477
1731654247.052727,784.3933625719686,791.6934116573927,798.2800963994325,805.2201520545946
1731654247.056541,781.1926898781264,790.6012480094341,799.2226263122305,807.0350091065972
1731654247.060455,776.1743399957946,793.8537034908396,800.7249788388656,807.9798944502469
1731654247.0607717,769.7660573881053,799.9139335707172,802.342143682182,808.556160968825
1731654247.0643694,766.0357065635021,806.1619359121842,803.0480844436947,809.0585844165962
1731654247.0682836,769.1778797500264,810.2321973973085,801.9715178173832,809.5383506798344
1731654247.0715466,779.1857697935262,811.138424344206,799.0269417806963,809.911399814267
1731654247.072198,790.9097277571732,809.5093631219792,794.9991178687854,810.2292308446098
1731654247.076112,797.5427034667123,806.8698602063201,791.1152222211823,810.88609882927
1731654247.0763335,795.6706086014406,804.5829001254568,788.4801663807507,812.5138884672443
1731654247.0766668,787.7820945354644,803.2281657324959,787.7203424088016,815.5934913564109
1731654247.080026,780.2469329745525,802.6848430341469,788.9154943290496,820.0332427134267
1731654247.0839405,778.3497542966732,802.5687823728857,791.6881056614767,824.9191615859147
1731654247.0878546,782.294592770889,802.5682995258097,795.3169073790244,828.5400585555669
1731654247.090366,787.4116104126439,802.5396334158673,798.8677733290804,828.8311337387339
1731654247.091769,788.4583060989269,802.4625485977118,801.4098937510756,824.3373471397049
1731654247.0918956,784.448003647697,802.3663207033793,802.3144758323981,815.3574567551543
1731654247.095683,779.8354192247265,802.2779317258106,801.4957910556707,804.3647447726343
1731654247.0995977,780.8940427587684,802.2047939852672,799.4136349190705,794.9437062869637
1731654247.1035116,790.240946034503,802.1407087640621,796.7934296411469,789.6882451527028
1731654247.1074257,804.0900096604063,802.077308071964,794.2410905582681,788.7293208970531
1731654247.1074576,814.5775401218083,802.0104502891743,792.0347191946073,790.1708218284234
1731654247.1091857,815.425835959615,801.9403681906774,790.2419761134785,791.8384276688064
1731654247.11134,806.6302641318447,801.8690123054403,789.0300367069685,792.6273841710856
1731654247.1115518,794.5967075776396,801.7978400278024,788.8498448706982,792.5868935137249
1731654247.1152542,787.517141901258,801.7271749630061,790.2694241315709,792.2469081944886
1731654247.1191683,789.3668553133331,801.6566406084962,793.5357013869467,792.0179130956949
1731654247.1230197,797.1312637429594,801.5857845205204,798.1963489259434,792.0041819472465
1731654247.1230826,803.5376854627029,801.5143941808528,803.1007237786341,792.1137355570389
1731654247.126997,803.1877487432582,801.4424828527208,806.8441661917981,792.2278708961312
1731654247.128005,797.095869939117,801.3701424272206,808.4136547067321,792.290610715723
1731654247.130911,791.8486804705972,801.2974313101811,807.6273691840212,792.307921026125
1731654247.1348252,794.0184047061333,801.2243479157898,805.0581839618025,792.3086592437829
1731654247.1385818,804.3826863046522,801.1508578346514,801.4966505089963,792.3134824549686
1731654247.1387396,816.7111343939257,801.0769265529235,797.4176530392239,792.3266069777835
1731654247.1426537,822.2756864580263,801.0025323704369,792.9671912015931,792.342539803492
1731654247.1464367,816.679839923488,800.9276607494527,788.5096083942093,792.3550396857604
1731654247.146568,803.6123800043231,800.8522945587515,785.1563357080024,792.3614375657966
1731654247.1468246,792.3579539187139,800.7764139299383,784.5812562002008,792.3622627055887
1731654247.1504822,790.7851537310432,800.7000094304917,788.023484759375,792.3590843797471
1731654247.1541438,799.2779628975026,800.6230974875507,795.1791283312728,792.3529348096619
1731654247.1543963,810.5214187040187,800.5457149002399,803.9431408962984,792.3439674851346
1731654247.158311,815.4111098724503,800.4678738045321,811.390740339894,792.3318610834986
1731654247.1622248,810.3232778794514,800.3894926121776,815.4114549820918,792.3162932119086
1731654247.1656442,799.808169679838,800.3103729928428,815.8334786894137,792.2971488269781
1731654247.1661391,792.5730256228292,800.230317607483,814.2254686532283,792.274481635264
1731654247.169706,794.22086534813,800.1494036319275,812.5864291474373,792.2483867229706
1731654247.1700532,802.80867357926,800.0682206215246,811.9637537069118,792.218908441698
1731654247.1739676,810.7324184566365,799.9876794657978,811.9760186047475,792.1860250651223
1731654247.1778817,811.0978866530158,799.9081012734134,811.4030202565069,792.1496979977815
1731654247.181322,803.2186886073273,799.8279556224325,809.2329312992798,792.1099496721387
1731654247.181796,792.9419423885879,799.7436173648636,805.4210343200128,792.0669133404751
1731654247.1844635,787.8552798381211,799.6518468056853,800.9998074641824,792.0207813660375
1731654247.185268,791.3340595208181,799.5550008846607,797.5982402343603,791.9716138199657
1731654247.1857102,799.9969616941778,799.4650239688709,796.6425260589939,791.919101845973
1731654247.1896243,806.3929265394308,799.3988020569449,798.6162128591933,791.8625618547444
1731654247.193539,804.8054638303742,799.3601898107249,802.7852854700809,791.8014681318507
1731654247.1974528,795.6883802375085,799.3171973646619,807.5804855887286,791.736461541735
1731654247.20083,785.2269895710538,799.2011986812114,811.3903136011137,791.6700007079777
1731654247.2013671,780.3487635072607,798.9588910190604,813.2369938035715,791.6052366952856
1731654247.2032833,783.254409621683,798.6525758089937,812.9929878877712,791.5423915058379
1731654247.2052813,789.9726535562805,798.5305511752896,811.2133573547137,791.4745937225632
1731654247.2091956,794.0470449299247,798.9363073332454,808.821162433239,791.3885046752894
1731654247.2131095,792.1551617125536,800.0075123929222,806.7399687263534,791.2751801356698
1731654247.216207,786.9522081864005,801.3779429827769,805.522401912758,791.1489583050816
1731654247.216392,784.8781927282819,802.2918959781534,805.1732268756432,791.0575722781055
1731654247.2170238,790.8310023994147,802.2638148815339,805.3174055411123,791.0571712822194
1731654247.2209382,804.0322369339796,801.7504638559582,805.5487447292758,791.142091535151
1731654247.2221026,818.3268036285209,802.0231995924167,805.6586640739457,791.1716854694035
1731654247.2248523,826.6210435512779,804.086079745356,805.6399503758227,790.8974236061609
1731654247.228767,825.9750434720136,807.5462437877474,805.5719446720544,790.1861895070905
1731654247.231954,819.4196158052889,810.6249431110714,805.5201645852096,789.3825076931046
1731654247.2326808,813.1745049209294,811.5103744434565,805.5027894084827,789.4892327813549
1731654247.2365952,811.5905870483632,809.9034432773012,805.5061555991556,791.7459656729203
1731654247.2405093,813.9449363471023,807.3159551621584,805.5114182349604,796.6178179574961
1731654247.2409222,815.6742770157148,805.8094380869773,805.50928212163,802.9917127426821
1731654247.2444234,812.9283120827561,806.3023099972776,805.5003774523839,808.5363056723472
1731654247.2475162,806.5052778068314,807.9364946106199,805.4892229413172,811.1927549223524
1731654247.2483375,801.6903146952125,808.9893967435947,805.4792023071519,810.60398062877
1731654247.251092,803.9320835821226,808.4193089467469,805.4711144024869,808.2633781409054
1731654247.252252,813.8676099112114,806.6270978144942,805.4641650453892,806.2879621507084
1731654247.2561662,825.9741545511114,804.8599018533671,805.4573884719988,805.8974625482036
1731654247.2597418,832.344866364606,804.0273189324605,805.4503651212556,806.87198054871
1731654247.2600803,828.8515386736597,804.1245722674519,805.4431883612847,808.313421049311
1731654247.2630782,818.689448574468,804.5834362408011,805.4361292869074,809.7998428671301
1731654247.2639947,810.0881902393278,804.905052690387,805.4293816077186,811.6753177251794
1731654247.2679088,809.6875032718968,804.9446623865982,805.4230008945954,814.1590166278077
1731654247.2718227,816.9139525218371,804.8107865753949,805.4169653284868,816.2988627702757
1731654247.2757373,824.2195798805186,804.6564645230719,805.4112494713534,816.1534861440678
1731654247.2785614,823.340712447125,804.5593753846852,805.4058551947802,812.4750040079732
1731654247.2786405,812.6094473090814,804.5166416159094,805.4008033628862,806.5475343860982
1731654247.2796514,799.1457967383856,804.4926836497289,805.3961164701088,802.2689599672833
1731654247.2835658,793.6696523748961,804.460142371139,805.391816654419,803.7796395831588
1731654247.2859771,801.7390011647046,804.4123063184303,805.3879412010826,812.118386543545
1731654247.28748,818.5671422677455,804.3555435719368,805.384554347635,823.6682769745441
1731654247.2913942,832.1255405777912,804.2978736756743,805.3817248233424,832.1373541096036
1731654247.2942023,832.4825329984642,804.2430229397806,805.3794588648193,832.9661166520604
1731654247.2953084,819.761072240352,804.1905516935982,805.3776327170071,826.7126532589881
1731654247.2973807,803.8744674059864,804.1385121219811,805.376025546848,818.4647018646059
1731654247.2992225,796.1397947603822,804.0855331658142,805.3745384784156,813.597783230038
1731654247.3031368,799.9662895029725,804.0313563858352,805.3735270186443,813.434458496286
1731654247.3070507,808.5749027637913,803.9763710383387,805.3739129091051,814.5078948962225
1731654247.3097644,811.407734885889,803.921009380674,805.3766198108149,811.9353295050088
1731654247.3109653,803.3613521461459,803.8654598847019,805.3812563649168,803.8042123864216
1731654247.3148794,788.9562062537847,803.8096968170835,805.3849629481372,792.7747925529958
1731654247.3162005,778.3706109000698,803.7536279480902,805.3833158134933,783.7801664029159
1731654247.3187938,779.1579724156288,803.6972006806956,805.3747031905416,780.10154540542
1731654247.320862,790.5347107407193,803.6404224076613,805.3664165775938,781.1827056684239
1731654247.322708,804.4659308574758,803.5833284419892,805.3758748966534,783.7091636722157
1731654247.3253264,812.1941811740877,803.5259458155152,805.4187373323667,784.6644727056588
1731654247.326622,810.8281007105987,803.4682814556578,805.4837673360685,783.6862895560342
1731654247.3305364,804.897864727443,803.4103386430704,805.5133352528362,782.9338811256446
1731654247.3344505,801.9154637038556,803.352146614902,805.4251440163948,784.845757218912
1731654247.3350198,805.7509582373787,803.2937741929354,805.1975452422473,789.8114951626517
1731654247.3383648,813.3292073883714,803.2352959335984,804.9765191620427,795.6822745454676
1731654247.3408885,817.3551074828321,803.1767061777421,805.0808666909911,799.4048972931454
1731654247.342279,812.7284418915723,803.1178401059708,805.7999382914008,799.3132862322858
1731654247.3461933,801.220683609929,803.0584245444484,807.0707355836242,796.202800894827
1731654247.3501074,790.4762168390434,802.9983543115225,808.3297762349365,792.4793528463177
1731654247.3538394,788.1715286567957,802.9380901315043,808.780316865929,790.2895822238008
1731654247.3540215,796.1123886614619,802.8787608285874,807.971285002514,790.2063357740635
1731654247.3557472,808.9221595207289,802.8214294849274,806.2557902398871,791.3517953410857
1731654247.3564503,818.1553789107659,802.7654817811875,804.700820358239,792.573862520634
1731654247.357936,818.4818865329764,802.7073150963346,804.3957250699905,793.5541097033013
1731654247.36185,811.2292603298357,802.6416330150139,805.5961374119779,794.9718888671795
1731654247.3657644,802.793066364258,802.5669198612599,807.3648905445293,797.7036138573001
1731654247.3696785,799.3940023839365,802.4926831309633,808.1020115921343,801.7927434543276
1731654247.3720124,802.3982804619376,802.4402847295141,806.7085357684755,806.0759531422896
1731654247.372659,807.8253199657364,802.4276603707215,803.5527924541841,808.8248464686025
1731654247.3735929,810.1819016359084,802.4388056292732,800.4074521161549,808.9486556744093
1731654247.377507,807.2352472312596,802.4022961666698,799.2457704907284,806.8351683370951
1731654247.381421,801.7367696101367,802.2224117019954,800.7531753921138,804.1883071223783
1731654247.3853354,798.8733982827468,801.8885085420724,803.7739199040435,803.0154829239106
1731654247.3875744,801.8394445301911,801.61085721311,806.1990248368734,804.5122102797617
1731654247.3892496,809.2612037682164,801.8310799797301,806.5458639795968,808.5030959321235
1731654247.3906322,816.3802734819317,802.957951141094,804.8726229704844,813.5699615075235
1731654247.3914783,818.7961914806361,804.9139662625901,802.350885846576,817.6412753661623
1731654247.393164,815.776996280633,806.9236728811651,800.1101200788842,818.8378716472344
1731654247.397078,810.7361782877884,807.9660987620772,798.5422642450974,816.4040498232378
1731654247.4009924,808.6475611573642,807.6906653396727,797.5685659133295,811.3218733871216
1731654247.4031365,812.3409415592387,806.934441284073,797.2563553364174,806.0397005808674
1731654247.4049065,820.431455162576,807.1712410652215,797.8907926218618,803.1710209395261
1731654247.4088206,828.4934930056257,809.2421723733834,799.4040745182582,803.9057055952926
1731654247.410298,832.6001048712163,812.4923180691286,800.9316907726582,807.3351421304511
1731654247.412735,832.3132151781967,815.1174678670154,801.1782020243454,811.2556252936001
1731654247.416649,830.4863900928941,815.4404596778792,799.385042273392,813.7530925438231
1731654247.4186983,829.947068058867,813.0625540192349,796.0349510598242,814.2406612568736
1731654247.4205637,830.0653984769313,809.0335731149929,792.6659745364112,813.2791913369019
1731654247.4244776,826.6365419772426,805.0524110413974,790.9623115043837,811.7204711398978
1731654247.425517,815.7105998381905,802.4208851332295,791.8313836972671,810.1386858866463
1731654247.428392,798.2569865390761,801.4843539883394,795.0507237086234,808.8350311609373
1731654247.4291177,781.233071248402,801.7474649103596,799.5298456751207,807.9827327621313
1731654247.432306,773.2798886149718,802.3420377481243,803.8293589918921,807.6098713482498
1731654247.4342606,777.9864245767187,802.4692577965102,806.6093641279082,807.5710984462925
1731654247.4362202,790.3682548014244,801.7112264714791,806.9644389814187,807.6527763914794
1731654247.4401343,800.0935900065547,800.261034506359,804.7463328711514,807.7076013824553
1731654247.4440486,799.3978983047945,798.978213576556,800.816154138666,807.6965451207104
1731654247.447937,789.3494740652712,799.0502607576127,796.9477276826399,807.6475248870283
1731654247.447963,779.1696301665207,801.2822238467236,795.1720383190715,807.5985054211493
1731654247.449823,778.9808198507338,805.4799869136095,796.7531489878515,807.5676405071231
1731654247.451877,791.7616664660122,810.4752032298969,801.3867142410407,807.5531015909739
1731654247.4557917,810.8547288691026,814.8204289952495,807.2172825996055,807.5455813223723
1731654247.4597056,824.8425798264858,817.5517399838674,811.7876036328836,807.5383699512184
1731654247.4604025,825.8927395053637,818.3856856446495,813.3865707808129,807.5300721027388
1731654247.4636197,815.2610942015484,817.3600014713913,811.9556069839975,807.5224560487138
1731654247.4653847,802.0569068436546,814.5239919419165,808.9988179347591,807.5175524377998
1731654247.4667566,796.4293765426984,810.1332847458184,806.5905368177414,807.5162424668262
1731654247.467534,802.2604712173118,805.0706118217935,806.1057620387356,807.5183682104092
1731654247.4714482,814.6462411348458,800.7953401588877,807.4169449905611,807.5234284155906
1731654247.4753623,823.9273748624869,798.5941069835586,809.0229897591322,807.5310914971991
1731654247.479277,823.1961063680295,798.7545190547249,809.0584095418234,807.5413095415323
1731654247.4809468,813.5215962912448,800.4693859223839,806.5790998217902,807.5541890407235
1731654247.483191,802.8433999405429,802.5324511179829,802.2650059857705,807.5698365450017
1731654247.4855762,799.511985095562,804.1049807393766,798.0173135112766,807.5882888219663
1731654247.4871051,805.7669734677775,804.9277989476584,795.7285593988984,807.6095238227944
1731654247.4910192,816.3661632802036,805.079004144107,796.1402026011702,807.6335038057814
1731654247.4949336,823.1954346967962,804.7510011647748,798.5983005410081,807.6602113922319
1731654247.4952874,821.8101141185463,804.2075360858319,801.7577619943062,807.6896614601338
1731654247.4965088,814.5566844000975,803.7319949914109,804.5522892495147,807.7218837782709
1731654247.4988475,808.0322653433615,803.4926326331529,806.6552581605355,807.7568792334463
1731654247.502762,807.3297694111918,803.475533822637,808.2024532806939,807.7945724733872
1731654247.5043955,811.9478549251202,803.5612242144083,809.1912810319283,807.8348133613244
1731654247.5066762,816.6516614385911,803.6425870340578,809.174996821975,807.8774829713269
1731654247.5105906,816.3895027993448,803.6792472983435,807.5384695544884,807.9226882044404
1731654247.512071,810.9835861832853,803.6829578609079,804.1160020046375,807.9708822521383
1731654247.514505,805.4922086981178,803.6799536178346,799.6231843696053,808.0226397463465
1731654247.5184188,805.8362711674986,803.686113756063,795.5097353624767,808.0779561756185
1731654247.5223331,813.4302325680202,803.7028838249446,793.2656790100061,808.1354585864641
1731654247.5232153,823.52159972429,803.7245828134738,793.6186662565691,808.1925567008805
1731654247.5262473,828.7945440666227,803.7460100893703,796.1580124311096,808.2475619615337
1731654247.527633,825.2730499048637,803.7654190695795,799.6293092044767,808.3033045922658
1731654247.5301616,815.5989780949538,803.7836384214842,802.6729165843917,808.3689778153829
1731654247.5301723,806.9650980270003,803.8020855687536,804.4952142027372,808.4551763418444
1731654247.5340755,805.3939926157065,803.8215450385795,805.07538044402,808.5603124950843
1731654247.53799,811.0130196668763,803.8420387555667,804.8953113560696,808.6567151911182
1731654247.5419042,818.1427083950351,803.8632465471879,804.4980403546457,808.6961874129208
1731654247.5420349,820.1095307352454,803.8849001825757,804.1983252553879,808.6527203161708
1731654247.543195,814.8510099833102,803.9069197811413,804.0520950511475,808.5894514479177
1731654247.5458183,806.6973865649846,803.9293546524366,803.9816091207057,808.684356013259
1731654247.5497327,802.7814907619543,803.9522778936753,803.9043152353246,809.121551217161
1731654247.5536468,806.9150098152564,803.9757276395806,803.7884924722567,809.8247839472451
1731654247.5575612,815.9369297423417,803.9997043468595,803.6445130716808,810.2014245026307
1731654247.5587573,821.6882897632239,804.0241909453573,803.4944949746515,809.2530472102106
1731654247.5608542,817.2982280680408,804.049166461431,803.3518243470942,806.2858163065531
1731654247.5614753,802.8888687791937,804.0746080569943,803.2177791943333,801.829398896419
1731654247.5650575,786.0068615864027,804.1004950804833,803.0876338285509,797.7668564247662
1731654247.5653896,776.1081518473125,804.126827553752,802.957030902477,796.0802788635692
1731654247.5693038,777.2910029616495,804.1536502440324,802.82448919301,796.9969546649901
1731654247.573218,785.2345926592913,804.1810471091624,802.6906842164414,798.2332974601595
1731654247.5743191,791.1201806678087,804.2090692378465,802.556791464359,796.3796039512107
1731654247.5771322,789.44325725886,804.2376115484506,802.4234619983591,789.7249203591439
1731654247.5796738,783.0462018837314,804.2663509270735,802.2907099191157,780.3868493982717
1731654247.5810463,780.8370504673707,804.2949189198769,802.1582620559876,773.7083807520575
1731654247.5849607,789.9496358288376,804.3233698357066,802.0258878300855,774.7585348113238
1731654247.5888748,809.0323035745813,804.352655539483,801.8935145842618,784.24279676754
1731654247.5898812,828.4369486407682,804.3844251979697,801.7611788344324,797.1228550773418
1731654247.5927892,837.1247086195208,804.4195453406477,801.6289375943223,805.521514365396
1731654247.5967033,830.4997385028844,804.4557940462728,801.4968177532886,804.1219860008089
1731654247.598493,812.9953414086862,804.4869858079982,801.3648127573415,794.0575184733325
1731654247.5999427,794.0177512293476,804.5066974066306,801.2329008643379,782.2448391544539
1731654247.6006174,781.2656880367391,804.5172826104593,801.1010612973815,776.5598598025213
1731654247.6045318,776.8037105580664,804.5380889289218,800.9692813948475,780.4161795096234
1731654247.6054432,777.940317212777,804.599879505477,800.8375590813768,790.716418876732
1731654247.608446,780.7203423927775,804.715288851506,800.7059039966715,800.5439015592791
1731654247.6123602,782.6632041071083,804.8365278820128,800.5743329732778,804.379436002071
1731654247.6162744,783.3052445271022,804.8450896922159,800.4428525783375,801.825308448949
1731654247.617313,783.2851860395747,804.6314299599404,800.3114321950311,797.1755354122402
1731654247.6201887,783.2988332931137,804.2698656766231,800.179993139149,795.539209255844
1731654247.6210053,783.6260092224139,804.166045177615,800.04845206364,798.8253814944915
1731654247.6241028,784.1910072380992,804.9425071007721,799.9168289662719,804.6895717998666
1731654247.6280172,784.8119789609078,806.9313354437462,799.7853491101533,808.9184185497651
1731654247.6319313,785.3748571170722,809.5606303393126,799.6543825166026,809.0108745545397
1731654247.6348276,785.8658934720545,811.2849818547397,799.5240931690585,806.041796117644
1731654247.6358454,786.3230057601899,810.4177683987867,799.3939225618043,803.5326945711419
1731654247.6361325,786.7825976645922,806.3864152553441,799.2624385887804,804.462430971406
1731654247.6365674,787.2576521417477,800.4328157548288,799.1282542406473,808.8446079415432
1731654247.6397598,787.7429517150914,795.1299715287274,798.9921001321078,813.6875265961203
1731654247.643674,788.2286958007402,792.9434271354169,798.8585696626197,815.2730523763029
1731654247.6475885,788.7092184281665,794.7751407081872,798.7345687093072,811.9545417519948
1731654247.6515024,789.1841527905831,799.4724884982907,798.6223615156616,805.3252037094054
1731654247.6521294,789.6556215913337,804.5993499509012,798.5101830288118,798.9218821255498
1731654247.654952,790.1254747425971,807.8850919814614,798.3709269147204,795.6007060938051
1731654247.6554167,790.5942733954262,808.39229982952,798.1818080137482,795.7209054578431
1731654247.6593308,791.0616593992113,806.7704376900481,797.9650973173764,797.4483135057136
1731654247.663245,791.5270894040798,804.6051938432059,797.8213060781588,798.6200889894928
1731654247.6671593,791.9902670052586,803.3714345822724,797.9046825690178,798.4025393549972
1731654247.6676917,792.4511750794233,803.6451473686013,798.3188001856676,797.4218971732427
1731654247.6697128,792.9099160656625,805.0030106080251,798.9956852270858,796.5595898765235
1731654247.6710734,793.3665694885416,806.5529264154588,799.6841528168005,795.7190903568468
1731654247.6737714,793.8211459090397,807.6146700565484,800.1105069531342,793.7153121394351
1731654247.6749878,794.273611086266,808.0455792841816,800.2162835186666,789.3582100804606
1731654247.678902,794.7239252095251,808.0759112228485,800.2736609203808,782.7884390182401
1731654247.6828165,795.1720640819481,807.9150599883043,800.7403851077787,775.9085869732709
1731654247.6832535,795.618019296097,807.4945078499462,801.921868445854,771.4297629846866
1731654247.6867304,796.0617892544418,806.5386004658072,803.7039828346176,771.1308949599897
1731654247.6906445,796.5033718483851,804.8925644895878,805.5948227636619,774.6106431286363
1731654247.692591,796.942762406132,802.8324332518997,807.0307551503059,779.5199439973715
1731654247.6945589,797.3799551676545,801.0422749309084,807.6442725676433,783.1733238316334
1731654247.698473,797.8149453328182,800.1711549751025,807.2753508197825,784.411005599559
1731654247.6988156,798.2477300535232,800.2865643591613,805.8444709757991,784.4062983998073
1731654247.702387,798.6783083284637,800.7540732198307,803.3626443373454,785.8459613712809
1731654247.7045977,799.1066804680186,800.7751972011412,800.1246163095632,790.9993145561361
1731654247.7063017,799.5328476847401,800.1822982969718,796.823185852731,799.9653851170466
1731654247.7102158,799.956811968978,799.7424661462713,794.3492865783893,810.3666493102958
1731654247.7114103,800.3785761373944,800.6014008911674,793.3800119688335,818.8192942057907
1731654247.71413,800.7981438935145,803.3089025058802,794.088801402382,823.1532169331481
1731654247.7143776,801.2155198200487,807.2977788983098,796.1723428695157,823.6495010610513
1731654247.718044,801.6307093139296,811.2667323862651,799.0745726300612,822.3035675335658
1731654247.7219584,802.0437185171845,814.0715464662056,802.1740523179463,820.846350279837
1731654247.7258725,802.454554285274,815.3302903276875,804.8699876655213,819.4044028291228
1731654247.7297869,802.8632241875217,815.3402923251134,806.6877837440618,817.0602236640892
1731654247.7299397,803.2697364791296,814.5770149140264,807.4785816275011,813.6759505195844
1731654247.73023,803.6740999641335,813.311723571226,807.5753113097982,811.000226124444
1731654247.733701,804.0763237354093,811.6254817259552,807.6737481709608,811.6746640906218
1731654247.737615,804.4764169418421,809.6909556141942,808.4007322412194,816.7990505476696
1731654247.7394829,804.874388888512,807.9831584017976,809.8629574954812,824.2656764445373
1731654247.7415297,805.2702496923972,807.1457584876603,811.5767182114566,829.6196791699739
1731654247.7454436,805.6640112011845,807.5201102761307,812.8653263810448,829.0816433614682
1731654247.7455018,806.0556871124855,808.6809220471778,813.3601065747524,822.4256384989072
1731654247.7490497,806.4452909845429,809.4384637247929,813.169525605148,813.3285730589199
1731654247.749358,806.8328321593332,808.4706682769875,812.6619351887648,806.7201771955266
1731654247.753272,807.2183126819571,805.2175457898106,812.1552781004019,805.0816247293778
1731654247.7571864,807.6017309430846,800.3803665406704,811.7731129009221,806.6251037942858
1731654247.7610638,807.9830955950973,795.6278579950927,811.4866743606071,806.9116144967147
1731654247.7611003,808.3624430684773,792.7106296175428,811.2224359424038,802.6708275686368
1731654247.765015,808.7398379297092,792.5851127770696,810.9344604562388,794.6669279625283
1731654247.7678692,809.1153327290812,795.0385599921136,810.6176578099933,787.1776072101209
1731654247.768929,809.4888919005514,798.8934955422942,810.2877653511733,784.5125002884471
1731654247.7728431,809.860342586323,802.5740000050097,809.9596656825495,787.4982339255804
1731654247.7743678,810.2294595226691,804.7808046929554,809.63858049939,792.8264342728154
1731654247.776626,810.5962383614907,805.0581120116608,809.322315139613,795.7308912110914
1731654247.7767577,810.9612100056895,804.0034464908356,809.0068550219024,793.7743467179076
1731654247.7806716,811.3253933565819,802.9147333329507,808.6899074260955,788.7360262010969
1731654247.784586,811.6894754464466,802.9596032479573,808.3713476398166,785.1723025257842
1731654247.7866886,812.0523858348176,804.3461048997165,808.052056039252,786.8264322976651
1731654247.7885,812.4105340730014,806.0857853835472,807.7327903501712,793.6844508586925
1731654247.792188,812.7596982545238,806.580056383285,807.4137776199912,801.9408855620252
1731654247.7924144,813.1003359677377,804.6794840336507,807.0948700820139,806.8987424867565
1731654247.7963283,813.4431369879668,800.5167878775986,806.7758454069948,806.5669045848335
1731654247.800243,813.8070662657191,795.5506001343257,806.4565812415743,803.1467036999493
1731654247.804157,814.2027796797439,791.77266881437,806.1370677357158,801.2252488257212
1731654247.805508,814.6061158383912,790.5825378560858,805.8173450218868,804.1198811693708
1731654247.80775,814.9470294244624,792.0572883924373,805.4974495133276,811.314723610455
1731654247.8080711,815.1505225481964,795.074746244123,805.1773956980358,818.9915836776855
1731654247.809253,815.2390041794041,798.1555136485333,804.857176424994,823.0717035953146
1731654247.8119855,815.4286251951391,800.392815376118,804.5367600215387,822.1942400165818
1731654247.8158996,816.0711261957551,801.8141587935928,804.2160863076466,818.3116704322706
1731654247.819814,817.3194791162242,802.9936924904144,803.8950871923341,814.7088546621609
1731654247.823312,818.6329138780388,804.3346491257437,803.5737508229333,813.3309974749568
1731654247.823728,818.6152990111336,805.668359007997,803.252197759508,813.6271155207619
1731654247.8243277,815.8255443790522,806.4804165180957,802.9306705722126,813.5913848943255
1731654247.8276422,810.5529862011215,806.4911294817443,802.6093323702945,811.7808094158208
1731654247.8315566,806.1139480066713,806.0215290090661,802.2879114933094,808.4622831928216
1731654247.835471,807.5288101755999,805.8105814586894,801.9655050977786,805.1006772261164
1731654247.838874,817.3899559798065,806.4525103645725,801.6410391271627,802.9900635763032
1731654247.839385,832.1833541468853,807.9253719149409,801.3145875521369,802.3907132230764
1731654247.8431473,843.1442248556218,809.5646859445003,800.9887731087382,802.7115783653283
1731654247.8432992,842.0971396886276,810.4735811085765,800.6683211143566,803.2116359616309
1731654247.844138,827.9480497689669,810.0669590646681,800.3559645119079,803.4872794842786
1731654247.8472135,808.2839491533707,808.3871505315518,800.0458119602099,803.5122256404505
1731654247.8511276,794.271778087963,805.9926841807251,799.7204523248989,803.4323103030184
1731654247.8544362,792.6552069335486,803.5239819454936,799.3609548710523,803.3740995560709
1731654247.8550415,801.2561221913687,801.3200089247823,798.9723148436279,803.3760834454392
1731654247.858956,811.5423202679707,799.4457988523511,798.6077824900308,803.414594972566
1731654247.8619668,815.8567113494689,798.0953800291541,798.3550406206,803.4539384856259
1731654247.8628702,813.0674452823764,797.8761053981533,798.2531403798449,803.4755010136538
1731654247.8667846,808.0997938083141,799.4900206370066,798.1673256083722,803.4796074045792
1731654247.8699982,806.3985146653403,802.9319906804628,797.7424118529332,803.4744902056427
1731654247.8706987,808.6954526519695,806.9527881174033,796.5899669382786,803.4666096209754
1731654247.874613,810.7414720578523,809.4673682672071,794.6958655941918,803.4576011666996
1731654247.8785272,807.8881461690319,808.7919173673505,792.6912591930927,803.4459792599422
1731654247.8790233,800.073851184597,804.8215301243509,791.5715243635121,803.4298208456341
1731654247.8807864,792.5843034972929,799.2425723591739,792.0189818214585,803.4081933719318
1731654247.8824413,791.759727527223,794.5823178177792,794.012004653405,803.3811498294895
1731654247.8855605,799.221499541133,792.7101281515666,797.03520241259,803.3491092894631
1731654247.8863556,809.607999953867,793.7627983036778,800.4663761443742,803.3123595060581
1731654247.8902698,814.1272909143909,796.2080487065139,803.6757628873669,803.2709251120796
1731654247.894184,807.4960958524532,798.0325934120928,805.9301937517689,803.2246817403196
1731654247.8980982,792.7951685621534,798.2433280498218,806.4806651706049,803.1735111835419
1731654247.8996058,780.0636535173476,797.5697069093909,804.9383567421419,803.1173747591687
1731654247.9011223,779.2783802521021,797.7913613354258,801.6481586764454,803.0562856076082
1731654247.9020126,792.8961311595159,800.1712273498521,797.6905433092932,802.9902230940348
1731654247.9059267,813.6781681064537,804.2249329146862,794.417563904765,802.9190630451347
1731654247.9098408,829.5788143613206,807.8531858240741,792.8098177839977,802.8426084154775
1731654247.9137552,832.1253676720481,808.8092141666637,793.1145238847045,802.7607673967574
1731654247.913908,822.0839704598365,806.3881989762475,794.9945352403435,802.6737984244405
1731654247.9166844,808.3084643843005,802.0144075994989,797.943583563332,802.5823587297964
1731654247.9176693,800.8599827818142,798.2761462385217,801.4971296883058,802.4870359677429
1731654247.918425,803.758939158719,797.192428601272,805.0912893357812,802.3873649834444
1731654247.9215837,812.8310442256007,799.0376234574868,807.9397852316741,802.2810770496441
1731654247.9254978,819.9863855888344,802.4813365248434,809.3400667442196,802.1649791942612
1731654247.929412,820.1462179762627,805.6979358699903,809.2493810811985,802.0383455880191
1731654247.9322462,815.0347082444558,807.4572777044199,808.461832042288,801.9072224840736
1731654247.9333262,810.8987759383058,807.4888731512124,807.9862517242126,801.7846006647337
1731654247.9372404,812.4952456242235,806.1766041252142,808.1005023189015,801.6807228817305
1731654247.937245,818.7511642479632,804.1015429991215,808.0571588263754,801.5845286788607
1731654247.9411547,823.7520712263687,801.8053857561767,806.8629729154696,801.4514482703297
1731654247.9450688,821.9690188614854,799.7615553334331,804.4484167912378,801.2236950489156
1731654247.9478085,813.1825691258795,798.3698898035559,802.0645942491899,800.8966172081693
1731654247.9487932,803.0786033693867,797.8757909512974,801.4335164894219,800.5955959385934
1731654247.9489832,799.08555345611,798.2355566203672,803.3451142375056,800.5652123955329
1731654247.9528973,804.656040895925,799.0180615429942,806.9038015087273,800.9685705432103
1731654247.9560645,816.3061032145954,799.4915856018649,810.0563942412408,801.5321038676635
1731654247.9568117,825.7329600931072,799.0115258838379,810.9681516430244,801.3332079797135
1731654247.9607258,825.6479160050017,797.5665359214815,809.180949102027,799.1857215008899
1731654247.9633703,815.1115167778307,796.0272771081264,805.7405913159008,794.7231827644179
1731654247.96464,800.3188736814161,795.7102027583719,802.3275816006977,789.3376834174078
1731654247.9685545,790.1117187219696,797.4412466245117,800.1530847426498,785.6410338156358
1731654247.9724684,789.5752755559043,800.8582916281146,799.4273810708671,785.3520786354021
1731654247.974884,796.6049718654049,804.5842979646437,799.6107502290203,787.5127027265773
1731654247.9763827,803.9700539089145,807.162037091426,800.022561110286,789.0218228148093
1731654247.9789324,805.0911539770794,807.9814540403945,800.2693387784988,787.2115427457145
1731654247.9802969,798.9833163915241,807.4739681737152,800.2984180473353,782.1640054417968
1731654247.983678,790.6660958604014,806.5096171075962,800.2272752622221,776.7824194090742
1731654247.9842112,786.9515634992589,805.5949832668852,800.1701086530206,774.6819478442245
1731654247.988125,791.0407532478241,804.5890241349987,800.1673776316818,777.6860476353709
1731654247.9920394,800.1572047652037,803.164422832041,800.2022517504558,784.7688195143418
1731654247.9937036,807.9576564986311,801.5466499223895,800.2436921151955,792.9750281264965
1731654247.9944944,809.612256839633,800.7441599897867,800.273916578434,799.4149941257285
1731654247.9959538,805.3152162015895,801.8830920833886,800.2919445007385,802.86715703608
1731654247.999868,799.3920221265927,805.1248629120951,800.3046297763193,804.000339470003
1731654248.0037825,796.0138109818519,809.1901638029924,800.3179139196329,804.2782376537573
1731654248.0076964,795.4984390988612,812.0943142759071,800.3336374703665,804.5401975561981
1731654248.0100565,794.5696008657014,812.5846364764562,800.3507322399606,804.4558107734752
1731654248.0116107,790.2451061822403,811.0461998307761,800.3675513068781,803.2893980619508
1731654248.0125227,783.6167717812771,809.0930669812134,800.3832320691658,801.1774322755093
1731654248.0155249,779.8098423437258,808.2574814257249,800.3977921375348,799.5237038365675
1731654248.0185633,783.8321312244989,808.9394909781887,800.4116210802639,799.8912331064108
1731654248.019439,795.7692542229815,810.4132642417014,800.4250305107365,802.3191070305352
1731654248.023353,809.5926179677185,811.6611932208574,800.438110205481,804.773147152575
1731654248.0256186,817.0101815363934,812.1593349399404,800.4508043072813,804.5403312418673
1731654248.0272677,813.5949042338625,812.0217956220365,800.4630323532012,800.5522421559618
1731654248.0311818,802.3016591445136,811.6450274668626,800.4747530540254,794.5989743402207
1731654248.0313425,791.3112261147709,811.3329913152021,800.4859669592201,790.1906278292744
1731654248.035096,787.6460233209713,811.170976396835,800.4966995223787,789.7908664620235
1731654248.0390103,791.5823826186636,811.1005675747563,800.5069941457516,792.5943136746229
1731654248.0411806,796.4771398438031,811.0392435011993,800.5169091126963,794.7174291616825
1731654248.0429244,794.3585460667744,810.9460595768071,800.5264910103946,791.8483208189356
1731654248.0468383,782.8849247278448,810.8236459372462,800.535714940719,782.4829011064822
1731654248.050162,767.9744763764659,810.6917559582741,800.5444364718874,769.3529088977733
1731654248.0507529,759.7467492409373,810.565170241808,800.5524498010753,757.9501947496954
1731654248.0534484,764.7767595117431,810.447297210086,800.5597148432599,753.1894257405166
1731654248.054667,780.7323116051421,810.3345249404475,800.5666484464391,756.5760987374197
1731654248.056743,797.7361057673041,810.2224768296289,800.5741397036521,765.757968245827
1731654248.0585814,805.5585343203452,810.1091773353207,800.5828991572885,776.4982374501657
1731654248.0624957,801.099366118454,809.9949116670582,800.5922035286263,785.4174529814285
1731654248.0664098,790.3176605895894,809.8807523248144,800.5990591211806,791.5726653185437
1731654248.0689816,783.1958073959358,809.7674337176198,800.5995561189101,796.1048769689273
1731654248.070324,785.9023827381817,809.6550800398253,800.593352283176,800.6755360204289
1731654248.0723047,796.3930235415398,809.5434698343539,800.588921385395,806.0421842340667
1731654248.074238,806.6301629199995,809.4323646680431,800.6029571799437,811.6486187907059
1731654248.0781524,809.2046695262353,809.321657859993,800.6470650995666,816.2093895615327
1731654248.0820663,802.9215532487663,809.2113518681583,800.7042821902479,818.6878378369013
1731654248.085981,793.1786838875967,809.1014791365012,800.7162422705107,818.9840058150646
1731654248.0878012,787.2885288452665,808.9920561576465,800.6143111494836,817.9046207822896
1731654248.0878668,788.7135511561506,808.8830886876405,800.4094372448593,816.4601712721151
1731654248.0883334,794.7296005109449,808.7745922470237,800.2931542979547,815.0526253055352
1731654248.089895,799.1596417521192,808.666580930704,800.6335888240512,813.2800052253118
1731654248.0938094,797.8168115861802,808.5590099359708,801.7818666576768,810.587261023424
1731654248.0977235,792.1583258790015,808.4517190692605,803.7977923368014,807.1646676242887
1731654248.1016376,788.070281387605,808.3444760697971,806.3546985745352,804.1648331199971
1731654248.1034288,790.724400269707,808.237190809969,808.9140522246204,802.9187060772531
1731654248.105552,799.8518816636418,808.1302103618348,810.9741970515001,803.8229281699249
1731654248.1066208,809.5668287550536,808.0243683101811,812.2245388301791,805.9281793549725
1731654248.109466,813.0550809713328,807.9203889319515,812.6459725097669,807.6183545061632
1731654248.1133804,808.2608385408854,807.8176573769955,812.5799596100835,807.7891513605953
1731654248.1172943,799.7631394648548,807.7133040016457,812.6258032497266,806.5412396112814
1731654248.118991,795.1438530175283,807.6033515349789,813.284641373023,804.8848299166183
1731654248.121209,798.7042483305538,807.4869941155398,814.5572600650654,803.7950909786615
1731654248.1232183,807.6453005494712,807.3719426289008,815.8559258848558,803.4251987894054
1731654248.125123,813.9638096461204,807.2744818922974,816.3586640640035,803.0691301474366
1731654248.12544,810.7942195036298,807.2071470341549,815.5232726944453,801.8484780765302
1731654248.1290371,798.2748726512871,807.1555270763265,813.3423055948564,799.5829599731908
1731654248.1329515,784.1487080230064,807.0635446084115,810.2182171153004,797.200937788743
1731654248.134553,778.3036194495064,806.8600125489795,806.7126523342698,796.3497457002841
1731654248.1368656,785.329443226931,806.5431049660697,803.4371155940222,798.3895219169873
1731654248.14078,800.9734701664061,806.2782700179974,801.0450450576192,803.4256771410353
1731654248.1442597,815.4159612209879,806.3896885541076,800.1061864015543,810.1243861576971
1731654248.144694,820.7975892054978,807.1306536420179,800.8308881207513,816.5562171075685
1731654248.1486084,816.9426347648861,808.3170033705691,802.8829087438546,821.4651905519528
1731654248.150115,810.7169822415667,809.2166449824437,805.4888970994562,824.877227116634
1731654248.1525226,809.7284078743913,809.0334569943815,807.7616849464913,827.4428640910874
1731654248.1564367,815.7153236699684,807.6463581540164,808.9820028098399,829.1022634861899
1731654248.1581037,823.132278539324,805.7707260891917,808.7138994889765,828.4746712357148
1731654248.160351,824.0362928302751,804.2885273826646,806.8405963003588,823.8681510344056
1731654248.1630793,815.0879385051641,803.4741682809239,803.6201896772757,815.241850895326
1731654248.1642652,800.7088053641176,802.9107965269192,799.7053089259914,805.2614491086329
1731654248.1656773,789.6937706857162,802.0666878165486,795.9930559469343,798.0822007198152
1731654248.1681795,788.1604617697016,800.87444138382,793.2887873204888,796.4863113081776
1731654248.1720936,794.862627106139,799.813048234768,791.9579150559025,799.7334285889111
1731654248.176008,802.8213635164143,799.5386067356523,791.8145981135395,804.166488893133
1731654248.179922,805.7055328785567,800.4174666991103,792.3641003426218,806.2746607431917
1731654248.1812391,803.2990218434481,802.2484253574738,793.2368988091296,805.6264818907147
1731654248.1818988,801.3286919047216,804.2883649706517,794.4448504863121,805.0746437435077
1731654248.1838362,805.9453568836639,805.5881536505622,796.2035748643225,808.0188333522306
1731654248.1877506,817.7526666160285,805.5152224197133,798.4852742758293,815.1157422799959
1731654248.1916647,830.5636633755445,804.1518499206585,800.7878571885436,823.2903271230047
1731654248.1929886,836.0005377048319,802.2372123750797,802.4229428311226,827.8977442245236
1731654248.1955793,830.180066859215,800.6521151688149,803.0646669890056,826.248973137508
1731654248.1968012,817.0228507427514,799.8674160201952,802.9786133190144,819.6677396310363
1731654248.1994932,805.4496473650573,799.7936234943758,802.6763329742452,812.5187298322874
1731654248.2007184,802.6236131437356,800.0457140674209,802.3894005345782,809.0545994974669
1731654248.2034075,808.57140139282,800.2895374043778,801.9816969490231,810.52075243149
1731654248.2073216,816.4520637059754,800.3976444569903,801.4125903531424,814.5972581252386
1731654248.2112358,818.2444656503671,800.4032686558036,801.1721979928658,817.3969987027821
1731654248.2123632,811.2710953640654,800.3853983117998,802.0576575526846,816.3881499651669
1731654248.21515,800.3208565571011,800.3924962698519,804.3795177217221,812.0889523654982
1731654248.2190642,793.7260212329727,800.4293412880759,807.396210103673,807.4128358011402
1731654248.2195375,796.6044896258081,800.4788480476246,809.6434512057764,805.2629365014449
1731654248.2229786,806.6396532226205,800.5251662390078,809.9589624091223,806.1796300003841
1731654248.2268927,815.6560940122265,800.562856816044,808.3280356026838,807.7790911944545
1731654248.2278736,815.7529533904822,800.5943374172507,805.8719127799848,806.4767790201354
1731654248.2279253,805.3863888622566,800.6238776118661,804.0814069486278,800.3712276520317
1731654248.2308073,790.8811241893766,800.6538617973379,803.9420331766748,791.2076563119205
1731654248.2347212,782.1515576801555,800.6843614225152,805.4918735868304,783.7639548287568
1731654248.2383573,785.6104095104126,800.7143967977705,807.9092702145733,782.7379984807184
1731654248.2386353,799.4566542831103,800.7431366777768,809.9473912631474,789.2156955293234
1731654248.2425497,814.9877434473585,800.7703215578197,810.5237316224706,799.4703043599341
1731654248.2434874,823.0186017363537,800.7960888223107,809.2832366307377,807.2880287720667
1731654248.2464638,820.3162753046635,800.8206500584516,806.85676932945,808.1927529393105
1731654248.250378,810.929780788323,800.8441064627882,804.5481744649655,802.2689489920648
1731654248.2542922,801.8583490600346,800.8664389541243,803.5172120237341,793.4580858231427
1731654248.2571769,797.4936597341798,800.8875795675199,803.9803086496813,786.2763677476814
1731654248.2582066,797.6292582841405,800.9074731853653,805.0501867299428,782.9154763496962
1731654248.2590494,799.5233140669685,800.9260965527845,805.3904407767609,782.777065840415
1731654248.2621207,800.8475732037836,800.9434470601261,804.2260725069232,783.9804788720994
1731654248.2627587,800.9214689615507,800.95952554795,801.9632201699112,785.021119100023
1731654248.2660348,800.2240204471353,800.9743272944513,799.9506737265107,785.4028156589851
1731654248.2699492,799.4419069521227,800.9878421582142,799.5373606922802,785.3425746846762
1731654248.2738633,798.9248396202908,801.000058572992,801.0951066096787,785.218551224004
1731654248.2746117,798.6601578536283,801.0109667073212,803.712467851968,785.2387444634089
1731654248.2759964,798.487727785416,801.0205592959321,805.7754315095642,785.4070788340246
1731654248.2777777,798.2842604422268,801.0288309566818,805.9941175431776,785.6370407582981
1731654248.2816918,798.0194503270017,801.0357772901322,804.1395445841958,785.8572593586697
1731654248.285606,797.7219852122142,801.0413944545908,801.0518842428212,786.0474998327416
1731654248.2895205,797.4280685738182,801.045679213055,798.0617035600034,786.2222065041989
1731654248.2901735,797.154594904265,801.048629148104,796.2911751690838,786.401767973056
1731654248.2934344,796.8996838049767,801.0502428041018,796.1896174316163,786.5964540723686
1731654248.294816,796.65464027628,801.0505197060485,797.4199901836763,786.8058344390633
1731654248.2973487,796.4133532187658,801.0494603350958,799.1211945260187,787.0252141734424
1731654248.2976437,796.1747203544764,801.047066150588,800.4489169325495,787.2510642053984
1731654248.3012629,795.9405605540842,801.0433396630582,801.0410283885616,787.4826264157983
1731654248.3051772,795.712890963389,801.0382844518,801.0597813285375,787.7208716044489
1731654248.3057356,795.4926324209733,801.0319049838731,800.876927432489,787.9669707151967
1731654248.309091,795.2797376699486,801.0242062268463,800.7600642398537,788.2215120506371
1731654248.3130057,795.0738509947263,801.0151933557155,800.7771972484409,788.4845282153851
1731654248.3136356,794.874784081966,801.0048721144043,800.872075415714,788.7558542347779
1731654248.3169198,794.6826154863479,800.993250174006,800.9714958524658,789.0354042178328
1731654248.320834,794.4975660608147,800.9803388266474,801.0411351802644,789.3232400961492
1731654248.3212976,794.3198558508798,800.9661529859015,801.0849670248562,789.6195080040012
1731654248.3247485,794.1496424865506,800.9507072350536,801.1209891341692,789.9243575047808
1731654248.3286624,793.9870333118903,800.934008414221,801.1619972401559,790.2379039254544
1731654248.3324547,793.8321218651347,800.916050919761,801.2105617032307,790.5602327566916
1731654248.3325288,793.6850119208859,800.8968251344561,801.2632542591556,790.8914193079225
1731654248.3325768,793.5458203530001,800.876344137533,801.316211845383,791.2315424326965
1731654248.3364909,793.4146677851392,800.8546740990586,801.3677993991446,791.5806868631523
1731654248.3368597,793.2916691877467,800.83192904454,801.4183621642583,791.9389391079524
1731654248.3404052,793.176932126114,800.8081903175477,801.4688818253354,792.3063835489835
1731654248.344319,793.0705642000146,800.7833679064379,801.5200011372439,792.6831019403168
1731654248.3482337,792.9726845396505,800.7571280831389,801.5718163187389,793.0691753232779
1731654248.3512745,792.8834275110161,800.729080487767,801.6241291665194,793.4646848711989
1731654248.3521478,792.8029252237375,800.6992968355664,801.6767394041632,793.8697084759007
1731654248.3524218,792.7312681629276,800.6688470894181,801.7295719736127,794.2843135610461
1731654248.356062,792.6684727063962,800.6395968125529,801.782654056519,794.7085526649596
1731654248.3599763,792.6145113835468,800.6125801997981,801.8360415194279,795.1424721940501
1731654248.3638904,792.569444402238,800.5854244880271,801.8897684415854,795.5861387889541
1731654248.3674138,792.5335951367684,800.5513115391701,801.9438367686191,796.0396678833848
1731654248.3678048,792.5075726561512,800.5030254765197,801.9982298281616,796.503215532359
1731654248.3679838,792.4919056374063,800.4429499466877,802.0529310351558,796.976896524487
1731654248.370094,792.4863043004119,800.3923768758145,802.1079391149707,797.4606499718708
1731654248.371719,792.4891297291401,800.3856888922843,802.1632756452989,797.9541780249996
1731654248.375633,792.4981169585177,800.4378301652889,802.2189769119923,798.4571436894342
1731654248.3795474,792.5129636596457,800.4969912344591,802.2750619982213,798.9696837394232
1731654248.3834617,792.5384958712035,800.4318969445999,802.3314870284995,799.4929089423466
1731654248.383546,792.5845740599867,800.1187606691095,802.3881293548097,800.0286474438005
1731654248.3873758,792.658551755897,799.6358075137002,802.4448630007915,800.5778002484263
1731654248.3889136,792.7513698709182,799.431733629888,802.5017374989374,801.1378582081405
1731654248.39129,792.8290577244796,800.2084819547474,802.5591384996802,801.7020776993478
1731654248.3952043,792.8491648424782,802.370817144712,802.6176731354487,802.2637136838223
1731654248.399108,792.8112993343583,805.3652584984623,802.6775816625071,802.8258658894179
1731654248.3991184,792.8135220041886,807.6502754556155,802.7379019962875,803.4100726576411
1731654248.4022987,793.0403013244111,807.6798200376669,802.7962736714176,804.0495044461104
1731654248.4030323,793.6084973308839,805.2333777186421,802.8505145036736,804.7562414186746
1731654248.406947,794.3061534526433,801.8606272026947,802.9020300044455,805.4758837278101
1731654248.4077332,794.4592084415755,799.8974632597567,802.9585319362687,806.0788541568453
1731654248.410861,793.2821638543777,800.7873081479015,803.0312018413365,806.4502658183017
1731654248.41467,790.8221176280254,804.0428266013522,803.1230668848856,806.6801746658233
1731654248.4147754,788.8407784911597,807.6008887814278,803.2138685449767,807.2160724127266
1731654248.4186895,790.2725803378378,809.18928790596,803.2588903697948,808.7344553849777
1731654248.4226038,796.7255218921337,807.6663178024532,803.2223423347091,811.637284705383
1731654248.426518,806.0510971886515,803.5389184336009,803.1437692501263,815.5000351309201
1731654248.4265528,813.1374119464488,798.5754335227839,803.1883143102369,819.0506585229097
1731654248.430232,814.1515286882935,794.9183370944778,803.5973080783986,820.9103614008069
1731654248.430432,810.4283093777412,794.1401104175003,804.5124899687303,820.6310013668136
1731654248.4343464,808.0401578118319,796.5584326912955,805.8113891938729,819.2080373995983
1731654248.437184,813.0253998865513,801.098029976883,807.1615192308823,818.5721478010656
1731654248.4382606,826.1941080978909,805.8966870926189,808.2687342004375,820.3274573937213
1731654248.442175,841.8811910499631,809.423831442035,809.0200128824745,824.6457835993307
1731654248.445372,851.867134717001,811.3257482543887,809.3515710408861,830.1936816422306
1731654248.445794,851.5656527452768,812.2204840626995,809.0650260947317,835.1668289291368
1731654248.446089,843.6423025164502,812.5534920422418,807.9125928068235,838.5565220955424
1731654248.4500034,836.0245436393338,811.6683437061079,805.9412270103201,840.5670064648006
1731654248.4539175,835.633406893208,808.2469906967057,803.726472570739,841.8906539323624
1731654248.4578316,842.7961206631585,801.9554404091889,802.1520927186409,842.6028181248869
1731654248.4613562,851.0373430950552,794.7221684409287,801.8092217010447,841.77252702899
1731654248.461746,852.6228556867997,790.1387751944046,802.5008353395965,838.2344838948829
1731654248.4641917,845.3238410052957,791.1358923814308,803.3244700230372,831.9549195502872
1731654248.46566,834.6904167571497,797.7720051790719,803.3484351154647,824.8739406329959
1731654248.4695745,829.8211759986592,807.0095588043597,802.3891800058441,820.3828704484741
1731654248.472069,836.0413649379841,814.6967876588592,801.2670145936864,821.5000620615626
1731654248.4734886,850.4591491633873,818.1734022407512,801.2725485270929,828.8087683073436
1731654248.4769182,864.0026826892027,817.5429062517477,803.1662476428961,839.6490719738562
1731654248.4774027,868.2860681745093,814.9019875260767,806.4360996305529,849.418640459736
1731654248.481317,861.7929043040795,812.4915925802148,809.4271053157189,854.3241465065395
1731654248.4830112,850.4954792023934,811.360882051765,810.3492580451253,853.6275181708928
1731654248.4852312,842.6245352099512,811.3086399106817,808.4891825248308,849.6201800457242
1731654248.4891455,842.0816576471668,811.633200663208,804.7436777399315,845.3687785643004
1731654248.4924805,845.9338057021927,811.8168321521514,801.0751357949148,842.2160668187558
1731654248.4930596,847.7690249613013,811.7315634090644,799.2983034099959,839.2250584716193
1731654248.496974,843.6607558429296,811.4927627390658,800.076082825048,834.9161149253235
1731654248.500888,835.4817868856748,811.246965414477,802.7464580113688,829.4871115326418
1731654248.5018308,828.9164984834969,811.0621158638938,805.8971563667308,825.2965811385307
1731654248.5048025,828.2104081528522,810.9297937703511,808.1161613131675,825.0747899125342
1731654248.506954,832.3346640630139,810.8139821779048,808.4588613692806,829.467359553729
1731654248.508042,835.8078905127942,810.6893034297871,806.617667057656,836.1531757831609
1731654248.5087166,833.4072212466037,810.5508159116152,802.9982069303649,841.4002884958963
1731654248.5126307,824.775975670324,810.4054587656681,798.7178632752365,842.7692372575779
1731654248.5165453,815.0045928975919,810.2609518643815,795.3139772049603,840.6273395153501
1731654248.5204592,810.5528126965535,810.1205368935634,794.0801127895228,837.1800378259862
1731654248.5206504,813.803288928749,809.9835146770581,795.3531599651616,834.0124636494153
1731654248.5236042,820.838204612985,809.8479378876553,798.2882208912854,830.5648120971176
1731654248.5243735,824.4680289321574,809.7125476185827,801.3850313319347,825.081600190115
1731654248.5282876,820.1530843194341,809.5771751648285,803.4566135847275,817.1162710732356
1731654248.532202,809.9564288224074,809.4422336745104,804.3419963373357,809.0159556749306
1731654248.536116,801.2062064421867,809.3081367694158,804.8146506429578,804.6498959575531
1731654248.5391662,800.8321816793051,809.1750486161646,805.7531505482397,806.2503210533262
1731654248.53947,809.807790571487,809.0429305875696,807.2443323557422,812.1294198573737
1731654248.5400302,822.0379155500751,808.9116834121803,808.3670640959547,817.4114216161146
1731654248.5418391,828.6151497427882,808.7812409723706,807.8566128810628,817.3463856950275
1731654248.5439446,824.3136041984526,808.6515902352631,805.1176409267412,810.5789164684701
1731654248.5478587,811.4600594014786,808.5227586617765,800.7618651831942,799.8239656335776
1731654248.5517733,798.1957708765383,808.3948045314297,796.2552372562515,789.594260283756
1731654248.5547285,792.3882606321973,808.2678042963672,793.0160778357744,782.9877832479943
1731654248.5556872,795.9233608551157,808.1418063274751,791.7298521187973,780.0970726998885
1731654248.5582893,803.8996086041394,808.0167476623423,792.3553888532609,779.0073357544401
1731654248.5596015,809.2581451231866,807.8924041118037,794.5983156147732,778.1199411866133
1731654248.5635157,808.8301579798695,807.7685004300324,798.229185991134,777.615745558837
1731654248.5674298,805.6271530785436,807.6450414018533,802.9060320957451,778.9136113648779
1731654248.5702903,805.5277960680115,807.5226783299559,807.7813290640952,782.8784666135172
1731654248.571344,811.4022864528976,807.40262359763,811.4576117425818,788.5443573523133
1731654248.5752585,819.8606369066141,807.2856356296854,812.5303035302416,793.4688795792348
1731654248.5767243,823.4934876600013,807.1703154231519,810.394514923592,795.3299059660811
1731654248.5771089,816.8857189633668,807.0522778416068,805.7484012510358,793.4499073368496
1731654248.5791726,801.6230994770123,806.9265635585411,800.4501474205763,789.2165301775651
1731654248.5830867,786.1927727275782,806.7940854097952,796.7859344989644,785.2894389996529
1731654248.5858524,780.4571540237184,806.6680921837243,796.472486359548,784.1603672100721
1731654248.587001,788.5483995121637,806.5712830823576,799.810344665198,786.7936891480365
1731654248.5909152,805.5309661907316,806.5153853591885,805.4022377787697,791.9860222048667
1731654248.594829,820.6202834931081,806.4696816618996,810.7049300041699,796.8889346887879
1731654248.5959284,824.7679543757807,806.3497705613034,813.2900323363507,798.6529254096577
1731654248.5987437,816.8995618182108,806.0703249805882,812.1838985419915,796.3596914762298
1731654248.6014144,804.0504749692828,805.6718518236075,808.4450033926126,791.8834654906539
1731654248.6026578,795.4759973204478,805.4408931505554,804.5243425033708,788.7916903605155
1731654248.6065722,795.5623715695555,805.8572908394492,802.7619374152762,789.8248992521069
1731654248.6104865,801.1060609612564,807.2682439101386,804.0005209887562,794.7825069256613
1731654248.6116092,804.7601876899619,809.4805862327911,807.2226785085485,800.5321965204047
1731654248.6144006,801.4552286107195,811.6926183982,810.3730008936878,803.2584001953248
1731654248.614748,792.4931989848141,812.9407165276666,811.6994855388733,801.2664055716082
1731654248.6169765,784.2285672522954,812.7147163111513,810.6740647804239,796.1799729164084
1731654248.6183147,782.680126053508,811.2448829409425,807.9796359882662,791.6015822114867
1731654248.6222289,788.5210326691093,809.2867710774132,804.775561794686,790.2688616908016
1731654248.6261432,796.4604693590403,807.5954080206357,801.9103529565457,791.9378617514848
1731654248.630057,799.5292714790809,806.4401643636514,799.6487472733863,793.7102838965992
1731654248.6325386,794.8637495208499,805.476864504397,797.9642688794992,792.5965608057685
1731654248.6335676,786.258879668748,804.0759607723904,796.9605263946934,788.2267058505189
1731654248.6339717,781.2116733289708,801.8775467782842,796.9384158187795,783.3801914867191
1731654248.6378858,784.6451158642952,799.1403876768638,798.0535545996163,781.7582831168613
1731654248.6418002,794.4230680080875,796.5998059087198,799.9825585002305,784.7874647894154
1731654248.6457143,802.5478484215195,794.9766489333302,802.035280741814,790.1735064341433
1731654248.6464944,801.3270672808543,794.5931165488118,803.6695580026151,793.5279352273604
1731654248.6481006,789.5902815451815,795.4127872772634,804.8954162993772,791.8128867658536
1731654248.6496284,773.8710475696065,797.3470838806809,806.1268980098462,785.8064915322617
1731654248.6523871,763.5432471088991,800.3585537143258,807.6037982260355,779.5704985196761
1731654248.6535428,763.7894203418762,804.114607156368,808.9700548277506,777.3124517211216
1731654248.6574569,771.9816571647741,807.526388262037,809.46100836091,780.1113294699024
1731654248.6613712,780.2609357280519,808.840416280675,808.5451618652879,785.0930891626582
1731654248.663663,782.0802762957768,806.5838053606307,806.4080302752526,787.7079447639574
1731654248.665285,777.284279128994,800.8165575650333,803.8292193118075,785.2878117580204
1731654248.6691997,771.5947986145635,793.6165556556164,801.617361425941,779.0566103730193
1731654248.6712065,771.1321081172325,788.1527825356827,800.1771555555777,773.0775441217281
1731654248.6731138,776.790392671575,786.839331504852,799.5529260997167,771.1308025594614
1731654248.677028,783.319940907923,789.8915694200667,799.7136398793693,774.0836697299978
1731654248.6792247,783.8740202289505,795.3302943159973,800.6151227606347,779.7038380489192
1731654248.6809423,776.116094603119,800.3438487304476,801.961308125526,784.7653319598007
1731654248.6813793,764.6857977432578,802.9459754101262,803.072902012123,787.5453135846427
1731654248.6848564,757.8845520057894,802.8316618198652,803.2088610130207,788.7381991502978
1731654248.6887708,761.231558927546,801.0911334277556,802.1266233415585,790.2714842556217
1731654248.690026,773.1014697187824,799.2422409549105,800.3074820779722,793.2204483358169
1731654248.692685,785.9571887657094,798.3090602121824,798.5732518410689,796.6653093752608
1731654248.6947868,792.1813033112883,798.4171753684142,797.4407637046944,798.4631712275229
1731654248.6965992,789.8329161448629,798.9596357863846,796.8067213538947,797.2224364703251
1731654248.7005134,783.7396472261638,799.1124199888478,796.2020602552624,793.6724380314403
1731654248.7044277,781.1203448811168,798.4015763780823,795.3279187697003,790.1384877538164
1731654248.7083418,785.397194218441,797.0548972959956,794.3914458574964,788.5806526286264
1731654248.7088456,793.340574975618,795.9404121455306,793.9798746235376,788.9997870086156
1731654248.7103488,797.921335316753,796.0450600960368,794.5870009119211,789.6318567679361
1731654248.712256,794.4982858958358,797.7375328043154,796.171702736457,788.6505020971321
1731654248.7161703,785.1841985776555,800.3421018402387,798.1219825978998,785.7856889913571
1731654248.7162645,777.6892983423102,802.4719879616895,799.6763607499367,782.5056560803953
1731654248.7200844,779.4237532579361,802.9924701949878,800.4368280141224,780.7430081859056
1731654248.7239988,791.5306506714783,801.856262668214,800.5286742667462,781.2671590371314
1731654248.725911,807.7034992419786,800.0775458375724,800.3465883897283,782.9475418024008
1731654248.7276652,818.9090724842553,798.8881383676414,800.2116096970641,783.4711266186728
1731654248.727913,820.3528807474946,798.875316845925,800.2274154032444,781.0884119646095
1731654248.731827,815.0256623317565,799.8156750156633,800.3426668696388,776.1719783528623
1731654248.7357414,810.808807280313,801.1321581019425,800.472513769372,771.3327938028228
1731654248.7396555,813.4963703662171,802.3627876157086,800.5710590682347,769.8260796444247
1731654248.741473,821.6854164182824,803.2824440293487,800.637939672348,773.3627057853523
1731654248.74357,827.9672349248634,803.8303113055264,800.6926301486598,780.967846289376
1731654248.7464848,825.4025530010515,804.0608797583092,800.75097881725,789.6484331983028
1731654248.747484,813.7153200665686,804.1077123505146,800.817380593972,796.2176113593447
1731654248.7511494,799.947136734276,804.1082899126393,800.8885668120239,798.9654640653504
1731654248.7513983,793.0227664122699,804.1394444641923,800.9600220073818,798.2676516676752
1731654248.7553124,796.6888385605679,804.2115927999056,801.029520975817,796.0158757078015
1731654248.757035,806.559716235499,804.3025848564479,801.0972181637457,794.3338367792103
1731654248.7592266,813.6520068751364,804.3909204460589,801.1641993695979,794.3324539040875
1731654248.763141,811.5418607074619,804.4690742605936,801.231277467088,795.6480248596291
1731654248.7653043,801.3489889550084,804.5403138719498,801.2986454866411,797.0239044927091
1731654248.767055,790.5608267129761,804.610530735577,801.3661149721993,797.3919146847142
1731654248.7709694,786.8149929272596,804.6830708911532,801.4334569652517,796.4976923946467
1731654248.7725973,791.8756470846209,804.7580976201738,801.500574036885,794.6314963436058
1731654248.7748835,800.6734581713026,804.8343043857029,801.5674922028522,792.0005969786495
1731654248.778798,805.8369003253833,804.9105689827683,801.63428046527,788.6119677924262
1731654248.782712,803.5854882495075,804.9865492394373,801.7009895126987,784.8118134989351
1731654248.7841237,796.0987942901254,805.0624516817506,801.7676369501565,781.6972600641764
1731654248.7860346,788.9017955726181,805.1385893829116,801.8342217504203,780.6039006342384
1731654248.786626,786.1315867922813,805.2151256521585,801.9007422283581,781.8661773225369
1731654248.7881591,787.9174150098333,805.2920578962135,801.9672042910915,784.0036372485449
1731654248.7905405,791.5264903060892,805.369314656535,802.0336203458305,784.3656529213878
1731654248.7944546,794.2713769143749,805.4468400666073,802.1000048667415,781.0523231987673
1731654248.7983687,795.2463007685781,805.5246193394249,802.1663712877768,774.6432318617167
1731654248.802283,795.0426963205127,805.6026628759918,802.2327313987836,768.1351836504106
1731654248.8029432,794.6065005532911,805.6809841506446,802.299096186681,764.8587537893168
1731654248.8037212,794.4711660884235,805.7595920396744,802.3654767638238,765.9551216345096
1731654248.8061974,794.6680694501471,805.8384965261872,802.4318847453319,769.5539656117204
1731654248.8101115,794.99597795462,805.9177133530302,802.4983321452893,772.4094798906385
1731654248.8140256,795.2803511859603,805.997253723029,802.564831122417,772.6093920686054
1731654248.81794,795.4675125599796,806.0770998202248,802.6313938112938,771.0734085609243
1731654248.8192832,795.5894119875244,806.1571899273017,802.6980322870475,770.702526372073
1731654248.8209195,795.6949159349344,806.2374507104865,802.7647586006219,774.0445852758925
1731654248.8217628,795.809685620111,806.3178918771795,802.8315848134561,781.3645543470894
1731654248.821854,795.9334266623229,806.3987066125769,802.8985230014459,790.4185750423908
1731654248.8257685,796.054925102717,806.4802382461996,802.9655852346392,797.8979109178574
1731654248.8296826,796.1653348433957,806.562683919532,803.0327835507284,801.5312105620577
1731654248.8335967,796.2624110146733,806.6456174819416,803.1001299337368,801.556852248355
1731654248.8348453,796.3482058122731,806.7277857379613,803.1676362987804,800.5825877696695
1731654248.8375113,796.4253936900601,806.8078369891115,803.2353144786348,801.7082817588821
1731654248.8405824,796.4953047859664,806.8861594469967,803.3031762093624,806.0134231033362
1731654248.8414252,796.5579245752035,806.9666291236359,803.3712331168562,811.2927792261588
1731654248.8453395,796.6127419881933,807.0556058759029,803.4394967086571,813.3134502539785
1731654248.8492537,796.659430606704,807.1559857465024,803.5079783717464,808.9735178618845
1731654248.8504074,796.6980220208837,807.2583950078279,803.5766893673384,799.049025688205
1731654248.853168,796.7287368443015,807.3385271701966,803.6456408054803,788.2965810163981
1731654248.8558047,796.7517689538112,807.3726174871739,803.7148435892148,782.6177405850972
1731654248.857082,796.7672112239289,807.3725413317759,803.7843083494865,785.2538293058511
1731654248.859402,796.7751507106227,807.4153045603749,803.854045434117,794.7794157733808
1731654248.8609965,796.7758313463997,807.6158742484544,803.9240650199033,806.365720210491
1731654248.8649106,796.7697005622999,808.0054006158458,803.9943773297178,815.3086497866211
1731654248.8659694,796.7571694794169,808.3593298904281,804.0649927600276,820.0374356037269
1731654248.8688247,796.7381123534038,808.1371924937237,804.1359215966793,822.2854018226532
1731654248.8727393,796.7115107782305,806.7115575311251,804.2071731683818,824.5984916005956
1731654248.8766532,796.6759464093982,803.8465596117692,804.278754905442,827.6964437758744
1731654248.8782215,796.6313368221661,800.068215340986,804.350672529726,830.1300132372495
1731654248.8805676,796.581030596053,796.5368061959829,804.4229325841245,830.2741545798194
1731654248.8815317,796.531691083743,794.4268959619604,804.4955467121883,828.4380357241566
1731654248.8844817,796.4882073206383,794.2641245336822,804.5685337731301,826.9867428708002
1731654248.888396,796.4444363297933,795.7177521194706,804.6419138315287,828.495333424338
1731654248.8906896,796.3777062115145,797.9767821326741,804.715691966307,833.7610107673844
1731654248.89231,796.2600602773242,800.3716243571821,804.7898419172145,841.3184958279307
1731654248.8962245,796.0921069268476,802.7188676626911,804.864313113415,848.5040460963608
1731654248.8970408,795.9402656635385,805.1259322252612,804.9390818717419,852.9035507454045
1731654248.8970935,795.927803924835,807.4981626526529,805.014230919123,853.1848295612368
1731654248.9001386,796.1315011622049,809.2944483237073,805.0899792001333,849.2305402764126
1731654248.9040527,796.40929258693,809.8497445811478,805.1665526800472,841.9919715231263
1731654248.907967,796.318879489098,808.9822233431022,805.2438730217491,833.2569728282965
1731654248.9118812,795.3693427332938,807.2295208061163,805.3212750991627,825.1920251726004
1731654248.9126556,793.691116041159,805.3793619385259,805.397702239233,819.6262805673198
1731654248.9157956,792.7342247821819,803.7237044326905,805.4727290816538,817.3933025170859
1731654248.9158604,795.10608260237,801.8527592548556,805.5480229731941,818.111375575011
1731654248.9197097,802.87981457902,799.3026066630465,805.6277011541098,820.4653678096457
1731654248.9236238,815.1282397935726,796.4247836476649,805.7155995710654,822.7370902076905
1731654248.9255748,826.9958996121446,794.4792284183833,805.809326319358,823.34510646377
1731654248.9275382,832.0909713915177,794.662571317226,805.8954774399164,821.3829785833187
1731654248.9282176,827.0401443439462,796.920826782641,805.9545072941887,817.1897477625998
1731654248.9314525,814.5565689075571,799.7548599111642,805.9809669471135,812.6688125818454
1731654248.93468,802.0982677245903,801.3375331969532,806.0100343070457,810.760962616023
1731654248.9353666,796.6915634162455,800.9754117020981,806.1199862454082,813.8073477612385
1731654248.9392807,799.8060329072797,799.5894275991858,806.3747073650836,821.5938412251585
1731654248.943195,806.4681324424034,798.8293029103369,806.709042702766,830.7228198681212
1731654248.9437797,809.5588171861801,799.6982131753239,806.8440717948544,836.4079308956043
1731654248.9471092,805.9035358601463,801.8997668982993,806.3835787157382,835.8169672414903
1731654248.951023,799.0609905739325,804.3126277019938,805.1562111641467,830.3695759707376
1731654248.9534996,796.3659935781149,805.9640815641648,803.5788777954122,824.8321163309192
1731654248.9549377,802.6345056374205,806.597908698622,802.6018917439845,823.6482129574351
1731654248.9588518,815.7852715916114,806.5107726477424,803.0781561340601,827.4482305900304
1731654248.9593418,828.0517757714629,806.0514709583023,805.0306190107534,832.6813912343525
1731654248.9604597,831.8811480191221,805.3488723366158,807.5195358282864,834.6816593415218
1731654248.9627662,825.8312248934005,804.43077594748,809.2934199787439,831.5486929422492
1731654248.9666803,815.7303341536117,803.441814646634,809.692000240914,825.5806343999219
1731654248.9705946,810.0639894157341,802.6313699756436,809.0575667397101,821.1449559875382
1731654248.9723191,813.1887637014387,802.1279108497805,808.3387526780315,820.9176377676905
1731654248.9745088,821.8801989600995,801.81565503012,808.2286225056463,823.754662402865
1731654248.9749038,828.139747027784,801.5387940618203,808.5359160920538,825.9649822045952
1731654248.9784229,825.9930357790626,801.4675235669134,808.2917015617514,824.7401404485668
1731654248.9823372,816.5606111254052,802.1946805146389,806.5177675028106,820.6165922468094
1731654248.9862514,807.1086335722807,804.3244879366538,803.0750025615182,816.7877879965669
1731654248.9901657,804.9718092378083,807.8391285423511,798.9559661509958,815.9789163541095
1731654248.990466,811.6037516600521,811.8570598929103,795.8149459339122,817.7648012704725
1731654248.9911387,821.719152982101,815.1146677177052,795.0813630097863,818.6972261021681
1731654248.9940798,827.9921057577576,816.815474443922,797.2416539852261,815.0430491276587
1731654248.9953449,827.1368698014609,817.1012731749815,801.675816463718,805.7604567497659
1731654248.9979942,822.2651820817787,816.7543121505122,807.0358890447918,793.353494846379
1731654249.0019083,819.6882250122245,816.4799345476481,811.8571609672615,782.1154398055678
1731654249.005823,822.9822162744147,816.4512958591075,815.0330024711445,775.2521451458906
1731654249.006028,829.4223774986779,816.4065543021246,815.9548116294501,773.0067961284745
1731654249.0097368,831.964373259892,815.9877048918717,814.4165993672029,772.9932050064135
1731654249.009958,825.2955037804469,814.8924330424113,810.5696199521823,772.3226923729264
1731654249.013651,810.8958556168552,812.8205207954258,805.0614850949024,769.8837205504933
1731654249.0175653,796.6649743905481,809.5434074892934,799.1330997809434,767.0803641565425
1731654249.0214794,791.1503027645232,805.2552179903913,794.3339152629381,766.5314924712173
1731654249.02159,796.9975984199161,800.8933127507365,791.873707083422,769.8525994974586
1731654249.0253935,808.9437711265515,797.9387441060105,792.065168329023,776.3630719318439
1731654249.0287776,817.9094511260771,797.5980983195873,794.281145990319,783.7005914356553
1731654249.0293078,817.844933692238,799.8912970255157,797.3839671111774,789.6558224603
1731654249.03023,810.015416611814,803.4182354605115,800.2410096417518,793.6200868101636
1731654249.0332222,801.6747500869038,806.1503767764636,802.057997660152,796.6069306837403
1731654249.0371363,800.4262230130902,806.7813336691152,802.5650365656818,800.11778875831
1731654249.037152,808.6042597374847,805.637602758471,802.139277465639,804.9049905020436
1731654249.0410504,821.7177169611923,804.3974066815364,801.7357698486064,810.4782410652341
1731654249.0449648,831.8811904042337,804.77378131527,802.4245018089,815.5084867901096
1731654249.0475972,833.5635819525639,807.175260477472,804.641682045325,818.7317715614402
1731654249.048879,827.3916629956223,810.4169820731269,807.6799928385913,819.7356754917182
1731654249.052714,819.2339345619877,812.7038756952486,809.9466525935754,819.1090262063371
1731654249.0527933,815.3370872849138,813.0393841499576,809.9579071067492,817.8731178450863
1731654249.0567074,817.3423952979381,811.8706597707634,807.3712569455918,816.6926452710927
1731654249.0606215,821.1796753457202,810.4917683497911,803.2316148549752,815.5645697991521
1731654249.064536,820.7933318271504,809.8373411926337,799.2128849036469,814.2035322112489
1731654249.065115,813.685439136666,809.7676551171214,796.4736224693444,812.6195262110807
1731654249.0664167,803.6083681892503,809.3787378255073,795.0644590216807,811.1991440144432
1731654249.0682762,797.9099344484526,807.9051073516772,794.3193972856602,810.1725552785538
1731654249.06845,801.4373209795333,805.3667217680553,793.7756711000475,809.0546942541969
1731654249.0723643,812.0157826934154,802.5195598267711,793.70936564025,806.7351736679476
1731654249.0762784,821.5971264650968,800.3431697655309,794.7848328469563,802.2837451624918
1731654249.0801928,822.6020468835756,799.5610090720794,797.2156709562728,795.8737413191827
1731654249.0838382,814.3786991760995,800.4301053115097,800.3312516782715,789.1201768132271
1731654249.0841067,804.176530915318,802.6888704624635,803.0062842539384,784.5521110536325
1731654249.0852363,801.4279211795223,805.5250739434274,804.4971547135099,784.4256386281829
1731654249.0880213,809.8563722200173,807.6659032089159,804.8530790331951,789.3968340969334
1731654249.0919354,823.9965283532617,807.8068044130102,804.6225010390705,797.7869382665256
1731654249.0958495,833.1965439373214,805.3440889426605,804.3137293177555,806.1367083694404
1731654249.0994,829.9785315060673,800.9636246464398,804.1319675638213,811.0721856128316
1731654249.099764,815.9871185538797,796.5224312518822,804.0505453781732,811.3701037021129
1731654249.1,800.7161191696669,794.0815957499715,803.9808795819595,808.5849065057089
1731654249.103678,794.0699565704848,794.6397026058166,803.8727753022836,805.5502752112064
1731654249.104056,798.713761150516,797.4764163220016,803.727033295824,803.9055089879213
1731654249.1075923,808.2241359754387,800.6440267205991,803.5668864615442,802.7961400935153
1731654249.1115065,812.4077120571678,802.2694969728626,803.4110176681315,799.9431984768275
1731654249.114962,805.537646136203,801.693125028812,803.2645814727564,794.1160026865671
1731654249.1154208,791.0110334580945,799.6571074765028,803.1237253617016,786.6903345188086
1731654249.1193347,778.7777530221954,797.5847819792097,802.9831375003222,780.7824289674091
1731654249.1228752,777.6057971196394,796.658473956857,802.84019525255,778.7274780938806
1731654249.1232493,788.288695858714,797.3317327628677,802.6950657483528,780.2421906229628
1731654249.1271634,803.0526265594862,799.3413065620972,802.5490054712193,782.9188390835242
1731654249.1305242,811.4675493725354,801.9186132180109,802.4029487759597,784.4156768172352
1731654249.1310775,808.1580436809327,804.0395049304374,802.2571025593635,784.1605447364361
1731654249.1348853,796.4276243482738,804.8020411956145,802.1112263993109,783.1675920478843
1731654249.134992,785.25323822427,803.9133751486361,801.9650320604513,782.655322199846
1731654249.138906,782.2361074465376,801.9313024104382,801.8183849792846,783.0612052793819
1731654249.1416948,788.0951871662206,799.9219045386711,801.6712958521701,784.0869699755534
1731654249.1428204,796.9248656383736,798.735584477627,801.5238286617632,785.2458506836801
1731654249.1460862,801.7501783767791,798.5362192690844,801.3760302960635,786.2551423042784
1731654249.1467345,800.5687204601096,798.9338182503607,801.2279102423696,787.0902848055274
1731654249.1506486,797.6836665964471,799.4428475891906,801.0794484351186,787.8509925390613
1731654249.154563,799.2266686517337,799.8019975024524,800.9306063591602,788.6274214131256
1731654249.1584773,806.9324736903193,799.9980262122796,800.7813393221547,789.4490583413613
1731654249.1605144,815.8493796628651,800.1288230960338,800.6316232926923,790.3008041637681
1731654249.1616485,818.2063853342038,800.2776521637363,800.4814963210656,791.1577919712221
1731654249.1623914,810.2018207015554,800.4690631793434,800.3310767768877,792.0064712933458
1731654249.1663055,795.8648238250408,800.6868962699738,800.180495160925,792.846604663537
1731654249.1697702,784.5525681874349,800.9075447679475,800.0297178193476,793.6838088617668
1731654249.17022,783.9308427449688,801.1189338244819,799.8783730447426,794.5226912606214
1731654249.174134,794.0403673054387,801.3214817307397,799.7258362432453,795.364530334277
1731654249.1772103,807.2504642259314,801.520710084409,799.5717956184593,796.2083591132935
1731654249.178048,814.2085550332025,801.7208798040986,799.4171144353417,797.0528351797187
1731654249.179334,811.0765196886675,801.9230438379092,799.2641299123383,797.8972806299975
1731654249.1819625,802.2879854750593,802.1262148021983,799.11520657084,798.7417140544263
1731654249.1858766,796.6577666556933,802.329141880754,798.9693312138869,799.5864258677467
1731654249.189791,800.0524800586817,802.5312393516514,798.8191015421882,800.4316196172467
1731654249.1927724,810.6049020035443,802.7325702713199,798.653008615302,801.277307933915
1731654249.193705,820.3259450955843,802.9334341221617,798.4667188438895,802.1233942031992
1731654249.1976194,821.7099258741498,803.1340416989259,798.2788967087192,802.9697990944308
1731654249.1981535,813.9124724764321,803.3344305471829,798.1346011187254,803.8165312232966
1731654249.2015336,803.5388215507895,803.5345369017595,798.0748675859226,804.6636596182335
1731654249.2046552,799.4676373326637,803.7342906444837,798.0719416688137,805.51119585401
1731654249.2054477,805.8324360588538,803.9336615106708,797.979066369853,806.3589585342563
1731654249.2083344,818.6772863547502,804.1326551224716,797.5880980022857,807.2065685992616
1731654249.209362,828.9522535993306,804.3312876830383,796.8572307316115,808.0537265260441
1731654249.213276,829.5864657010299,804.5295638979585,796.2126655245397,808.9007296194106
1731654249.2169728,821.0598103493412,804.7274689244839,796.612150181341,809.7487982237219
1731654249.2171905,810.8753635018539,804.9249771541196,799.0494146571316,810.599490549394
1731654249.2211046,807.1760720918504,805.1220762391306,803.6417768611317,811.4528527530572
1731654249.2238965,811.7271527879903,805.318794499426,809.0919685091696,812.3053165996138
1731654249.225019,818.2710094621298,805.5152034309338,813.2673144171678,813.1500645896189
1731654249.228933,817.819259126334,805.7113631134292,814.6099307485752,813.9826034674254
1731654249.2328472,806.4630020788327,805.9072146875906,813.1612403914997,814.810352518927
1731654249.2357924,789.0763326843437,806.1025045132845,810.3004459450333,815.6576343286201
1731654249.2367616,775.813118609007,806.2968908526317,807.5366149527482,816.5527150481016
1731654249.2394586,774.3260115986936,806.4903195937053,805.5194542204981,817.4919233359847
1731654249.2395403,783.9811247640282,806.6834798965714,804.0690415239874,818.4026062549246
1731654249.2406757,796.5292282497319,806.8777837344853,802.9672909551258,819.1572425806627
1731654249.24459,802.5449690064978,807.0742675488196,802.5915783574349,819.6860977006153
1731654249.2485042,798.5248082496892,807.2715823036925,803.7500208651855,820.1554918937521
1731654249.2524185,789.0939733902088,807.4647827971407,806.8927383460674,821.039938024862
1731654249.254612,782.6690919698,807.6477313397255,811.4239562347941,822.8436195135413
1731654249.2550206,784.2377820090315,807.8204006839935,815.7213322131855,825.4143858539333
1731654249.2563326,791.3388616542916,807.9969114491957,817.9040435532587,827.3175910292914
1731654249.2602468,796.6341577467534,808.2034480920408,816.8612872349833,826.1875836520619
1731654249.264161,794.764556945165,808.4552062860929,812.8815968721949,820.4253443600907
1731654249.2680752,787.4076550900675,808.7166825287765,807.4701556070229,810.9923711523817
1731654249.270583,782.0081899553969,808.8766746880898,802.4579045350489,801.3050490826654
1731654249.2719896,785.2120724286465,808.7807416945841,798.9830758407303,794.9036159912645
1731654249.2734315,796.6901176054783,808.3236493097731,797.0252831240596,792.9165479036357
1731654249.2744253,808.7794910853837,807.5309526196742,795.7836774252123,793.5569273711392
1731654249.2759037,812.5257419122051,806.5412904850123,794.5686586921745,793.9125040873375
1731654249.279818,805.3229389347914,805.4857153302014,793.482419064284,792.3447696114143
1731654249.2837322,793.7547866687753,804.3708956923376,793.3238252557547,789.5447892837898
1731654249.2861447,788.8472026633124,803.0973879801514,794.7882715011284,787.5920109277947
1731654249.2876463,797.1456528707236,801.6426407385977,797.6557245576325,788.0021825107824
1731654249.2915606,814.845635472616,800.2726227193517,800.7191024467676,790.4707588126888
1731654249.292251,830.1252020870304,799.562494376461,802.5849025869655,793.3199554858849
1731654249.2954748,832.1681608290455,800.1208937245683,802.6918816065838,795.1343248346612
1731654249.2993891,819.6613203574102,802.1536813650775,801.6697213244357,796.0193462769612
1731654249.3017068,801.829799154943,805.1587664800542,800.7388898078151,797.287698038859
1731654249.3033032,791.2152408343662,807.9892701092111,800.7113715619973,799.8615598307839
1731654249.3072176,794.1214619866508,809.3229192610089,801.4797561405904,802.9174876581823
1731654249.3093104,806.2936827988533,808.3538786647421,802.3716950247458,804.1355858616502
1731654249.311071,816.8887597112714,805.3534505635354,802.908105253453,801.492024454304
1731654249.3111317,817.187715868178,801.7150095042558,803.1718220837232,795.1428024538676
1731654249.3150458,807.1063447911964,799.3180773727953,803.4846831866033,787.798777882307
1731654249.3172688,794.6611183794723,799.4815350190139,803.8594374529938,783.1680139287928
1731654249.3189602,789.1610176474541,802.1357016526426,803.8983504310958,783.5325181733888
1731654249.3228743,793.6828886458629,805.7904081447243,803.2467144943689,788.1751508875857
1731654249.326789,802.8206465191586,808.3820081044215,802.0505533454727,793.7804724520302
1731654249.32989,807.4803415628076,808.5032265938036,800.8800898985531,796.6053594338534
1731654249.3307028,802.8270750347687,806.2793886095177,800.2111741167369,795.031035262526
1731654249.332831,792.8248699580839,803.3748414118639,800.035649547416,790.7666576216772
1731654249.3346171,787.4188438266149,802.0919481899597,799.9775867072899,787.7440083031447
1731654249.3385313,794.3853011156132,804.0030039660867,799.7258155049009,789.3007070370936
1731654249.3424454,812.4123325526475,808.8678798193098,799.3110693598368,795.6117229522882
1731654249.3441954,831.2217738494892,814.5664149121869,798.9933415788058,803.3523457079128
1731654249.3463595,838.9489083694061,818.2513411192829,798.9430581906033,807.9984637885417
1731654249.348393,831.0798656984682,818.0726924839332,799.0613821565587,807.121633317517
1731654249.3487096,813.855591240045,814.2846587825832,799.0976445060091,802.1926362051415
1731654249.3502738,799.365332581666,808.9243323316693,798.9300859913335,797.5043639154231
1731654249.3541882,796.1756644777971,804.3629439488413,798.7521230381717,797.0151351139082
1731654249.3581023,802.9776785200182,801.9003253049204,799.0106201910813,801.4905291108328
1731654249.362017,810.3319312278102,801.3864544037325,800.1395207631612,808.0715053793432
1731654249.363955,808.9521680241164,801.8572492883083,802.2625576830353,812.521108914266
1731654249.3659308,797.5799941961174,802.4103689669,805.0453589539637,812.3738585301671
1731654249.3675292,783.9603829638007,802.6496513518808,807.7926248281333,808.6087849748066
1731654249.369845,778.3055678130469,802.6146711983404,809.7606308335833,804.689237095409
1731654249.3737593,784.8374032743154,802.4980186551071,810.5320812105318,803.8216538373326
1731654249.3776734,798.3518031404112,802.4346121890147,810.2352325683021,806.5424193543287
1731654249.3790803,808.4051813731843,802.4492694972361,809.4460408581691,810.3979038971894
1731654249.3795173,807.5240525355824,802.5036474410191,808.8033662667402,811.8814694274444
1731654249.3815875,796.8167048637363,802.5561041339388,808.590514550373,809.1159180658943
1731654249.385502,784.7025840288225,802.5895621729694,808.6009858414668,803.2196143743666
1731654249.3863487,780.0932147453846,802.6081595976183,808.3991851685838,797.2962890352275
1731654249.3894162,785.7401008229932,802.6225618733017,807.7468938215652,793.8691941413152
1731654249.3933303,797.060454065475,802.6395725502665,806.8165142377644,792.9176893833888
1731654249.3950791,806.8002881948811,802.6600815805876,806.0243327996011,792.2613968069415
1731654249.3972445,810.7841197322625,802.6818788374554,805.6815586124419,789.976009687262
1731654249.4011588,809.761871032634,802.702800651292,805.7989096369774,786.5218840298005
1731654249.4050727,806.9852927635064,802.7220532158822,806.1776494947273,784.3866188966357
1731654249.4051683,805.007858775623,802.7399251869596,806.6349888886951,785.5497473251488
1731654249.4089873,804.471819322959,802.7569873742488,807.1395577478747,789.4903395053776
1731654249.4106412,804.7663739382743,802.7735724222346,807.7779958540833,793.8136829431962
1731654249.4129014,805.1139314084434,802.7897009563095,808.6205638925215,796.4892703018487
1731654249.4139657,805.1478632972054,802.8052467589838,809.570878764423,797.1768768404805
1731654249.4168158,804.9062113828073,802.8201009809096,810.2539187198572,796.7711558920956
1731654249.42073,804.5768339457715,802.8342301192856,810.0305165596883,796.2743858336548
1731654249.423988,804.2944820032596,802.8476472556229,808.2570927117083,796.1530214575929
1731654249.424644,804.0868357352664,802.8603623753766,804.7651231742647,796.3661221850163
1731654249.4262033,803.9182358390794,802.872363024282,800.2485131138399,796.6849207688618
1731654249.4285583,803.7480656449765,802.8836393511596,796.1441272037486,796.94439291298
1731654249.4324725,803.5589462002289,802.8942293801862,793.920132969896,797.1105359264591
1731654249.4363868,803.354337014037,802.9042313457054,794.2161577657295,797.2270877203168
1731654249.4403007,803.1444845333575,802.9137300904669,796.4671807759681,797.343942586516
1731654249.4417653,802.9361413497021,802.922643569099,799.2690608300891,797.4825008952929
1731654249.4428072,802.7303304537822,802.9306134077268,801.1833709809881,797.6385682721163
1731654249.4442153,802.5249666611775,802.9371569216738,801.4511588556069,797.7995908277746
1731654249.4481294,802.3179306886516,802.9422034112738,800.2818220111224,797.9572859494419
1731654249.4488506,802.1084171088032,802.9467425083036,798.6896921098526,798.1104026358411
1731654249.4520435,801.896691613473,802.9527901077155,798.000521650447,798.2615142142896
1731654249.455958,801.6833037786979,802.9618167055058,799.1796301742412,798.4132491396235
1731654249.4573274,801.4685495152754,802.9718839128022,802.2090308409965,798.5666348774071
1731654249.459872,801.2523903829073,802.975938564725,805.8636431356078,798.7213861266401
1731654249.4616268,801.0346642694731,802.9652801561255,808.1916840144968,798.8768522986425
1731654249.4637864,800.8153413547187,802.9400244684996,807.6214234106014,799.0326601188366
1731654249.4677005,800.5946326811206,802.9206362027247,804.0774541228034,799.1888222834442
1731654249.4716148,800.3728343025019,802.9451934537295,799.283412467068,799.3455373241821
1731654249.4728894,800.1499217323692,803.0374633117355,795.8805841237386,799.5029636426607
1731654249.475529,799.9251632492948,803.1535686609399,795.8478180522127,799.6611161187892
1731654249.4794433,799.697287728778,803.1566591725382,799.2848683990858,799.8199081427404
1731654249.4804463,799.4656527642294,802.8944242956856,804.4132992603747,799.9793000359741
1731654249.4833574,799.2320271013466,802.4058638948335,808.7767557258228,800.1394663436996
1731654249.4837356,799.0012189616477,802.1364211181697,810.7469002864301,800.3008268665498
1731654249.4872715,798.7781185158033,802.8851234004131,810.2572647580845,800.4637718092963
1731654249.4884515,798.5607039114287,805.2828728503092,808.355627227161,800.6280929844277
1731654249.491186,798.3338235922839,809.0719977586957,806.1243608716713,800.7925484030095
1731654249.4951,798.0738206908728,812.9277867354481,803.9349518984789,800.9553545872776
1731654249.4990144,797.7716580375098,815.2452869200552,801.5508738876536,801.1161131522766
1731654249.499266,797.4654711842438,815.2822149694208,798.7706237694432,801.2782734652483
1731654249.5029285,797.2477437607481,813.5548289928572,795.9036303569043,801.4492660276383
1731654249.5040135,797.2030395888777,811.1456173771629,793.6722209572524,801.6350256092913
1731654249.5068426,797.274780338276,808.6993762497644,792.7057737606176,801.82942426866
1731654249.510757,797.1608831100317,806.0977683200033,793.0812552103848,802.0072222118115
1731654249.514671,796.4290938756576,803.0087082541723,794.2409732917831,802.1354484064505
1731654249.5180857,794.9783800013378,799.6408053394337,795.3265587143654,802.2111111071382
1731654249.5185854,793.6426817207395,796.9231514617245,795.7252531821464,802.3053365362731
1731654249.5186207,794.2726966779381,795.9466063118689,795.4914826206516,802.558269035461
1731654249.5195756,798.5597691741649,797.1723985765865,795.3394257640057,803.0667378417434
1731654249.5224996,805.8748032667952,800.0612232596533,796.165285169232,803.6854568699663
1731654249.526414,812.231145489967,803.3907865019635,798.4245558946627,803.9151801916772
1731654249.530328,812.7000017731467,806.0146640784676,801.8277330368435,803.1530730365578
1731654249.5342422,806.163448485791,807.5333520607113,805.5442522538054,801.4135903875608
1731654249.5351377,797.5114423621308,808.4076188872361,808.6733991926837,800.0707332374028
1731654249.5369053,794.0035152377344,809.4002843389025,810.5962116865666,801.6044940610411
1731654249.5381565,798.6303530111979,810.7424052728829,811.0645916245105,807.7722914885992
1731654249.5420706,806.842640525411,811.7411487241689,810.1670308509522,817.3988174382283
1731654249.545985,810.0374111668004,811.2775086081081,808.3148548456037,826.1984932089305
1731654249.549899,802.9443220667714,808.8378402532998,806.2106169302601,829.5711964994091
1731654249.5506997,788.5483966925557,805.1203406110519,804.6884543179953,826.2764301050734
1731654249.553506,776.3303669675034,801.5947202165635,804.427782113703,819.6869186756695
1731654249.5538137,775.1691415202546,799.4318588271215,805.6584246189376,815.3251139437552
1731654249.5557244,786.4862135954531,798.8164002728705,807.9866423983725,816.6106628167628
1731654249.5577276,802.9770273103412,799.1400767105184,810.44672348395,822.2599555660062
1731654249.5616417,813.9968619290996,799.6622686771641,811.8542866751419,827.3931766006622
1731654249.565556,813.5474539288912,799.9760175423363,811.403564649393,827.3904398924577
1731654249.5662618,804.6515919831426,800.047930219429,809.204591864162,821.3795449511285
1731654249.5694702,796.5915969536699,800.0182065760832,806.3393235037124,812.6500817389331
1731654249.5733843,797.2067518890959,800.0115156971868,804.2668136290639,805.8823760713175
1731654249.574544,806.561890620429,800.0671316010669,803.9086042199243,803.6466765110349
1731654249.5772986,817.1830648801805,800.162821121274,805.0640774406471,805.0054857127901
1731654249.581213,820.547321253119,800.2637251290577,806.6128407958054,807.0381287674505
1731654249.5818238,814.3394167530762,800.3513171715244,807.3663914310948,807.596995858163
1731654249.585127,804.4966967273748,800.4256647043713,806.9131391269989,806.7954902617975
1731654249.5883908,800.4610031904758,800.4947892528621,805.808422864269,806.1515680824931
1731654249.5890412,807.5399204691149,800.5651252537293,805.0109530249279,806.5180140845844
1731654249.5929556,822.4728390123327,800.6384113993945,805.0921539809397,806.9267170356229
1731654249.5933635,835.6905163442938,800.713288852048,805.8930124115241,805.479583803106
1731654249.5968697,838.5322571119792,800.7879239535167,806.8498318089306,801.4376008593342
1731654249.597386,829.8389828853703,800.8614325368216,807.5862957934722,796.5011177767637
1731654249.600784,816.774106022666,800.933898953712,808.1597620231548,793.9522219812169
1731654249.6046982,809.1782694125517,801.0057786685227,808.7454954489504,796.2150351650428
1731654249.6086123,811.8776587259213,801.0774086992838,809.1541629798131,802.8129623153447
1731654249.612183,821.0612639927729,801.1488706171561,808.7884468960189,810.4390179648407
1731654249.612527,827.5995721815956,801.2200923626864,807.2038009960609,815.1607651989298
1731654249.612948,824.5370145896125,801.2909915038351,804.7537946345041,815.093252329198
1731654249.6164408,812.6260855917043,801.3615474029593,802.5865363013081,811.5441006078244
1731654249.6203551,799.5029670580928,801.4317932596224,801.8122542234354,807.8475810544886
1731654249.623276,793.4161885262622,801.501768881711,802.499271829004,806.8327405014277
1731654249.6242692,796.799728016014,801.5714781289685,803.4464089050076,808.7913984055641
1731654249.6281836,804.8623087947053,801.6408828534179,803.073913814686,811.3430076239061
1731654249.62851,810.0676179671317,801.7099496097314,800.7726181304344,811.2128967922496
1731654249.631003,808.5784348791084,801.7787338356837,797.5554391739886,806.6509008848227
1731654249.6320975,803.2597368909784,801.8474324207546,795.3608429760641,798.8016027728754
1731654249.636012,800.7440668203681,801.9162966633731,795.4978441404909,791.0175237496885
1731654249.6399262,805.0466811964296,801.985353732616,797.5258375353005,786.5246599065736
1731654249.6438403,813.3009088448096,802.0540885148241,799.5546925843951,786.1185044637167
1731654249.644072,817.6394265227659,802.1214936658696,799.7207575378619,787.6654360515391
1731654249.647755,812.0143239051282,802.1869013912485,797.5648455723216,787.8347661251132
1731654249.6498222,798.1745377705552,802.2514239506555,794.2047303202302,784.6940898601026
1731654249.6516688,785.3156119456194,802.3187165519971,791.3484225989711,779.105910171916
1731654249.6555831,783.1670689303817,802.3930552311875,790.1425982364294,773.892796848321
1731654249.6581607,794.0377851767811,802.473962278767,790.744044509763,771.5857096030754
1731654249.6594973,810.5180025983999,802.5506119034391,792.6634441854629,772.6486674698871
1731654249.659634,820.9883816207544,802.6038553753243,795.3021531470739,775.529932715692
1731654249.6634116,818.6123823310134,802.6230243484548,798.1820628885938,778.2838669165067
1731654249.6673255,806.5460862534107,802.6326746428099,800.8641895429937,780.2446985434317
1731654249.6686416,795.1751274851455,802.703534856324,802.8763257806322,782.3293044165256
1731654249.67124,793.7095647398079,802.9106534701181,803.8553669069158,785.8099629540261
1731654249.6751542,802.9809885834878,803.2291194521501,803.7724692786419,790.7067485072515
1731654249.675196,815.1087574327189,803.4348336420438,802.9548107186637,795.2529098232474
1731654249.6790683,820.0145027121297,803.1572733556142,801.8167651515089,797.0045638860327
1731654249.6829827,813.3953471357532,802.1968485967517,800.5421153715164,794.8189320703789
1731654249.6868968,799.9346067309295,800.9585941105286,799.0500187998744,790.1521931035173
1731654249.6874611,789.5046179376191,800.5080092028209,797.3082925515089,786.538597477536
1731654249.690758,789.4934122535328,801.8904473425366,795.6789833591489,787.4347938574714
1731654249.6908112,799.1296003037047,805.1983819475399,794.883073620523,793.8784180053766
1731654249.693046,810.0479779411379,809.4020725143619,795.5100194512785,803.6689055781713
1731654249.6947253,812.6894102576559,813.1994161425506,797.4938134501067,812.7814943912066
1731654249.6986394,803.7532972679703,815.972090633121,800.1075889648881,818.1066748872425
1731654249.7025535,788.9851660049044,817.8859912551424,802.561215848912,819.5276773495285
1731654249.7062807,778.9970486620017,819.1990503322627,804.6436408774998,819.7281219891445
1731654249.70632,781.2081951453813,819.6567494362826,806.7542954004197,821.8334176638119
1731654249.706468,794.1453109863872,818.6561016716935,809.2949699022381,826.7422259722607
1731654249.7103822,808.5940307647847,815.9939563972795,812.0779008930132,832.3112736332529
1731654249.7142963,814.720981751756,812.4191084830658,814.3717882863227,835.0710248796918
1731654249.7182107,809.5675583269805,809.4197714772447,815.504111079404,833.0806237715558
1731654249.721882,799.0583805188908,808.3942190945155,815.3757829948539,827.6245369058262
1731654249.7221248,793.0694715097713,809.8463137102763,814.4115834991184,822.4306712686681
1731654249.7251005,797.571121173087,813.1323083457651,813.0888239257367,821.0495812758927
1731654249.7260387,810.0262567221656,816.8072815354706,811.5516050288458,824.3751931312265
1731654249.727931,821.5209636459188,819.2699018493845,809.637613372699,830.0903913048174
1731654249.7299533,823.8054638464223,819.382892730461,807.230853913165,834.3756177863085
1731654249.7338674,815.6418351116099,816.8799114137487,804.6151696594409,834.589938813481
1731654249.7374442,803.4649485320947,812.4571810796434,802.5349841429731,830.9484817269874
1731654249.7377818,795.9436782037194,807.5100651190462,801.857769745998,826.005301231056
1731654249.741696,797.0025967741466,803.6022769604756,802.9916077042033,822.4738987299087
1731654249.7439198,803.1070404155909,801.8847096609588,805.4488884679661,821.2149687537875
1731654249.7456102,806.9594733495617,802.6852005724464,807.9581360523952,820.985307451573
1731654249.7495244,804.2724714503014,805.4044445527769,809.1706742550459,819.975648053976
1731654249.7530062,797.7174027021352,808.7882807063713,808.5015775802605,817.652970002745
1731654249.7534385,794.6715774208409,811.5440842235405,806.4549149436656,815.2604358962917
1731654249.7573528,800.7121240604853,813.0183921315274,804.1548841578044,814.5730488248132
1731654249.7612667,814.3623031710662,813.449077148229,802.4547657404956,816.0260982381449
1731654249.7627394,827.5402357730089,813.5278820009985,801.3594140331567,817.8614672209961
1731654249.7628162,831.5256072921586,813.6147115669149,800.2378999648059,817.0974884908575
1731654249.7651813,823.7810835532088,813.3195476979994,798.6120675111264,811.6324480122884
1731654249.7685685,810.1028733083427,811.8391864246736,796.7712516481989,801.8384805712491
1731654249.7690954,800.1086871314909,808.7172202682682,795.5949807173757,790.3792222020488
1731654249.7730098,799.4824086570518,804.3374384450474,795.7104204158736,780.429594293482
1731654249.776924,805.3648453196836,799.773865580445,796.7979417652869,773.7867357692444
1731654249.780838,808.9644001417574,796.1997903072829,797.7806644011756,770.3681229781395
1731654249.7815588,803.3843069111404,794.3385165671249,797.7982977197199,769.2785145658086
1731654249.7841303,790.0156623616424,794.2795580803751,797.0734147918208,770.2210929715068
1731654249.7847524,777.9078144772482,795.6518866344283,796.8374219179586,773.8335337633408
1731654249.7886665,776.5060157465234,797.929940443468,798.3535922178768,780.6593748616112
1731654249.7925808,787.8001884178362,800.6395950774003,801.8961886661182,789.7944071868781
1731654249.796495,804.385084517447,803.37333756973,806.5308454247277,798.5648592498609
1731654249.7977011,814.9754470676271,805.7055361543173,810.7663008372998,803.7155722965273
1731654249.7996924,812.9020279074595,807.1881654671674,813.4143685176065,803.3668454595398
1731654249.8003783,800.92627565843,807.5148373532562,813.9747189496911,798.3979182804181
1731654249.8004093,788.7722478130866,806.7305889464624,812.4514891316777,792.2336541754066
1731654249.8043234,785.4302850340054,805.2566886710683,809.0473673207463,788.9614119106135
1731654249.8082376,792.2745543346717,803.6534496459449,804.1680679732,790.8062449487784
1731654249.812152,802.4267225801424,802.3227556494154,798.7006766321883,796.6381505967436
1731654249.8152544,806.8668572672061,801.4200735897115,794.1099248670171,802.7378823681554
1731654249.816066,802.2073213254182,800.9878536152314,791.9620163272791,805.481061825538
1731654249.819198,793.5100914725551,801.0509982522307,793.0275432009894,804.0001482914679
1731654249.8199804,789.700386971114,801.4970720044723,796.6490747025706,800.7235145190377
1731654249.8238945,795.5712395273343,801.9084232908448,801.0095741210818,799.3230759473252
1731654249.8278089,807.3597697200536,801.6597530251214,804.2247603695272,801.71216871888
1731654249.8308165,815.7311720012232,800.3239519686458,805.4303878911794,806.5090506067479
1731654249.831723,813.5929523636493,798.0548434892694,805.0132635473594,810.1678673218447
1731654249.8325863,802.1116821421322,795.5724861352869,803.9108491119091,809.8093874646407
1731654249.835637,789.946034519245,793.7164084047959,802.7120288405805,805.4277581225407
1731654249.8380177,786.4505881847497,792.9235360752755,801.3497317636253,799.6882646228944
1731654249.8395514,794.5814115467108,793.0515577030441,799.5144827312484,795.545637753908
1731654249.8434656,809.3028479588381,793.6287264533465,797.2579402386822,793.7694704177272
1731654249.8463786,822.3337644073271,794.2329666755064,795.1858798374506,792.5496019251462
1731654249.84738,828.4919951684954,794.6860358663974,794.0937407867037,789.4932183228229
1731654249.851294,828.1472352285066,795.0124647052912,794.3868565769361,784.1393523706295
1731654249.8552084,824.8988969096746,795.304258878244,795.7732120292642,778.6577186953303
1731654249.856837,821.969969979825,795.6235258209327,797.4836411101585,776.1242014552209
1731654249.8591225,820.5189363019969,795.9802589825255,798.8642765322138,778.001941274816
1731654249.8619406,820.111620021351,796.3556622990744,799.874987438416,783.0829160267613
1731654249.8630366,819.906600340953,796.7302652695727,801.0523139622544,788.6930261744826
1731654249.866951,819.4151127522039,797.0964617614278,802.9017535413625,792.9269687190626
1731654249.8674712,818.605996556232,797.456496963883,805.2002048404753,795.9104575385537
1731654249.870865,817.6644475706055,797.8154502317077,806.8575481709065,799.1056545456856
1731654249.8747797,816.7529978213096,798.1764492388754,806.5762825993447,803.4252841887952
1731654249.8756566,815.9228945361106,798.5398327549091,803.8582046930292,807.8926534236841
1731654249.877503,815.1455284376549,798.9045334622284,799.5519131387811,810.073521138585
1731654249.8786936,814.3758348549509,799.2695508914059,795.4604571387181,808.0035143050479
1731654249.882608,813.5898257822035,799.6345428442334,793.2640046836843,802.0368707275566
1731654249.886522,812.7875523248618,799.9996685927312,793.5303556892352,794.9983785421001
1731654249.8904362,811.9793568877452,800.3652085866926,795.4830737243119,790.3643212771268
1731654249.8930647,811.1735324040604,800.7313254715172,797.6157438298139,789.8833563915788
1731654249.8943503,810.3722976992391,801.0980343770527,798.6747559142927,792.5708684396036
1731654249.894476,809.5738643963656,801.4652808087027,798.3706118248082,795.8164493639478
1731654249.8982646,808.7758340645984,801.83301624901,797.4382983859905,797.5111011729383
1731654249.902179,807.9770454610177,802.201227896397,797.1003745001811,797.3462350123149
1731654249.9023564,807.1775952347099,802.5699342225475,798.3176486495735,796.4111114061964
1731654249.9060931,806.3780468616685,802.9391708221964,801.2812760408495,795.8590229043031
1731654249.9086268,805.5787734836292,803.308975492111,805.3919791330201,796.036514695936
1731654249.9100077,804.7797794310815,803.6793669693375,809.6308204873028,796.611698366051
1731654249.9132955,803.9808853752487,804.0503181623257,812.9998684922459,797.150964435938
1731654249.9139216,803.1820164602831,804.4217493148291,814.7724866842959,797.4694380727108
1731654249.9178357,802.3833636255132,804.7935818198131,814.5602849282523,797.6181412500439
1731654249.92175,801.5852613000961,805.1658610444321,812.3831757038674,797.7219894524761
1731654249.9241889,800.7877584404815,805.5388642284897,808.8090017746459,797.8610335378107
1731654249.9256642,799.9901352174967,805.9130166285354,804.9536876832177,798.046487624687
1731654249.9295783,799.1909490448281,806.2884819735009,802.0902609997828,798.2531251085672
1731654249.9321153,798.3891922949294,806.664589439622,800.9680542872173,798.4558717107997
1731654249.933493,797.5863309431276,807.0397130315289,801.348031279646,798.6454065020912
1731654249.9372413,796.7874338170631,807.4123791578244,802.2127265140418,798.8250142868768
1731654249.937407,795.998557956678,807.7836220703438,802.5612971127381,799.0013533123564
1731654249.939751,795.2192334147251,808.1588191345422,802.1666231493191,799.1783785775782
1731654249.9413211,794.4344729724471,808.5456497504654,801.6815134497654,799.3564191439533
1731654249.9452353,793.617289616542,808.9460083383583,802.0315992727183,799.5340475725229
1731654249.9491496,792.751999388299,809.3456241721661,803.6218504767634,799.7099816005008
1731654249.9509346,791.8720092587325,809.7134878130726,806.002808408136,799.8838115892729
1731654249.9530635,791.0763837124128,810.0250871176559,808.2152889698691,800.0557686574365
1731654249.955313,790.4729893911368,810.3077524128557,809.4580967706751,800.2262249199216
1731654249.956978,790.033570607745,810.673039262957,809.5142887687548,800.3953901915982
1731654249.9608922,789.4549088770591,811.2765484518197,808.6790717458032,800.5632824165697
1731654249.9648066,788.2369038595335,812.1816998268467,807.4077621593641,800.7298353044333
1731654249.968721,786.1547012723737,813.2180163795562,806.068494609362,800.8950002144267
1731654249.9697542,783.9701083457738,814.0037361822212,804.939561315298,801.058784114985
1731654249.970875,783.6927748286566,814.1896761131144,804.2756453069726,801.2212345819104
1731654249.9721265,787.497993630976,813.7428192468747,804.2384376868357,801.3824029373802
1731654249.9726348,795.3500079619956,812.9923868712128,804.7285341527987,801.5423092524571
1731654249.9765491,803.4102757277618,812.3315499120646,805.3475202097943,801.7009276493172
1731654249.9804633,805.9939844251336,811.7721629082638,805.6251572716136,801.8582124427371
1731654249.9843776,800.6246608694519,810.7535636084956,805.3620101889784,802.0141739337906
1731654249.986437,791.3499391091972,808.4961278841488,804.7757354183565,802.1689655216326
1731654249.9882915,786.0655585999075,804.7499191736337,804.2989262745017,802.3228784680296
1731654249.9885738,789.5806450832846,800.350761031489,804.217200155375,802.4761332321278
1731654249.992206,798.8710580914912,797.0145576865847,804.4941304705105,802.6285004764686
1731654249.9961202,805.2114728932853,796.361899078142,804.9131676345894,802.7790747717695
1731654250.0000343,801.5373387710172,798.8158285128136,805.3183822783824,802.9267310748937
1731654250.0019991,788.6501861076595,803.1756682719171,805.6780932890135,803.0715057625931
1731654250.0039487,774.9717528429431,807.198456653525,805.978450259725,803.2161213395988
1731654250.0070114,770.131824374811,808.8247729123243,806.1604352065671,803.3656291539959
1731654250.0073931,777.6545957738585,807.2948862307644,806.1782792792716,803.5231925657635
1731654250.0078628,792.4319801493172,803.5124618534528,806.0587420631164,803.6830189509665
1731654250.0117772,804.7200145697723,799.4709706151191,805.8769324650326,803.8269276819572
1731654250.0156913,807.43851693067,797.0975333230588,805.6968919825784,803.9343501821669
1731654250.0175612,801.2202280183471,797.2312943993096,805.542791563916,804.0089934372983
1731654250.0196056,793.4758886999423,799.3865278312405,805.4081546072671,804.1053582461099
1731654250.0235198,792.3300680064024,802.3887652207723,805.2778950548995,804.3159001038593
1731654250.0262127,800.2133083350915,805.2852746235519,805.1428196063528,804.6838420714892
1731654250.027434,812.1146974468936,807.7465648918405,805.0020653804345,805.0653098170553
1731654250.0313482,819.7719992331465,809.7274203987436,804.8589055340169,805.0602930310243
1731654250.0331233,818.3378004958748,810.9094736319321,804.7163499918631,804.1620007260035
1731654250.0352623,810.1245734913338,810.6149606872025,804.575415012303,802.1097834747493
1731654250.0391767,802.479820546485,808.3199581565219,804.4356237308663,799.1499838571999
1731654250.0418966,801.6594291302032,804.2590733200179,804.2961537240883,795.8847125330561
1731654250.0430908,807.7792144262692,799.5534233267945,804.156545949976,792.8166990231045
1731654250.0450325,814.9379129542026,795.7519222379193,804.0167823552486,790.1269361251954
1731654250.0470052,816.3232747379105,794.1129792013663,803.8770437388708,788.0256405311317
1731654250.0486853,810.0501902254592,795.0414791049336,803.7374814650224,787.3013046168387
1731654250.0509193,800.8754286587241,797.9379967261142,803.5981375507022,789.2814471466723
1731654250.0548334,796.2895627836643,801.5166282580864,803.4589780992303,794.8895348248669
1731654250.0587478,800.1749657000506,804.4540563501871,803.3199544073642,803.4535772403883
1731654250.062662,809.3918774120714,806.053885515176,803.1810383425635,812.4116944075032
1731654250.0638518,816.3300541467254,806.5591563448086,803.0422259659675,818.4987124189631
1731654250.0642474,815.4176391496985,806.92571638821,802.9035265934457,819.7937207187205
1731654250.0665762,808.0722147326333,808.189472766301,802.7649516880425,817.1536099638231
1731654250.0704904,801.7151966971113,810.7914226706379,802.6265060899233,813.7936744856577
1731654250.0744047,803.4392549524321,814.2297451684625,802.4881789846457,813.0538009011678
1731654250.0767815,813.5861907752208,817.2360803746734,802.3499383141186,815.853786397164
1731654250.0783188,824.8243167455295,818.4229718988337,802.2117419503309,819.8266905206847
1731654250.0798094,827.8314104102687,817.0838957339231,802.0735760391957,821.0239165985176
1731654250.082233,819.0641023857751,813.6640609758359,801.9355041058568,817.0688678708549
1731654250.0826714,804.1405017931795,809.5532042180398,801.7976705697009,809.3104645611911
1731654250.0861473,793.8584584858474,806.3060477368866,801.6601922836438,802.1389125921074
1731654250.0900614,795.9318411907833,804.8313335403233,801.5229462642657,799.8405811294546
1731654250.0939758,809.0507704137717,805.0778592415368,801.3854240555264,803.4020574801419
1731654250.0953715,823.9472304543713,806.2940358684555,801.2469529030737,809.7890794102201
1731654250.09789,830.5024953742313,807.5322590355227,801.1074490509349,814.2820997243621
1731654250.101491,825.2661667183246,808.0775470980612,800.9683141340382,814.0395579734327
1731654250.1018045,813.6548884394432,807.7123376053939,800.8323613958955,810.1295425358468
1731654250.1057184,805.3386812549064,806.7957585069968,800.701591826254,806.5151731193764
1731654250.1096325,806.5127368623745,806.0504870670064,800.5732003670448,806.8593156661332
1731654250.1109335,815.0681536186449,806.056356394419,800.4372686135303,811.6538116437076
1731654250.111667,822.4404199758538,806.7811844102688,800.281730905041,817.8411101708709
1731654250.1135468,820.7006591171839,807.5858992417817,800.1070294709275,821.1124921999059
1731654250.117461,809.1775498130663,807.729672214814,799.9419656473849,819.0244649676775
1731654250.1203103,795.092913575787,806.874983390937,799.8391624869967,812.5461906302845
1731654250.121375,787.5436623580961,805.118327689651,799.829293230076,804.9858604976228
1731654250.1252894,789.8412895516051,802.6665696313119,799.8446987743512,799.3382224119639
1731654250.1264956,796.7934759745518,799.694098860137,799.6790831713367,796.2673147403789
1731654250.1292038,799.3499724261158,796.5958277233118,799.0782271800739,794.2635141082272
1731654250.133118,792.6324402723416,794.2169952572011,797.9770603012568,791.6030615985409
1731654250.137032,780.4111923454979,793.5682808702863,796.7124743426349,788.2495360717721
1731654250.13913,772.2155406149617,795.1622666246957,795.9417514934722,786.0263247166287
1731654250.1409464,775.5890840965145,798.6255748253924,796.2029781704985,786.9931339789538
1731654250.1420577,789.9409379899195,802.9782320449098,797.440283980401,791.5035837415435
1731654250.1448605,806.8708126025725,807.2641954376613,798.9451114520757,797.6171823131033
1731654250.1465518,816.4917326056832,810.9126319802664,799.8300827831517,802.3531275539161
1731654250.1487749,814.6443228858498,813.5914407364355,799.6660132027667,803.7716839076044
1731654250.152689,805.4381399771024,814.8759957124684,798.7518136941483,802.2477899768021
1731654250.156603,797.3679096193715,814.2141909185765,797.8049215201456,799.9967339247429
1731654250.1576197,796.3250042677871,811.3479488333148,797.3626140974887,799.323204278748
1731654250.1579494,801.2188378408039,806.8756545118009,797.4171678513858,801.0288666683668
1731654250.1605177,805.6943806045895,802.3801642473816,797.5736858209488,804.1518894121592
1731654250.1644316,804.3195293867718,799.7532595704498,797.550260732265,807.0125947038049
1731654250.168346,797.8443363951308,800.0027994644612,797.5596044824414,808.5061751098643
1731654250.17226,792.9404311664555,802.4560304528551,798.2379607006416,808.6121355730717
1731654250.1731818,796.5757882389498,805.1692013380951,800.1707865121085,807.9936554804203
1731654250.1761744,809.7698505743252,806.3778540503712,803.3758457873472,807.3167424304509
1731654250.176769,825.9728584875792,805.8145364195844,807.1317215298939,806.8809546045734
1731654250.1800883,835.458753661681,804.7514348333474,810.3055784354848,806.6569253482894
1731654250.1814368,832.3169080198222,804.7683699776362,812.0044807317535,806.4973785754772
1731654250.1840029,818.7136957011437,806.3906800145065,812.1384254573221,806.2980442256804
1731654250.187917,803.284032023663,808.7624254350656,811.4871163980513,806.0388279660605
1731654250.1887438,794.9283339543099,810.4762220647929,811.15061511645,805.7485456899149
1731654250.191831,796.6685399795796,810.6782828035042,811.7060866812533,805.4590859302989
1731654250.1955886,804.1400343079722,809.5199238364612,812.6912065736102,805.1837491259338
1731654250.1957457,809.7530960261856,807.772853161828,812.892371873346,804.9195391322916
1731654250.1996596,809.1044409628,806.117985830524,811.3163513504672,804.6583267012558
1731654250.203574,804.3707436107024,804.7206712441573,808.0940817721242,804.3948537309252
1731654250.204306,801.9012371615037,803.3568282622754,804.5201094896186,804.1283789218255
1731654250.207488,806.1754150028071,801.9255125240936,802.1451249898715,803.8605620546655
1731654250.2114024,815.4520608144074,800.8898066761295,801.6953633149856,803.5930535938695
1731654250.2144082,822.9409630383788,801.1707785751814,802.7256395870461,803.3264645229422
1731654250.2153163,822.488156961105,803.4030922945069,804.1833779018674,803.0605745884751
1731654250.216322,813.8830551027091,807.0812503136426,805.2518798486822,802.7949436892908
1731654250.219231,803.2757719042455,810.4269287911258,805.7520641500628,802.5293129384321
1731654250.219868,798.335420154164,811.3428189916498,805.955162520533,802.2636595090297
1731654250.223145,802.1277004495605,808.8597245629792,806.1834589187482,801.9980623449396
1731654250.2270591,810.7285028298352,803.9166996310657,806.5767638869186,801.7325712902506
1731654250.2309735,816.5461875655358,798.7690799754929,807.070830699523,801.4671750607936
1731654250.2332275,814.6462018662968,795.4546996059844,807.4340912189286,801.2018590636463
1731654250.2348876,806.844424216169,794.5255067699179,807.3018875820677,800.9366806446726
1731654250.23543,800.1183742604841,794.9702304700842,806.3045014092659,800.6717691589195
1731654250.238802,800.6276501143691,795.2346651116677,804.3466028929748,800.4071921722633
1731654250.242716,808.3942142342382,794.4357527214398,801.8805316185712,800.1427405600232
1731654250.2466302,817.1967455624754,792.8791030238202,799.8817042806053,799.8778484988618
1731654250.2505443,819.8027874310992,791.6480201403614,799.3859678031502,799.6119372009093
1731654250.2509918,814.085409086584,791.7131875480236,800.8063328410952,799.3452348648012
1731654250.2512069,804.8078823394524,793.248238902365,803.5022457664421,799.0795073528564
1731654250.2520473,799.538123448851,795.5799540975264,805.9765746952573,798.8175190479452
1731654250.254459,802.1140445149701,797.7126596268151,806.6594671648643,798.5603254994247
1731654250.258373,809.1902869440229,798.9823108601246,804.8055834235599,798.3034591943191
1731654250.2622871,812.9214264611252,799.3610046518772,800.9225482804426,798.0360854831257
1731654250.2662015,807.7321184086039,799.2667772831007,796.4740188358644,797.7482956906059
1731654250.266554,795.5532736165839,799.1477342379901,793.1084253067654,797.4467303770518
1731654250.2701156,784.9634893504029,799.2137987986724,791.9248561188022,797.1668749296717
1731654250.2708666,784.6711017663147,799.4419060365633,793.1189793387392,796.9597503907338
1731654250.2740295,796.549733930674,799.7213596816099,796.0159759231459,796.8384158647576
1731654250.277944,813.9032301320582,799.9723464698717,799.358658602435,796.7088460524827
1731654250.2818582,826.3675948446637,800.1779966182382,801.7877780740616,796.365264963213
1731654250.282116,827.4905021124348,800.3589708447774,802.4464881660825,795.643222564237
1731654250.2857726,819.0442234845482,800.5391313934033,801.4576241128608,794.7202159108813
