timestamps,eeg_1,eeg_2,eeg_3,eeg_4
1731305425.5827885,805.6248461283217,587.3042775556016,782.994741790022,791.7807129311653
1731305425.6176667,806.2569482040632,706.2291945584283,858.566482024971,797.6097626355588
1731305425.621735,805.3557815238582,874.7942834173331,935.9368633590171,802.4752225939337
1731305425.6256323,802.0056175557238,1041.9634617605475,993.8084233282789,805.5694818922814
1731305425.6295297,796.2588295437821,1077.5918336215573,999.5980620610455,806.9040911852902
1731305425.6334271,789.1212649845119,907.1161538752423,948.5464331005902,807.9465227011368
1731305425.6373246,782.2805553096579,620.6251695351358,885.1148861385434,811.1373026338706
1731305425.6378586,777.7212908606384,427.78960621907004,873.5550380044549,818.1018914772742
1731305425.641222,777.2049587345364,479.8319812609233,937.2818278833896,827.8928017618101
1731305425.6451192,781.5396265763268,720.6107287796481,1025.3009744878,836.9619519356247
1731305425.6457498,789.8976335763907,915.6876177319477,1045.3400346803328,841.2244824122718
1731305425.6490166,799.8329836819993,848.700162481534,942.312728938273,838.7904237418176
1731305425.6525447,808.3927012635636,517.6935033826143,754.8045113977337,831.3271003192507
1731305425.652914,813.7185696390483,154.68063590994575,595.7411954084132,823.0139167649359
1731305425.656715,815.8108574979284,41.45604604095274,567.4117841287765,817.799007580522
1731305425.6568117,815.7516214597366,275.8691155205386,680.7314008744743,816.8888576132556
1731305425.660709,814.260863578141,693.4895421888078,848.964172313918,818.267565180689
1731305425.661333,811.2028150984859,1014.3507527847271,961.8577788225407,818.5908094189123
1731305425.664606,806.5188862144641,1078.9627921751319,973.5503729895626,815.9795681444094
1731305425.6685035,801.2935975642579,957.1958448281441,926.4371891208706,811.4456485196378
1731305425.6724007,797.4647841142507,841.2608840387081,895.987570564691,807.7328049535655
1731305425.6755707,796.362927939243,844.1628676246276,915.969223672851,806.5699954619706
1731305425.676298,797.7062501470979,906.147684597049,955.7816511430084,806.8112097242648
1731305425.6769173,800.1257845073911,888.9140919094182,963.9232310211712,805.2365006937194
1731305425.6801956,802.5507275646161,745.9224858634936,926.8759056133949,799.4318721139543
1731305425.684093,804.9715180506312,590.1731250946657,883.964456008505,790.2633252271211
1731305425.687423,807.9359980681036,591.9618783455842,887.0668862394947,781.7249232573345
1731305425.6879902,811.4282425447004,807.1404618530969,947.0349509471049,778.1279698790725
1731305425.6918876,814.2284332924761,1100.706088298939,1017.9708065333112,780.8339620174653
1731305425.6925006,814.3528623388291,1240.7005165317048,1033.488061656371,787.1819465941234
1731305425.6944268,810.3586987255393,1083.1444001988482,962.4669898916554,792.5656368817807
1731305425.695785,802.6658763755028,688.2464674015321,835.4335322343562,794.0949044204257
1731305425.6996825,793.8729319567849,268.8470079846007,718.6235929779808,792.9116664824948
1731305425.7035797,787.553701600851,19.067866662366555,658.6949130015021,793.1864294858328
1731305425.707477,786.1094816296497,-24.938699339109178,647.5932896327432,798.4665477205673
1731305425.708084,789.169090828592,26.332819600468724,639.2274761101712,808.2923872923171
1731305425.7113743,793.8672620187401,53.76719750689233,601.2445276435408,817.9352623632437
1731305425.7132833,796.9785712286273,52.96091115942926,551.4478326878276,821.6730634060892
1731305425.7152717,797.35567232994,123.29988065094693,543.3499556966358,817.1291390304307
1731305425.7191691,796.7520461450798,341.9934091524848,614.9783732848438,807.2251025751863
1731305425.722301,798.3297076953528,657.0360111337809,749.664144501681,798.1197331811137
1731305425.7230666,804.0180954105866,909.4360054112428,884.0730822574857,794.7341142087456
1731305425.723668,812.8535247097401,962.6905583717102,954.0514770407005,797.4494888107517
1731305425.726964,821.6542204525244,813.71519881423,937.7852611721698,802.5704609975876
1731305425.7308612,827.4611334677091,584.1133307156811,863.6033090725393,805.9409923113601
1731305425.732139,829.6672557108247,410.12939589832837,782.712298733238,806.4424197933681
1731305425.7347586,829.9986084717395,341.2293718500074,733.3561813971089,806.3504460837172
1731305425.738656,830.4254122714067,335.62219295439365,723.1756644806966,808.4672452836536
1731305425.7392514,831.0238757613902,336.9799490208613,736.4725759719258,812.8922682615962
1731305425.7425537,829.8930022841914,339.2074102772673,753.1618682356846,816.5373705119075
1731305425.746451,825.2535530333138,371.48251017350395,762.3036056928851,815.8483652545331
1731305425.750348,817.7131149675329,431.7472508312841,763.6341792192811,810.1919317972162
1731305425.7509952,810.4880355884394,457.6631826311157,761.8116534548737,802.7816119793878
1731305425.7542455,807.2567636148719,382.0441137446395,760.7849529028257,798.2640680282736
1731305425.754835,809.401621111889,219.14343549580065,761.7587048841997,799.0170748414308
1731305425.7571793,814.8455664631183,80.98823002542304,764.0143483349649,803.2689551980784
1731305425.7581427,819.3673192176979,88.79959517041146,766.4586003999058,806.5804991364782
1731305425.76204,819.437036142046,259.691008921753,768.5211626965694,805.4567849769177
1731305425.7659376,814.5888990738371,486.74306599081535,770.2131440723663,800.1410293538455
1731305425.769835,807.7112614860511,639.8171630862503,771.7886719800191,794.3266499758718
1731305425.7698512,803.0831540311455,686.0414561496523,773.4475227947951,792.0334027882731
1731305425.7704186,803.5385536020633,704.4273548611077,775.2412348056969,794.1864069742737
1731305425.7737322,808.7080923903187,780.7949635162137,777.1253610840656,797.6576269428972
1731305425.7776296,815.4834858064647,897.32874154299,779.0418929694421,797.5534280089823
1731305425.781527,820.3031384732219,936.485406581455,780.9631547669497,791.009082121303
1731305425.7854245,821.6528347044379,798.0084572577202,782.8917149028642,779.6522993922752
1731305425.7860022,821.0427861018794,510.85753748055606,784.8414484704035,768.9366462790792
1731305425.7887073,821.7116822495631,226.89457659295755,786.8223250625481,764.7927835019277
1731305425.7893217,825.8848015072704,97.78157374998852,788.8362899804799,769.853942948139
1731305425.7920575,832.6246391173045,146.27498730625018,790.880477016272,781.757979821613
1731305425.793219,838.1489726843602,249.41699320352507,792.9515762827817,794.6592576800326
1731305425.7971165,838.674237373493,252.1946055586865,795.0480142863955,802.942340046932
1731305425.8010137,833.5459407789056,112.13546786355772,797.1698898088762,804.558340080219
1731305425.8015857,825.7778021199903,-58.0197146521661,799.3179902280867,801.6189276147752
1731305425.8049111,819.2391045312779,-93.78037629277236,801.4929011050993,797.9732506590851
1731305425.8075633,814.9920539809879,64.78563021442937,803.6944647111421,795.9149051606381
1731305425.8088086,810.4125974007499,312.4099396928761,805.9215570406561,794.80546622973
1731305425.812706,802.2073000349911,472.96257383460863,808.1723991274471,792.5937515629207
1731305425.8166032,790.5450607980407,457.72353337479694,810.4457822635137,788.5729555633377
1731305425.8171692,780.2193066325535,336.9053281850325,812.7429661624733,784.681199729644
1731305425.8205006,777.4680369735042,263.75365967901047,815.0685945930718,784.1086878766395
1731305425.824398,785.1379506753366,332.9190999213449,817.4280235262611,788.47978693519
1731305425.8264194,800.3595880764487,506.0914532316948,819.820120220926,796.1379408617576
1731305425.8269355,816.565989034652,660.238227066456,822.2299272176675,803.0798339998888
1731305425.8282957,827.9205819583223,698.0288732892602,824.6316522286231,805.8593861929118
1731305425.832193,832.4864946158638,616.4142898473131,827.0113444170025,804.1915582748607
1731305425.8327527,832.0902380726648,483.05003289850134,829.4024251592236,801.211124747098
1731305425.83609,829.8899799779417,358.48065348974,831.8994838397392,801.119472540926
1731305425.8399875,828.1072715445944,244.83996063705132,834.6014480381887,805.9286234974023
1731305425.8438847,827.3496849932096,108.30756350784492,837.4730350004078,813.7292891919751
1731305425.8452754,827.2088522231458,-52.31380469533582,840.2174373228584,819.8185885338935
1731305425.847782,827.113534289875,-165.74917845259455,842.3600709345783,819.9025185569658
1731305425.8483365,826.7854538801062,-126.1599281846648,843.7011624423011,813.0227240144953
1731305425.8516796,826.2480739411351,119.28436732643894,844.967111857168,802.0556269231226
1731305425.855577,825.6405019828688,514.3026764768803,847.9730625617548,791.4785000259247
1731305425.8594742,825.064810199828,922.1813697176367,854.3985079055104,784.1887741995473
1731305425.8618138,824.543410031986,1210.6848786210298,863.0746140591862,779.8502850781744
1731305425.8633716,824.0504595324858,1316.5012433464678,867.6251671389557,775.9422658110318
1731305425.86392,823.55549837421,1247.6323628501857,857.968168153014,770.4481118740543
1731305425.8641317,823.0450840047191,1052.0702165341359,827.4123973452645,763.8169704446254
1731305425.867269,822.5214562958848,800.4068313358755,780.5445528348902,758.5725813372445
1731305425.8711665,821.9921637687659,584.2133508501665,732.7500935724202,757.0743744696666
1731305425.8750637,821.4622872263371,492.0548560890052,699.4996129936317,759.5642709991131
1731305425.878961,820.9326394594361,550.6572794153991,685.7591608173211,764.2791642600633
1731305425.8795035,820.4016593962718,679.5285417434402,685.5306485813019,769.3728565954176
1731305425.8828585,819.8677109263041,721.8368184185566,689.3918366443526,774.5908873132965
1731305425.8829875,819.3301177235328,552.6265825232744,691.2754429077182,780.8897541709767
1731305425.886756,818.78900475055,186.1584070690132,689.990422095314,788.3591978818824
1731305425.8906531,818.2447231203855,-210.6203439923658,687.0697216896804,794.7455521183509
1731305425.8945506,817.6974580899632,-421.2486331569864,684.2214024859757,796.4858339890021
1731305425.8950872,817.1471724949704,-325.99065302391915,682.149088142347,791.6675238623798
1731305425.8966918,816.5937451937224,21.54637829910098,680.6808396289791,782.218828580002
1731305425.898448,816.0371084367434,445.7484622345953,679.3743168412972,773.1037285982136
1731305425.9018438,815.4772659711515,781.2830610058452,677.9467216459918,768.9290095095511
1731305425.9023452,814.9141831150247,972.5069571199779,676.3601966993224,770.6475749313645
1731305425.9062426,814.3476446487616,1060.2515130783622,674.7055807864136,774.9479228572261
1731305425.91014,813.7772541463719,1085.6559756791648,673.0720653991897,776.7252318210036
1731305425.9106708,813.2027257102436,1022.6134490488387,671.4922132813075,772.7037035245672
1731305425.9140377,812.6243974668273,817.5054433041175,669.9537131376346,763.5926189322838
1731305425.917935,812.0435030349054,493.4241259371422,668.4324667542451,753.3833495963984
1731305425.9206998,811.4614908695465,193.8921752047055,666.9141695107762,746.4498082356821
1731305425.921832,810.8781274130052,93.97145228635327,665.3974715607421,744.5927966359229
1731305425.9257295,810.2895334560529,245.93913128050673,663.887270138949,746.1945915392712
1731305425.9262545,809.6889198769568,506.8587018929837,662.3879699897299,748.1633202987897
1731305425.9296267,809.0725320406577,630.9692498461911,660.9009220765943,749.1638795979792
1731305425.93157,808.4490694496308,462.042391787964,659.4251791740382,751.323984690903
1731305425.933524,807.8434974351318,67.9392795617278,657.9591009226143,758.5619121538024
1731305425.9374216,807.2822725720412,-297.17404684066577,656.5013110929191,772.5767417425898
1731305425.939556,806.7568092025533,-377.71199289218856,655.0510018352019,789.9602747341947
1731305425.941319,806.1894455627715,-103.60575448485139,653.6082092511538,803.3617685437366
1731305425.941838,805.4547420655493,368.2144048655664,652.1742124500078,806.2909202478096
1731305425.9452162,804.4986793310478,786.7975443990828,650.7512846619784,797.8969584228869
1731305425.9491136,803.5127422082517,999.7082255265368,649.3407589322234,783.86249284261
1731305425.953011,802.9838522820622,1043.2775188229493,647.9397026827546,772.5966564463379
1731305425.9569085,803.3866214133557,1063.271919485933,646.5391950602823,769.5898703786271
1731305425.9574215,804.5023588272331,1152.5444291894426,645.1289626843206,774.1021268471311
1731305425.958412,804.8951533143427,1263.471875168625,643.7101680624163,780.404357957845
1731305425.9608057,802.4997268926744,1273.903911864183,642.308600510805,782.3213833389067
1731305425.964703,796.5980317422768,1132.3074204491372,640.9696060802987,777.5888819810344
1731305425.9664483,789.6349209413554,929.8239864952573,639.7178745185572,769.0471434614607
1731305425.9686005,786.5344781307651,820.6609110759514,638.4939093665806,762.23524490988
1731305425.972498,791.2614162794594,866.0683881708321,637.1286072433555,761.4564275488909
1731305425.9730053,803.3801624840545,959.553613922626,635.4434680836914,767.1422891990443
1731305425.9763951,817.7290357365603,917.66028671617,633.497444725192,776.0803395260365
1731305425.977268,827.5874659709485,659.0615639591358,631.8161878034733,783.9025640335703
1731305425.9802926,828.7724319362172,301.6295039278908,631.2473154327499,787.7617208696671
1731305425.98419,821.6368962816715,77.1992360308829,632.1567348763721,787.3262462412189
1731305425.9880872,809.9328121816282,134.87006514114472,633.2624349251515,783.7970095456092
1731305425.9885888,797.8971297495303,412.451193508559,631.3270252558173,778.2455686457613
1731305425.9919846,787.882850747943,694.2733227941039,623.3162862024249,770.9009585540599
1731305425.995882,780.0355736161174,798.8690122354333,611.2221798509815,761.9149312404564
1731305425.996124,773.7782365525452,721.4637687009428,606.2738286778,752.6764723814767
1731305425.9997797,769.4996545913074,607.396361787371,626.2189437767147,746.1910850500466
1731305426.0013263,768.8095622812456,597.5116404334304,682.3298879708393,745.7769001797327
1731305426.003677,773.0425848258587,700.5855224719627,764.4323341147266,752.7157858415942
1731305426.0041723,781.3224828354141,806.1542122483413,841.1473881165797,764.5153894213032
1731305426.007574,790.0773259233272,807.057208055101,880.9188153291434,775.3550382806277
1731305426.0114715,794.860273231424,701.0815673570314,874.8674513062815,778.9847758822741
1731305426.0149803,793.420643001592,576.1746600570291,837.6641619785178,772.4977769386055
1731305426.0153687,787.7175088398794,507.6870822983812,787.2139334979208,758.359503641032
1731305426.019266,783.1027119429923,481.51287982019886,727.8376970432197,742.9974391225576
1731305426.019756,784.9498486782113,422.45458676749996,656.1677420651109,732.7719223500418
1731305426.0231636,794.9907561270429,293.2356892319647,581.3913984624792,730.2386670533192
1731305426.027061,809.9447105235487,154.77577116720005,533.3635397432087,733.3574743388725
1731305426.0309582,823.4375893731046,119.51470189910685,544.2652178662437,737.8991863536664
1731305426.0338364,829.9245451912112,243.30544736420154,619.5211846035963,740.90382712192
1731305426.0348556,827.9436768600821,467.4811855630649,728.1192173432149,742.5418181491083
1731305426.0353396,820.4325863085737,670.6420718481381,823.7373166743137,745.1808826718665
1731305426.0362046,811.872544508862,775.4408076377727,876.5841168223405,750.5740978304516
1731305426.038753,804.500927802215,801.5531453897331,887.3169990233093,757.4949856574965
1731305426.0426505,796.8832848838192,817.9477732418152,876.0458687640909,761.9895542888426
1731305426.0465477,786.4422495608101,855.8434907954224,862.7769702989386,760.5560716555767
1731305426.0504453,773.9762293042751,881.0422911339033,856.5841099287362,754.0192676197228
1731305426.050923,765.8152926151674,852.7153035078993,856.6965361187019,748.6452938502279
1731305426.0526924,770.6648671461716,795.6368139442216,858.7639819965685,752.6569530110901
1731305426.0543425,792.7091103814131,794.4847383810958,859.6711348702776,770.026486506653
1731305426.05824,826.378322141595,903.2048002400727,858.7979913568256,796.2763962766389
1731305426.0621371,857.6716365961497,1060.2619060662719,856.9902873433844,820.1363977692988
1731305426.0660346,871.9869800035102,1107.7791494196663,855.1971724085707,830.420987606976
1731305426.0665066,862.9988733335246,917.408229063002,853.8197482157793,823.0819028920735
1731305426.069932,836.005660325641,518.5085361492542,852.773073608198,803.1501742430356
1731305426.0710828,803.5226432817358,107.67387999200372,851.8163733532335,780.5848698811303
1731305426.0715485,776.9826741711213,-86.3384047807179,850.7922934647097,763.9133392456775
1731305426.0738292,760.9756803404871,20.245236352769325,849.6775976311691,756.6103685422253
1731305426.0777266,753.6243939792544,298.7727085539298,848.5211491579622,757.931974924615
1731305426.081624,751.3498807189069,517.806978664719,847.3721992770367,765.8845965926843
1731305426.0820904,753.1168176161312,539.9274569300562,846.2493174360741,778.9190232112865
1731305426.0855217,760.6007110910077,427.4961386605614,845.1462039278232,795.2799663063714
1731305426.0894186,774.8839173793027,356.9360187888359,844.0497233963923,811.8539267410574
1731305426.0904045,793.3642112378295,424.63785959936035,842.9519230783369,824.7527724555189
1731305426.093316,810.0058517915218,538.2232216652093,841.8519559691194,831.6091334887452
1731305426.0972135,818.7882739942439,506.53065142865023,840.7524630476931,833.3664480023189
1731305426.097674,817.4058622306458,244.72993901787106,839.6558342035403,833.6287774558646
1731305426.1011107,808.3101742724749,-106.90041663593985,838.5627531618403,835.9326656854425
1731305426.105008,796.6239705873044,-274.5677266503811,837.4726331577021,841.1555750994444
1731305426.1059608,786.8880541218452,-80.80692454736067,836.3845929435602,847.0464485169924
1731305426.1089056,781.0880326605889,389.31283184261525,835.2980550837076,850.1066585924609
1731305426.1092606,778.9716807894775,835.7960710005134,834.2128079573282,848.3896459851429
1731305426.112803,779.7669126348227,972.4154345786012,833.1287984134847,843.2553295144838
1731305426.1132574,783.4971694050768,748.5819359796081,832.0459381260863,838.7713365363885
1731305426.1167002,790.694778415244,379.7231888194642,830.9640367613123,838.9311853496489
1731305426.1205976,800.8941331088969,161.97226811349532,829.8828313511235,844.5008989040944
1731305426.124495,811.5644858151275,231.05671207901167,828.8020386163569,851.9669590211664
1731305426.1281166,818.9418806776201,472.300579360031,827.7213844236883,855.7941083520943
1731305426.1283925,820.5524047116782,651.6219917563187,826.6406049824046,852.593485286277
1731305426.1288412,817.5005620867265,637.7891017274496,825.5594351313247,843.9916767869357
1731305426.1322896,814.4362028275061,510.26485227571493,824.4775983910828,835.7479702071842
1731305426.1361873,816.7762721800269,464.89454386744785,823.3948039970782,833.5482125898031
1731305426.1400845,826.9139849932864,621.7447560906229,822.3107488034295,838.5875689463736
1731305426.140839,842.0843520681487,917.9612023058216,821.2251201178332,846.3611149414686
1731305426.143982,855.5637579039837,1170.1436174568794,820.137597202175,849.7172485046807
1731305426.144425,860.6668561852792,1229.619583142327,819.0478513088412,843.9850428560181
1731305426.146973,855.0553889875827,1087.3902781373997,817.955545121464,830.3742688761314
1731305426.1478791,842.4867525094085,854.5100011740111,816.86033235515,815.1405398441742
1731305426.1517766,830.6686449667519,658.8574563334785,815.7618577504107,805.2027302154198
1731305426.155674,826.492265046462,554.2945751572662,814.6597573246169,803.5097680303675
1731305426.1595712,831.8387472795301,505.88188384914537,813.5536586704993,807.5102484950876
1731305426.1600082,842.8479009532008,443.3261667233583,812.4431811906106,811.6386812061479
1731305426.1634686,853.0214165811619,326.3630636700592,811.3279362686059,811.7288562194547
1731305426.1658287,857.6801694793803,169.85263036846442,810.2075274255935,807.9507396293009
1731305426.167366,856.4211381875996,19.890226470891662,809.0815504998446,804.1424498505394
1731305426.1712637,852.0525285585059,-85.71359037181259,807.9495938597495,804.2331329072198
1731305426.1751606,847.4396854578293,-135.49603088419104,806.8112386413383,808.6731919039255
1731305426.175592,843.2062110986186,-136.3684272115574,805.6660589989334,813.7436729554072
1731305426.175717,838.0742266011699,-101.92823501220829,804.5136223632709,814.3609332946517
1731305426.179058,831.0417453910044,-49.98047186321031,803.3534897072525,808.2412824817644
1731305426.1829555,823.0582031650487,-0.15601946551947776,802.1852158217005,798.1432042964763
1731305426.184685,816.6379750880268,34.70854661006382,801.0083496027543,790.2996080640588
1731305426.1868527,813.9330480321972,54.14410735026155,799.8224343510184,790.1062596578568
1731305426.19075,815.1354888778897,65.76255815133163,798.6270080816402,798.3441423949922
1731305426.1911757,818.62732936604,77.11161183044163,797.4216038444131,810.818240590427
1731305426.1946476,822.6414517413343,91.39158228800096,796.205750053327,821.5373461812396
1731305426.198545,826.8196824271281,108.06345000249581,794.9789708252856,826.7632141122882
1731305426.2024424,832.1066517226185,125.35979600947996,793.7407863278086,826.8095875161298
1731305426.203541,838.9333282641427,142.1033696556009,792.4907131354871,824.6216943871569
1731305426.2063396,845.4099308176034,158.1108256815382,791.228264594873,822.8512580669845
1731305426.206759,847.6011187119431,173.74226263370446,789.9529511974358,822.0222328731459
1731305426.210237,842.2678640823008,189.36708371828644,788.6642809602172,820.9862714246971
1731305426.2105954,830.027174065054,205.12829325392778,787.3617598138266,818.7383823505078
1731305426.2141345,816.0162124021282,220.98255593812263,786.0448919974352,815.6848569101954
1731305426.2180316,806.9890788694922,236.83382443405503,784.713180460426,813.2452191748075
1731305426.2219293,806.9007167996613,252.62371246294748,783.366127270349,812.3394726742745
1731305426.2223427,814.530992546062,268.34681523512074,782.0032340268287,812.3465593096215
1731305426.222397,824.9914570120316,284.02419996173717,780.6240022810558,811.6036685879906
1731305426.2258265,833.5613502085627,299.6754814875633,779.2279339605004,808.956705188753
1731305426.229724,838.4666530633721,315.3077379979646,777.8145317984757,804.8310056998758
1731305426.2336211,840.6148360937749,330.9185907927457,776.3832997681785,800.8299935897209
1731305426.2375183,841.3302516369089,346.5034474318704,774.9337435208305,798.3633510763622
1731305426.2379262,840.719180719819,362.06000782183827,773.4653708275399,797.6381388640126
1731305426.2412531,838.1036953158133,377.588777160384,771.9776920244946,797.7613478864463
1731305426.241416,833.5895277345976,393.0915413496641,770.4702204611001,797.5583460743734
1731305426.2453134,828.8057171487857,408.5699201043509,768.9424729506638,796.2788533899119
1731305426.2454736,825.9566437526234,424.02486015888735,767.3939702232287,793.8221749668201
1731305426.2492106,826.1049309930385,439.4568515510764,765.8242373801495,790.6161356090018
1731305426.253108,828.2322995901574,454.86631717370796,764.2328043500045,787.2636450067776
1731305426.2535098,829.7848371443779,470.2538228322301,762.6192063454271,783.9459453545367
1731305426.2570057,828.215911976449,485.6200639907599,760.982984320439,779.9057921085425
1731305426.2601092,822.5396185047143,500.96576077168396,759.323685427859,773.7390069648543
1731305426.2609026,814.11199834372,516.2916055306154,757.6408634763593,764.7749020114637
1731305426.2648,806.2452539550757,531.5983239137801,755.9340793867334,754.5855592948178
1731305426.2686975,802.6603824257433,546.8867932427135,754.2029016469356,747.0176521960926
1731305426.2690935,805.3467164149482,562.1580630535549,752.4469067654476,746.1437175963563
1731305426.2725947,812.9682768739017,577.413120489407,750.6656797225191,753.400825537474
1731305426.276492,820.9922309315675,592.652429694267,748.8588144188253,766.0874269167813
1731305426.2789652,823.8795701008622,607.8756346259917,747.0259141210742,778.4846118171087
1731305426.2803516,818.3055914600446,623.0820777435052,745.1665919040959,785.0088488831728
1731305426.2803895,805.3592145565518,638.2724566259434,743.2804710889433,783.3958996323463
1731305426.284287,789.9796447920583,653.4507125344846,741.3671856765284,775.7915013632977
1731305426.284677,777.795223966842,668.6237093337579,739.4263807763182,766.9509643394198
1731305426.2881844,771.7388215558703,683.796237706293,737.4577130295896,760.9321392243427
1731305426.2920816,771.0403715614771,698.9624063430174,735.4608510267182,758.9185113532061
1731305426.295979,772.8982654337,714.1011419544942,733.435475717955,759.5793393123024
1731305426.2978215,774.8353248423635,729.1877894681073,731.3812808171745,760.9264513652922
1731305426.2998765,775.8438616260902,744.2263055745248,729.297973198146,761.7594439371752
1731305426.3002603,776.1066858012991,759.2825627616295,727.1852732829635,761.9106610288046
1731305426.3037736,776.1811173562332,774.4718222818585,725.042915422223,761.7429137794912
1731305426.3076713,776.4297844491233,789.8577895845633,722.8706482662755,761.6143963544113
1731305426.3115685,776.9026668162467,805.2927057764707,720.6682351264693,761.6555654665125
1731305426.31523,777.4833899539847,820.3527164394575,718.4354543251395,761.8168325399174
1731305426.315466,778.0565834318749,834.5888646900847,716.1720995337391,762.0019837760112
1731305426.315844,778.5793621318319,848.147542048988,713.8779801000785,762.1547988394725
1731305426.3166776,779.0668164322947,862.3485945982832,711.5529213670752,762.2713387341372
1731305426.319363,779.5495695672876,879.3246605758312,709.1967649844362,762.3725766888954
1731305426.3232603,780.0458359825511,900.0011446226179,706.8093692095292,762.4770749170132
1731305426.327158,780.5571674161592,921.1534201788338,704.3906091862675,762.5907504111992
1731305426.3310554,781.0770372367916,934.5990828152727,701.9403771889478,762.7103796929024
1731305426.3314278,781.5995788012663,932.543950806937,699.4585828317109,762.8308187225732
1731305426.3349526,782.1229298898296,919.5112469213154,696.9451532743999,762.9493083740293
1731305426.3355336,782.6481689688769,922.361452519772,694.4000334800052,763.0658370154248
1731305426.33885,783.1770213758006,981.6612476038838,691.8231865545765,763.1815818085502
1731305426.3427474,783.710470041688,1114.0431194047571,689.21459409812,763.2974981496264
1731305426.3466446,784.2486230643742,1266.0489967321496,686.5742563598626,763.4138541787185
1731305426.347011,784.7912042270265,1312.5746273944021,683.9021919763018,763.5304623832391
1731305426.350108,785.3380047550081,1134.6689759757326,681.1984373568087,763.6470661280582
1731305426.350542,785.889036141303,732.1795192499486,678.4630463526896,763.763551247984
1731305426.3543897,786.4444590510519,265.55916030929495,675.6960912489812,763.8799502100704
1731305426.3544395,787.0044604924379,-37.12021401245187,672.8976655449895,763.9963545109033
1731305426.3583367,787.5691855153761,-48.49524500464287,670.0678869774306,764.1128424345119
1731305426.362234,788.1387348210241,160.20490159750676,667.2068968053375,764.2294586962444
1731305426.3625948,788.7131917454604,388.28433103573184,664.3148514974092,764.3462292242777
1731305426.3661315,789.2926446048092,484.1651887071263,661.3919088544558,764.4631816856577
1731305426.370029,789.8771933334674,464.859728009616,658.4382213516045,764.5803551447383
1731305426.3732457,790.4669465839065,461.1848722405953,655.4539559138566,764.6977983265535
1731305426.3739264,791.062018457743,548.4638988654312,652.4393463639867,764.8155639449926
1731305426.3778236,791.6625274944853,642.0808536195507,649.3947455253216,764.933706229796
1731305426.3781786,792.2685934382126,574.1397752012648,646.3206006266494,765.0522841470378
1731305426.381721,792.8803269738487,281.73945242451293,643.2172858279114,765.1713670778493
1731305426.3849862,793.497816522141,-83.51135176241979,640.0848455557223,765.2910352986338
1731305426.3856184,794.121128923701,-248.4485553548963,636.9229031718553,765.4113681005625
1731305426.3895156,794.7503432490449,-45.87903537111191,633.7310867455315,765.5324218593402
1731305426.3921018,795.3856132420989,425.662733718482,630.5100385824906,765.6542175149355
1731305426.3934133,796.02720532089,862.2970156340513,627.2623149333147,765.7767681946984
1731305426.393762,796.6754238452162,995.4399829300619,623.9917218491239,765.9001596537265
1731305426.3973105,797.3303822740035,809.0884136337365,620.6999776449774,766.0246362231613
1731305426.401208,797.9917482418366,543.2728287136056,617.3820068335409,766.15057437817
1731305426.405105,798.6587984781809,477.7864686930058,614.0248907105102,766.2782331716804
1731305426.4090023,799.3311146901659,685.8717013653009,610.6168501513743,766.4073482662068
1731305426.4093456,800.0097589435006,976.3077378839739,607.1665097789113,766.5369521387175
1731305426.4109578,800.6978557900353,1073.4059982729777,603.7180772033955,766.6659816929916
1731305426.4129,801.3989477440462,870.0265009965556,600.3349519393082,766.7948343323561
1731305426.4167974,802.1125608418686,525.6000335111099,597.0337121306287,766.9268684150356
1731305426.4198644,802.8297255733455,325.3696465167235,593.6986172117876,767.0675929376933
1731305426.4206946,803.5349052283659,432.71419301805224,590.0750708413891,767.2196589480981
1731305426.424592,804.2200286192506,755.5877231301882,585.956303878339,767.3753644746396
1731305426.4249294,804.906286777655,1035.9094598281931,581.5482538738114,767.5142704694817
1731305426.4284894,805.6523136455162,1069.5280236604253,577.7187373251535,767.6161749463033
1731305426.429814,806.5188170051057,859.5740739995967,575.6156237178509,767.6909633134595
1731305426.4323866,807.4833688230129,581.2867100143707,575.3733187911613,767.8043451376941
1731305426.436284,808.3633046563605,409.2503184039705,574.582516471216,768.0566587799639
1731305426.4401815,808.870173624168,370.9571250607281,568.4459199158073,768.4834575963428
1731305426.440513,808.8929500468037,352.6869893864306,553.6676563873526,768.9191257190063
1731305426.4440787,808.9074813441508,238.0193650626951,535.4909140523735,768.9742504650503
1731305426.447976,810.1020057912704,38.73701119213166,532.1853054910642,768.3151889551297
1731305426.44867,813.7137409657332,-109.19313307183069,568.1723788699945,767.2545764580854
1731305426.4518735,819.660851994847,-78.54713565229105,653.4512047773284,767.2507657029502
1731305426.4547424,825.7299652955047,119.66005883248965,764.0423355529158,770.604509741436
1731305426.455771,828.8078759069779,338.649097361296,848.2358763208352,779.0356032011638
1731305426.4560964,827.5995256949737,428.5083278761856,864.3200198231799,792.0128161684938
1731305426.4596684,824.0407872196236,369.7309546741424,819.0656818854657,806.5021278605215
1731305426.4635656,821.6528915848697,280.0065530540878,767.0661150439088,818.791464458265
1731305426.467463,822.4963498200455,293.02385575331687,766.9721040657153,826.9198400974132
1731305426.4675262,825.799201041202,430.72796246836856,833.745149920635,831.4573534287505
1731305426.4713604,829.2311535066146,589.3560617540106,929.408145296864,834.0452362633946
1731305426.4716802,831.0685150641098,643.331969698024,997.2012986672617,835.3981714095062
1731305426.4752576,831.1925402603557,560.6641875837174,1005.9071690138383,834.8743874943987
1731305426.4791553,830.6596106988695,423.52255927760007,967.615624040893,831.8870281655275
1731305426.4830525,830.9033752287932,346.33412517167017,920.5828063268099,827.4181614264222
1731305426.4863822,833.212601567911,377.20788759175645,898.1812492908679,823.8100132871655
1731305426.48695,838.2102823705552,470.385631811817,909.774837102284,822.8289160227154
1731305426.4872637,845.1531678412534,538.5272014301436,941.516849525355,823.819391500494
1731305426.4896207,851.6817168632481,520.5927139042739,966.9321951341499,823.8392020784843
1731305426.490847,854.7897393686594,403.78019701589125,956.3656928239069,819.9646961588811
1731305426.4947443,852.7800535233947,201.4377365261165,886.0584843513112,811.9888690355712
1731305426.498642,846.8306557421527,-63.53824034928181,752.4895070310773,803.1837727211048
1731305426.5025394,840.7630281685482,-340.84984382221927,586.9334270352873,798.2052463157322
1731305426.5028472,838.8599654032673,-531.9176971136903,452.80043295191274,799.5552488075253
1731305426.5052383,843.1250707498014,-521.0187935897254,414.7779970031021,805.4079180255285
1731305426.5064366,851.9544690203631,-261.7681789925214,494.99148673317427,810.7688822741336
1731305426.510334,861.2838952031032,155.22682081504746,652.2272728639481,811.3285306751377
1731305426.5142314,867.4508887066506,538.230943582823,808.4892177840803,807.020259277539
1731305426.5181286,869.6024224100971,729.7398227984975,906.0293196961642,802.2710753418428
1731305426.5184307,869.7300848427312,729.7259040063825,945.9066858005167,802.5036315445551
1731305426.522026,870.3834182151184,687.855932425864,972.7281466286146,809.5954555343794
1731305426.5240943,872.1922949264552,762.5373275013994,1021.1735647499512,820.0108285885262
1731305426.5244987,873.4650207348133,974.4228297111144,1077.942502589764,827.2196385451483
1731305426.5259235,872.0127632355386,1191.304852890101,1097.6622364530833,826.5262662600478
1731305426.529821,867.1213074640906,1256.4993625852392,1056.5980971675845,818.4973486376396
1731305426.533718,859.6808204995228,1135.4366259945218,988.0058176419295,808.4146124366669
1731305426.5340145,850.7562170194005,939.3776618178664,958.3906322270791,802.4557694736126
1731305426.5376155,840.6225160419323,806.2234672728957,1001.9047773853516,803.7453946296614
1731305426.541513,829.451994199978,759.0662464918188,1075.6076996380793,811.0360097374532
1731305426.5429504,818.5867217616129,686.8232453682356,1085.42055529109,820.2914955159174
1731305426.5454104,810.525433600551,472.9588001059301,968.7949756046867,827.34468967055
1731305426.5493076,807.3255000812447,149.47481209775214,762.66782655666,829.7313633930788
1731305426.549598,809.0430126498576,-81.98365590372879,590.5137605063862,827.1431094531711
1731305426.553205,813.8123384339974,-1.7173115615372012,571.2534079640963,820.9874939737696
1731305426.5571024,819.3600419023721,429.59840605987137,724.7117386594914,813.5592118754845
1731305426.559377,824.3221579929976,1006.3376982054019,954.8102722426453,807.0009197888271
1731305426.5609996,828.2093614242802,1413.633478139224,1124.0410861603507,802.346637431519
1731305426.5618064,830.5075565003475,1450.9524872557627,1153.8089498484733,799.242186404408
1731305426.5648973,830.269443228401,1156.5733964543,1067.9687325174207,796.6649904437317
1731305426.5651815,826.772687362469,742.034294473309,952.868515573684,794.1051338478927
1731305426.5687945,820.4750137789309,413.75088171240225,879.5263313451767,792.1349818242095
1731305426.572692,813.2034552781223,241.25715320527502,857.124186214451,791.8016392082677
1731305426.576589,807.4651935021335,165.49798659990034,848.7544034114511,793.4050963926053
1731305426.5804863,805.608162894807,105.72447324001126,822.6012384606704,795.8435995995671
1731305426.5806625,809.2500049183977,48.28913247651843,786.1741764997831,797.2027940435332
1731305426.5807652,818.6178390490279,40.16418383033397,774.0374751104646,796.1404697292808
1731305426.584384,831.6009708689227,110.90692936212935,804.8332118535006,792.9080665645174
1731305426.5882814,843.3923763306086,211.98663345639238,850.9983700568525,789.1350669331425
1731305426.5921786,847.9579348418927,239.41373031875236,852.7144951556002,786.523823001249
1731305426.5942552,841.2484412139047,123.10943965050478,767.751162164635,785.5599650721925
1731305426.596076,824.2383633730752,-98.37093499116344,615.3257879536385,785.4266217194952
1731305426.5963488,803.4557185883202,-288.6204966459159,474.3555941893956,785.2615138971084
1731305426.5995188,788.0926838629852,-305.65158697718533,433.49591507355274,785.4573500996512
1731305426.5999734,784.938888345621,-100.99454991605586,530.4013833494137,787.3388659070688
1731305426.6038709,794.0002009344248,252.3435964444348,726.3021049541579,791.070484138421
1731305426.607768,807.8533991702129,617.3159646459648,932.9764804171526,793.8888978067783
1731305426.6116655,815.888353774662,881.007842310899,1068.8995247611545,791.180055985958
1731305426.6119325,811.1545022273551,1006.6306803111095,1103.498271894095,780.376456132317
1731305426.615563,795.0877124412615,1027.9156840671794,1063.754979768164,764.3422562704686
1731305426.6183748,776.5411858002685,1012.7295312663304,1007.275972586133,750.5738101965178
1731305426.61946,765.8066132629127,1027.9600946445335,984.5778517836593,746.1550864043875
1731305426.6233575,768.0826635939065,1111.8183667113676,1012.0497261168633,752.5706149465274
1731305426.627255,780.9381600832114,1247.7089551487204,1065.7305034454293,764.8798968666447
1731305426.627516,796.971322714357,1352.220328766948,1096.2472467630419,775.9072687848563
1731305426.6291332,809.1263088495222,1305.9437783746282,1058.4381434238744,781.7941795344416
1731305426.6311524,814.8025373212034,1031.9934437160478,941.8409015366364,784.4137103944422
1731305426.6350496,816.3630193624317,574.3943586721737,783.1889717887942,789.0241895234719
1731305426.6372309,818.2478388495247,104.13083095890721,648.5016494790561,799.2579235085045
1731305426.638947,822.858976757216,-174.1975943904386,592.6445052334471,813.3019278405641
1731305426.6428444,827.9986060381605,-155.91604170434874,624.4837996346932,824.1698075815322
1731305426.6430995,827.8248557590825,96.50509786774779,705.5408020273654,824.1537807212841
1731305426.646742,817.102472854808,412.7150021161443,784.1831063424358,810.5040955959594
1731305426.6506393,795.910855255231,651.4055074044203,836.0437648499842,788.1152710465859
1731305426.6545365,771.0404544149184,792.9091272120286,874.4497052975905,766.8905953241967
1731305426.6560867,752.4857294281378,904.7312590013712,922.2913211159178,755.5472338306188
1731305426.658434,747.3142469519532,1021.3658408452488,974.980792839376,756.5547447542374
1731305426.6586833,755.3881705864205,1069.9733122804187,994.6121448340924,765.86820288279
1731305426.662331,769.9944376920535,932.6652447361016,944.3624084146337,776.9916216388187
1731305426.6640117,782.7161100398986,594.2193312180707,828.7282761296985,785.5620712937239
1731305426.6662283,788.8741192552297,220.5995185277415,696.3441222603011,790.9757795664548
1731305426.670126,789.6998069657375,62.36330625510482,601.7396415897052,794.7322775603901
1731305426.6740234,790.0043959838939,244.66953018212513,566.3428376877969,797.8795112114592
1731305426.6742668,793.5226710259061,632.7917586519038,574.2124865103605,799.9925157298345
1731305426.674943,799.7384159982104,915.4266607426529,596.012980831077,800.1314252537984
1731305426.6779206,804.5662751468603,856.6383996711882,611.9137039157267,798.3806734249745
1731305426.681818,803.9933326620942,504.17920305498404,617.5630567299276,796.3121209912127
1731305426.6857154,797.4507289972794,164.51119206745767,617.6574455973031,795.8502412965483
1731305426.6896129,788.1778516708426,153.6381467230786,617.7423590047127,797.4523658914266
1731305426.6898503,780.5649535508918,532.7303904180817,620.228850359226,799.2199313062315
1731305426.69351,776.9768721741871,1055.635245296008,624.662935939607,798.0036963312224
1731305426.693799,776.7321080972437,1372.3816247531947,629.6390677017623,791.9885173833616
1731305426.6974075,777.7254102822405,1312.6581813860719,634.2195985663868,782.7603286561941
1731305426.6988895,778.7453760607419,1010.192438656198,638.2533354788156,774.877113377323
1731305426.701305,780.1410370786768,771.8679505893444,642.0213152626206,772.8476232349027
1731305426.705202,782.4284918076546,813.1463294288668,645.8145602511693,777.7438745318443
1731305426.7054338,784.6992001007561,1086.5927615938476,649.7463730812146,786.2918751485824
1731305426.7090995,784.9429553343853,1340.537436356264,653.7827118911547,793.4102936387054
1731305426.7126553,782.284679614702,1344.699082423194,657.8473229562478,796.281269136654
1731305426.712997,778.7944469664976,1081.623344242383,661.893317367917,796.6206819008919
1731305426.7168944,778.5547445609211,741.1355850485467,665.9155926007204,799.1523645968217
1731305426.7207916,784.3297715100915,532.6916445332279,669.9300433412395,807.3753545287642
1731305426.7210176,794.8292962290342,492.1657490455808,673.9514634045629,820.0364820756952
1731305426.724689,805.278811121218,461.8903414485596,677.984701727784,831.2849370584609
1731305426.7285864,810.9174504096029,260.8374634876627,682.0271142826401,834.5550458616217
1731305426.731511,810.3276931154192,-117.74051328781121,686.0744552068718,827.2413058942766
1731305426.732484,805.8750592350999,-471.8314678008301,690.1246131394312,812.67480362237
1731305426.7337675,801.3434714392404,-556.7503371557939,694.1779071080111,798.06551721983
1731305426.7363813,799.1244439218864,-299.55922196856176,698.2352711979196,789.9950608376525
1731305426.736601,799.1538383928596,135.3462407479832,702.296246310511,790.5348433389413
1731305426.7402785,799.9373098028695,485.5371713819635,706.3583993696561,796.3861620469107
1731305426.744176,800.4137086327795,601.2702944804208,710.4191745033271,801.3610549558176
1731305426.748073,801.1166997667522,537.4771304851811,714.4797646605263,800.438603436841
1731305426.7503674,803.8099793149308,460.9932177268918,718.5480390873462,792.7668747921907
1731305426.7519703,809.8069692441866,482.49451212759493,722.6354124174412,781.8183471551197
1731305426.7521846,818.1189828914611,576.9557295193964,726.7444946146742,772.848576817141
1731305426.755868,824.9890710477036,648.6691163643025,730.8533377058885,769.5192268338731
1731305426.7597654,825.7088456656252,649.5561900630137,734.9146003046742,771.9167759316358
1731305426.7636626,817.9105341504527,621.5698175924675,738.8905416554533,777.0891246792148
1731305426.76756,803.9844745664706,629.4402715850989,742.8204576287075,781.4572465938797
1731305426.7677684,790.4357968806753,668.3446248411597,746.8655642201531,783.2440385101031
1731305426.768646,784.0914115575856,651.6128565867427,751.2361825555209,783.2198531364719
1731305426.7692237,787.5761024838686,494.50510362531827,755.9509472107916,783.452228230857
1731305426.7714574,797.4040350170799,208.44154260179948,760.5552073461927,785.3025632348522
1731305426.7753549,806.4558580177213,-91.3910886671294,764.1537041579451,788.4052294474684
1731305426.779252,809.3576705413146,-274.3582246516891,766.1264872586677,791.3700335736404
1731305426.7831495,806.6918067945606,-291.6167608480545,767.3923678338758,793.304030185628
1731305426.783352,804.4673504893656,-190.0801957417197,771.1055097338262,794.4831627509715
1731305426.787047,808.999794702848,-41.84909308711525,781.0081016952724,795.4489686123276
1731305426.7880795,821.3119600487406,124.16341092987511,796.6861808741537,795.5977637329638
1731305426.790944,835.7417858564978,313.9894651951279,808.3991273195215,793.0811300859566
1731305426.7948415,843.9486777207486,506.6481035250007,798.0706670956341,786.5775176201039
1731305426.798739,841.0045303841883,629.7219792354822,752.0576708648864,777.3712461840644
1731305426.7989354,828.6761735022196,620.5006243519529,680.6393802371593,769.4389168282456
1731305426.8026364,813.5886299915575,512.4877493135382,624.9021771684999,766.9043066758753
1731305426.803524,802.2352269313322,439.42915812784685,633.320766412626,770.8100002004128
1731305426.8065336,797.0130797711787,524.6021653467259,717.7426631499317,778.0675702116541
1731305426.8069355,796.046814865108,748.8966852114293,827.8975880783829,783.6508715651182
1731305426.810431,796.2427659369224,933.8356805591338,877.8011048539969,784.2606560844051
1731305426.8143284,796.6685957443724,880.2253892161712,812.8416960305212,780.4896562870279
1731305426.8145187,799.4260278046028,552.4796397583598,662.9589714046574,775.949405876136
1731305426.818226,807.2448322946167,137.8589530449127,529.6203750334646,774.388260571268
1731305426.8221233,819.7101751793107,-91.65830430492696,507.3290286435184,777.2232646593541
1731305426.8257916,831.579658650791,-8.019063790749499,601.4059116343004,783.1602229597423
1731305426.8260205,835.4737148517705,256.7143600511687,716.2454381845741,789.6559951241335
1731305426.829918,827.5636880403765,422.6685456688523,732.933375407945,794.642521471961
1731305426.8301027,811.6495295083607,314.70445156587357,614.778919869373,797.1579809704643
1731305426.833815,797.5814665048212,29.856718288009176,447.3483094677479,796.8383188562439
1731305426.8377123,794.4842677635188,-139.68711109617203,372.15162353163424,793.2996725217981
1731305426.8384025,803.891038110876,31.9431812457305,467.8073458053451,786.3707409185052
1731305426.84161,818.4165408595601,490.94872833670587,682.1381736338027,777.1032286092315
1731305426.8446476,827.3086482826624,933.4281502398449,874.7739259277857,768.4763475180492
1731305426.8455074,824.6350962324811,1056.0765571287352,931.9529252540927,764.6329022665943
1731305426.8456862,813.6639150571514,808.2991671447872,853.2122805389425,768.5471961044994
1731305426.8494046,804.079166383432,425.1826600278847,738.0779498300465,779.5363782774082
1731305426.853302,804.5023193723921,215.85394496633847,690.8250621102897,792.7072502538045
1731305426.8571994,816.397472004226,297.71525626499835,731.2725235603697,801.3640533221981
1731305426.8610969,833.786829653413,511.82560615706865,789.2616769594833,801.1163811414586
1731305426.8612697,848.0668798655377,588.9450631909824,782.1423049844574,792.8021374113373
1731305426.8635037,853.4420784163249,409.13955253142063,699.7281683923591,781.9596652561661
1731305426.864994,849.1419236698987,115.70878588786024,616.6149400571762,775.111947308876
1731305426.8688917,838.1704098863652,-19.32855417118043,620.4408026483345,775.5426357152894
1731305426.872789,824.9640502562323,148.3950478130082,723.4792063476382,781.6081126307394
1731305426.8732803,813.9347719158447,495.0470658089686,841.5394616394677,788.637937955376
1731305426.876686,808.8204023916433,732.2104987754382,862.7662109559361,792.677442099936
1731305426.8768537,811.750590973074,656.9640249067497,745.986528988217,792.9859465610799
1731305426.8805835,821.9231527135619,321.21531563016765,560.885400661886,791.4783050039528
1731305426.88236,835.2421903776,-22.396783186822688,435.33862201098566,790.0847023768124
1731305426.884481,846.1360274969462,-132.56486412673638,457.5749490220529,788.7680712274288
1731305426.8883784,850.8589509628582,46.12262490715682,616.0884156026643,786.0605642945346
1731305426.8922756,849.8266396279188,382.65944289409435,820.5500441912321,781.374907901766
1731305426.892437,846.9312936157166,699.648158659202,975.4881426147944,776.5892503169839
1731305426.896173,846.2079463836236,909.1982486468055,1041.5418601247586,775.1634877403911
1731305426.9000704,848.4985389015897,1036.1453782414135,1042.0929161865197,779.456906774734
1731305426.901216,850.797836990812,1141.4130211853585,1024.7242395076487,788.5885347156932
1731305426.903968,848.7558871867084,1239.484963990362,1018.6124689439579,798.661345372131
1731305426.907865,840.3274685514995,1284.466499754515,1020.55864636579,805.1910547087233
1731305426.9080205,827.8434288808353,1221.136228632251,1011.1803982242866,805.968058860644
1731305426.9081583,817.1598109885127,1041.347518993932,978.9654733002853,802.4244616495422
1731305426.9117625,814.6064686628846,793.7482678860606,929.8967415602983,798.642000798604
1731305426.91566,823.6020494406441,546.2323019053113,878.6266889430362,798.5954791138925
1731305426.919557,842.6122471290342,344.1336421864946,834.8667200656187,803.3509211086728
1731305426.920072,865.281020230126,204.05208744632603,799.9981726296326,810.1391225847667
1731305426.9234543,882.7375600868518,138.8899657456838,774.5857187300278,814.1461268660748
1731305426.9236042,887.330061255144,172.4109072986871,764.2836806499956,811.9268753366842
1731305426.927352,876.256888960608,316.59419392694576,775.134722362604,803.9479567551064
1731305426.9312494,853.1923707913312,538.2289790681543,804.8197055986185,794.2587528812501
1731305426.9351466,826.7530631052174,764.8537299991199,843.055941467291,787.541308910456
1731305426.938928,806.4330467149638,935.4447510351378,881.7486123573747,785.9410381101059
1731305426.939044,798.2185478370393,1039.2442481796204,920.1105834224627,788.1734812459077
1731305426.9391878,802.2506412429668,1091.526512979306,954.6992115858034,791.3410482675542
1731305426.9429414,813.6390869164728,1072.5675985255334,966.1051240953036,793.6098197433181
1731305426.9430368,825.771457491201,912.5831335369458,924.2998065076241,795.4226935627235
1731305426.9468389,834.0801871066458,562.6044207571241,815.6085487616992,798.4590573796719
1731305426.950736,837.869434229236,87.73677446875485,665.1343800887505,803.5182224441022
1731305426.9546337,839.0238383452643,-327.15046717875356,526.4626754160906,809.2450529450067
1731305426.9547713,838.8968800757542,-495.5671951139955,444.2568802234421,812.7552667717739
1731305426.9577842,836.4700806819748,-380.846386811061,426.01834826662036,811.6323242844104
1731305426.958531,829.8580795937155,-139.90266095838905,447.2838583671221,805.6989542044782
1731305426.9624283,819.8075056229236,-2.8201782568048657,477.49996070197085,797.1739441569702
1731305426.9663255,811.3300396947727,-79.42478962123045,499.4590044841626,789.1311728624729
1731305426.9702227,810.9746124688731,-259.46661921069625,511.4251971001104,783.5320429800898
1731305426.970355,821.4981091752728,-301.4535804271365,519.0672856785258,780.3549754886191
1731305426.9741204,838.5776825671026,-42.215525658843205,527.5874782125113,778.3163836615449
1731305426.9766402,852.7109738502431,452.75643139600515,538.7022713939066,776.3704114534016
1731305426.9779148,855.0425483608772,934.1762795677585,551.5462833296305,774.726075247126
1731305426.9780176,842.7341736929152,1175.1733938115967,564.6816366195229,774.694188391743
1731305426.981915,820.2019635840252,1157.0480245666827,577.3218353028958,777.5755606473028
1731305426.9858124,795.9183517976666,1065.6079250801336,589.451613319305,783.3807118950342
1731305426.9859383,777.4649685576782,1100.9660209400995,601.3968127225496,790.2661821763758
1731305426.98971,768.0850082210579,1279.3661958221717,613.4264479532685,795.2098400876215
1731305426.993607,766.3358508739324,1415.2242489555501,625.6171920570052,795.6731102039405
1731305426.9954965,768.2426246889131,1300.2009382178865,637.9153168504466,791.1838174703057
1731305426.9975045,770.125845857161,907.6104347212115,650.2447975886273,783.6533479944643
1731305427.001402,770.4283002111326,427.7041526150842,662.5677058712752,776.1542067278438
1731305427.001522,769.831349154319,102.3505336540577,674.8863437081732,771.1097950693584
1731305427.005299,769.9841988757252,16.655528682569013,687.2189864710133,769.2098326292654
1731305427.0091963,771.8666014057999,40.94703301944952,699.579443166255,769.5637793622175
1731305427.0127933,774.9685319447199,-28.22799320586313,711.9710751245084,770.5671948112138
1731305427.013094,777.9020924758805,-263.4881939967567,724.390843022565,770.701243576186
1731305427.0143523,779.8890792026783,-527.5687222142526,736.8351710360027,768.9865605186721
1731305427.0169914,781.6422792092258,-589.9229519752178,749.302816269579,765.2429589230303
1731305427.0171058,784.536797270744,-330.8941214390932,761.7943663920748,760.1999581172214
1731305427.0208886,788.6548865295489,150.19419371704623,774.3103152335262,755.2572843574707
1731305427.024786,791.7620438230911,614.2344801145334,786.8498711695712,751.8461480526016
1731305427.0286834,790.7867926547666,868.1172481851013,799.4117569406781,750.7399208235875
1731305427.0325809,784.9545553926431,887.3064464389364,811.9967814272388,751.7355847782057
1731305427.032689,777.6038846939997,780.5308245485508,824.6100493087957,753.7791760401346
1731305427.0332086,774.3313781883616,659.2206583674998,837.2592453998536,755.3358320340808
1731305427.036478,778.4127144604273,552.5663211080104,849.9467052513612,754.8923829098037
1731305427.0403757,787.4163938324689,437.68139259248574,862.6588422678144,751.5970127820867
1731305427.044273,794.3678055759765,322.589694191948,875.3648419872875,745.8565174522298
1731305427.0476713,792.8504041932101,271.00441215318017,888.0387299301383,739.4718328099729
1731305427.0481703,781.7845590157882,334.97819671126297,900.7036495810885,735.0214097248005
1731305427.0482728,765.9288479844747,472.332273458407,913.4634093935083,734.6498825996111
1731305427.052065,752.0508960769589,550.4305184275811,926.4585551072805,738.7962753703284
1731305427.0520675,744.3178708412568,451.8589981175773,939.7107101455363,745.5283184347013
1731305427.0559647,742.5020047412737,189.61560645703327,952.9332085473363,751.0684486308558
1731305427.0598624,743.5926232207784,-80.41283647013921,965.5384206077745,751.6531522913409
1731305427.0637596,744.5939246611799,-170.27305603259543,977.0915169274822,745.9438340100628
1731305427.0638564,744.1131285166222,0.6976996464998706,988.1416490944852,736.36337314063
1731305427.067657,742.2509931970416,357.8596071516273,1000.7179996120466,728.0058829788325
1731305427.0709207,739.8484757271436,745.1324941035446,1017.3098987092054,725.4516489063011
1731305427.0715544,737.9477503252787,1039.7092034689772,1037.7561050349252,729.7340784633564
1731305427.075452,737.4169924410853,1204.4402602148693,1055.6484692682398,737.9613226536843
1731305427.079349,738.5678948190453,1255.127175844186,1058.3930872808448,745.8895260477669
1731305427.07944,741.0333485630304,1208.8660119161266,1034.3361736022978,750.9805807523031
1731305427.082549,744.0966467361787,1081.9132889149935,983.5444211937825,753.3422301154357
1731305427.0832465,747.1697062480742,927.1734792640075,921.6234799466695,754.494718382246
1731305427.087144,750.0212325240922,838.6196983435407,870.2239734126772,755.7704479120896
1731305427.0897768,752.6964241961837,881.5143657467022,842.2427625286114,757.6389739287873
1731305427.091041,755.3241866611224,1004.3675389364155,835.6793379145398,759.9220334396094
1731305427.0949385,757.9866758531487,1039.7380197060882,839.6528304814428,762.2797041939591
1731305427.0950236,760.6939679001109,832.1751719763699,844.1316947359762,764.5167874510794
1731305427.098836,763.4187083972093,397.1057834043073,844.8963453218394,766.6229036069045
1731305427.1027334,766.1345564726136,-45.62102074299486,842.5947392379436,768.6738656842774
1731305427.1066306,768.8321296205929,-224.17407221274988,839.4751293311739,770.7353076487653
1731305427.1086328,771.5152794200809,-37.936621715288936,837.0403369992332,772.8275811358408
1731305427.110528,774.1912284296731,348.95027718650016,835.5242887886224,774.9389473975044
1731305427.1106071,776.8642274144961,641.8634847719404,834.4660381016585,777.0512936147613
1731305427.1144254,779.5346875489721,669.4605640183985,833.3926697884486,779.1551668432879
1731305427.1174276,782.2012076249248,530.0787771946071,832.1209473283955,781.2508235376275
1731305427.1183228,784.8625787033612,492.6455411836419,830.7061669054414,783.342612639299
1731305427.12222,787.5185263497639,737.3436998680965,829.2711878062375,785.4340028736196
1731305427.1261177,790.1694463527532,1174.15355453138,827.890741528203,787.5259939562177
1731305427.126191,792.8158728215047,1511.7697031440239,826.571773200321,789.6179748975538
1731305427.1274889,795.4581634655723,1519.5252575647246,825.2873360379295,791.7090977012726
1731305427.130015,798.0964747283583,1242.7650010976108,824.0123202465479,793.7990141197848
1731305427.1339123,800.7308769104636,968.9227643864518,822.7376436549376,795.8878781507027
1731305427.1378095,803.3614574287792,967.1950368066556,821.466324241566,797.976031257001
1731305427.1417067,805.9883543845567,1234.7179178873134,820.2042354499739,800.063747819164
1731305427.1417744,808.6117391119105,1483.513675774316,818.9543684602884,802.1511654578288
1731305427.1456044,811.2317875021703,1389.657814654203,817.7161792179726,804.2383382280208
1731305427.146345,813.8486640591825,889.2640231850415,816.4874775899258,806.3253091279018
1731305427.1495016,816.4625209728339,259.0312115507687,815.2661509009929,808.4121452288988
1731305427.1523056,819.0735040863053,-94.7361399437271,814.0507135845183,810.4989345170303
1731305427.153399,821.6817586010766,39.371256166343244,812.8401422122029,812.585768437348
1731305427.1572964,824.2874321702661,515.9279722182305,811.6338167006905,814.6727300116586
1731305427.157358,826.8906755592261,965.8541037995793,810.4318151328082,816.7598926937508
1731305427.1611938,829.4916403329419,1100.3853132373354,809.2349630288039,818.8473242220981
1731305427.165091,832.0904722253348,921.0263546643131,808.0437162272017,820.9350872965769
1731305427.1652007,834.6873017226465,669.282085622548,806.8558081443791,823.023233626652
1731305427.1689885,837.2822400729112,588.3363066915666,805.664550568147,825.1117964225907
1731305427.172886,839.875393118336,723.0505629793213,804.4612753353312,827.2007934854015
1731305427.1729417,842.4668965797935,923.3410519951574,803.2439355687732,829.2902507500199
1731305427.176783,845.0569501108607,1016.8209385533153,802.0275302435447,831.3802378726575
1731305427.1806805,847.6457988915963,972.8540119493518,800.8435822122505,833.47087880455
1731305427.1840572,850.2336196174267,911.1206440055646,799.7148821445205,835.5622882073379
1731305427.184578,852.8203494231351,964.0410094575157,798.6093980686616,837.6544277499755
1731305427.187184,855.4056304117541,1133.5265918869673,797.412724725356,839.7469850543739
1731305427.1884754,857.9891035317443,1277.768595547448,795.983734402235,841.8394813536883
1731305427.1885252,860.5710878164855,1238.3056528353682,794.3229315941296,843.9317546557202
1731305427.1923726,863.1531685899703,988.1765366584657,792.7583657521602,846.0246139987071
1731305427.19627,865.7377186227102,664.0072983843843,791.9023918658835,848.1199405340133
1731305427.2001674,868.3256326695717,453.3709435312414,792.1389550616655,850.2193546071635
1731305427.2029133,870.9131984932144,442.6915286398304,792.7664092258073,852.3214842016322
1731305427.2040648,873.4915072962311,563.5221579531192,791.592553812203,854.4199502250389
1731305427.2041087,876.0526290347337,676.3676144652353,786.1936910122029,856.5059482788831
1731305427.207962,878.6025491402836,701.4265528090957,777.2862506362063,858.5777710448351
1731305427.2118597,881.171029149361,672.8369120567866,772.3318685934653,860.6526351131273
1731305427.215757,883.7999743574935,680.2931510291157,785.1210986428569,862.7666749640023
1731305427.2196543,886.4987011519869,770.0222814641295,828.1059480172266,864.9474110552142
1731305427.2196925,889.1872043994441,899.2486981727991,900.2364930639006,867.1621850170756
1731305427.221769,891.6939215257551,970.7376659412481,979.3003037960357,869.285591733166
1731305427.222062,893.8833605004938,901.231467750936,1027.2374879435858,871.1583005356816
1731305427.2235515,895.899790747619,667.0818457422189,1009.0694126919865,872.7725217869095
1731305427.2274487,898.3250516095059,309.6320129252623,916.4474855363774,874.4810711880746
1731305427.2313464,901.9020558688908,-83.2707798524388,780.6893313042333,876.95300293847
1731305427.2352436,906.6341460635881,-402.92895252806824,662.3707790881645,880.5905348060812
1731305427.235276,910.6934260870762,-551.741022585622,618.122371151874,884.4984621150429
1731305427.239141,910.3233872177959,-483.71995710639436,663.747469980688,885.7905809198422
1731305427.2406254,901.8167486210604,-239.5188095534598,760.6294422635158,880.3990367690856
1731305427.2430384,884.924087840132,54.97270081351758,839.2356957214643,865.7445498301507
1731305427.2469358,864.8581483639897,248.1034937454903,845.945421033384,843.7073090676209
1731305427.250833,850.1861050775249,258.3478948483082,778.3523186486954,821.1213934240791
1731305427.2508595,847.2139986463125,138.25571122240808,680.5822419807457,806.4081603164519
1731305427.2547305,855.0015537764625,41.640273713299734,604.5588266123864,804.2660835425538
1731305427.25694,865.3177122291189,102.73365345930893,573.8267633307744,812.4234257403666
1731305427.258628,868.2357767263696,323.452122201292,578.6195588921771,823.1359932332979
1731305427.2594814,859.4705552338156,573.8816981197314,595.7933267691869,828.4378436078534
1731305427.262525,843.6820224282571,713.4861073676418,608.7061007213908,825.2697640051792
1731305427.2664225,830.7375179250348,721.6369293642672,613.1906028447322,816.8056959373235
1731305427.2664433,827.5956053560284,709.2254832102863,612.8115001714162,809.269926662952
1731305427.27032,832.4183637602229,796.6728585477671,612.1532270418137,806.9137236831294
1731305427.2742174,836.0194371521135,978.1275618343714,613.3489632773675,809.0501765473507
1731305427.2781146,829.6972932296078,1108.403707596309,616.1369845885474,811.260531397179
1731305427.2783377,813.0236528332665,1029.0231606042175,619.3867185875667,809.5178894681305
1731305427.282012,795.0868120238526,714.4119912598334,622.2993353010263,803.6848304510771
1731305427.2820268,788.0812714408077,302.13101706402847,624.7170907686673,797.4546637578867
1731305427.2859094,798.2902599737535,-17.619517957234223,626.8559182199858,794.8378518542844
1731305427.2898068,821.3380611088429,-149.92460273800197,628.9570779374659,796.2665459110349
1731305427.2918184,844.9597217124067,-149.62259067293127,631.1216366528106,797.776584728213
1731305427.293704,856.7888845282814,-141.57479139808112,633.3269412335214,794.1110167826414
1731305427.2971935,851.4303477753715,-187.3037543235642,635.5110207020915,783.1900548277129
1731305427.2976017,832.4598194114344,-223.4915364007647,637.633447394231,768.2077951349445
1731305427.2976103,809.1861669283171,-129.48735131112818,639.6880516182455,755.6601036756115
1731305427.301499,791.3183265846662,138.56763835357793,641.6869974881466,750.9606850924197
1731305427.3053963,784.8687476963413,473.2892332425826,643.6424993321024,755.0308040393869
1731305427.3092935,790.5649256855877,676.9097345964278,645.5589484481613,764.1547543244235
1731305427.3131907,804.2208967097673,611.5157653509783,647.4344342321504,772.7732581391929
1731305427.3131938,818.3276297092648,310.6829421052694,649.2653530658067,776.9378163296219
1731305427.3160496,824.7571517803232,-42.43300460892584,651.0494648824932,776.075046417044
1731305427.3170884,818.3501008769289,-249.32939555823617,652.7863729141167,772.2010826996077
1731305427.3209858,799.970243238168,-229.9055105533809,654.4765963266025,767.5995445680318
1731305427.324883,776.8263451408218,-54.50686254791452,656.1206177020279,762.9930031353074
1731305427.3266964,759.0176956769367,133.00265598343628,657.7185150644192,757.7073590293419
1731305427.3287776,753.9325187247399,222.91461901712597,659.270075251923,751.5664059755111
1731305427.3287804,762.0281339677825,193.33286151902377,660.7750435002681,746.5973763852205
1731305427.3326778,776.8055409686303,88.1122346754442,662.2332757635139,746.5727898014782
1731305427.334906,788.951268998619,-37.299939411529806,663.6447541749786,754.2493267565626
1731305427.336575,791.8884904747406,-146.39075827494656,665.0095341259411,768.4232667165521
1731305427.3404725,785.2652374639292,-212.22739571033293,666.3276951060274,783.5074770368808
1731305427.3443613,774.4747895810494,-197.54422978317467,667.5993239474477,792.483868456757
1731305427.34437,766.9107284481224,-61.866140126572134,668.8245225208461,791.246558805532
1731305427.3482673,767.5329991142107,200.84129552254416,670.0034211704289,781.0068835168914
1731305427.3521645,776.3475496690978,531.1172374786162,671.1361862433953,766.8886923375327
1731305427.353762,788.886191237095,819.8326266881146,672.2230203827568,753.9812966168346
1731305427.356062,799.0168689227568,969.5236082177607,673.2641595175464,744.2369949572329
1731305427.3599446,802.4243819862794,954.4577921040977,674.2598702893489,736.7455849723652
1731305427.3599594,798.9577702756524,831.3537205176928,675.2104492341456,730.737848227292
1731305427.3615746,792.542892273572,696.7221897499701,676.116223174595,728.0260797899643
1731305427.3638568,788.5823814370161,629.4752707342294,676.9775498179733,732.0421613618887
1731305427.367754,790.4316901882024,657.7872129914377,677.7948179858703,743.9777809766794
1731305427.3716514,797.4207229108223,756.4882273671699,678.5684474453221,759.7394743679545
1731305427.372618,805.8424410268863,858.5656471967641,679.2988885617999,771.2963489241383
1731305427.3755283,811.9553697583838,873.8466791162286,679.986621961754,772.2400715262856
1731305427.3755488,814.4763940584888,725.6171337647772,680.6321582604199,763.2310835150734
1731305427.379446,814.7112789149908,405.64739131445566,681.2360378244763,752.4322562674683
1731305427.3833437,814.6315179735001,12.784927158936853,681.7988305330033,749.945347413008
1731305427.387241,814.8596687474753,-274.67989555910077,682.3211355301884,760.3941257673675
1731305427.391112,814.3798338237686,-302.2504529162265,682.8035809711448,779.5268373154048
1731305427.3911383,812.1319708338958,-55.473067813316504,683.2468237251212,797.4314186007122
1731305427.391474,808.8845629624244,308.2504496166986,683.6515489538219,805.6244377869564
1731305427.3950355,807.4038486894857,559.6003207219375,684.0184695071702,802.5041954668019
1731305427.396453,810.3959536143608,567.7409738549592,684.3483252360622,793.439655386648
1731305427.3989327,817.8183049427415,403.8765884822118,684.6418825501252,786.126676607515
1731305427.4028304,825.9908545686063,278.6956141028536,684.8999346023388,785.1354622495925
1731305427.4066954,829.5968165639962,354.1997933880938,685.1233020488344,789.556299309754
1731305427.4067278,825.2718243458432,593.4971841332951,685.3128333961266,794.8273022268332
1731305427.41033,814.1207264611185,792.4488096193874,685.4694032058435,796.6691308892714
1731305427.410625,801.2628371569353,773.4607399750198,685.5939072160074,793.9621797735507
1731305427.4145224,792.6659925797527,562.127883984248,685.6872566423755,788.844985793694
1731305427.4184198,791.4080046017916,373.35676338759055,685.7503780886555,784.6544903991079
1731305427.4222791,795.8501791808092,411.0867710890525,685.7842258396712,783.592804730078
1731305427.422317,800.9174303137725,666.6301696953881,685.7898042672962,785.63995101492
1731305427.4262145,801.6482046657104,907.5210262700791,685.7681803373335,789.0656624366704
1731305427.429186,796.670405445367,874.2130808094514,685.7204540201279,791.8764980930653
1731305427.430112,789.2162233363537,512.7602117176859,685.6476728629789,793.091939455615
1731305427.4313307,784.8393225155928,40.32464923418519,685.5507398959559,793.0020216714628
1731305427.4340093,787.2979747247247,-213.69438678653586,685.430438932862,792.4035929243946
1731305427.4378626,795.5708554244745,-59.84454526801568,685.2876952159321,791.648058636221
1731305427.4379065,804.3600557497098,409.4287022902733,685.1240036693616,790.4119141766466
1731305427.441804,807.8714407250336,896.3760169998966,684.9416234936381,788.3339226040514
1731305427.4457014,804.0719991497288,1123.1552241498146,684.7429451771047,785.8056848416816
1731305427.4480422,796.1789261367426,1021.6548490022037,684.5288511642505,784.0524286687897
1731305427.4495988,790.233743348091,744.8474316156542,684.297117174337,784.2547031033362
1731305427.453446,790.5569473066753,512.0652850862696,684.0432309157055,786.2753272958693
1731305427.453496,796.4512277565354,433.69823776940285,683.7656435967592,787.9927065038924
1731305427.4573934,802.6630905443279,459.7024236652448,683.4736991842684,786.0127603495748
1731305427.4612908,803.423734161281,472.67612164593277,683.1902655947822,777.6736640322152
1731305427.465188,797.1887030553434,418.54837744995785,682.9382136103343,763.2414580522332
1731305427.4662092,788.4481364541441,348.967251078776,682.7089714393016,746.7853183199725
1731305427.4668984,784.9148034125529,346.3110942299755,682.4350891668172,734.842962984707
1731305427.46903,791.8087511672977,417.5716975136285,682.0120164165362,733.2910327690864
1731305427.4690857,807.4187273563898,469.8781703807567,681.402724683731,744.0288022497449
1731305427.472983,823.5955456564087,397.3422505796482,680.7830047105357,763.4556978008379
1731305427.4768803,831.2424196604204,196.62904540315282,680.5702511998514,783.8915141034446
1731305427.4807775,826.731183541179,-5.395537606099822,681.1395611053,797.3159770601115
1731305427.4846134,814.1308757484766,-48.64452202591457,682.2257679457762,799.2343086944903
1731305427.4846747,801.55007600085,122.47555337489206,682.4662281774746,790.3948026072043
1731305427.4857545,794.8856241224925,408.49606046185266,679.9424113133429,775.6016972264555
1731305427.4885724,794.2186095003611,640.2773440378659,674.2785218427173,760.7253281205817
1731305427.4924698,795.3650797635747,721.3795330711084,669.3751907312168,749.8770192607004
1731305427.496367,794.5331956548414,695.74857299592,673.8415688903013,744.2608137733425
1731305427.5001967,791.8208994379539,682.2504677649692,696.0439336271153,742.9694328799377
1731305427.5002644,790.8843534391802,744.6169042920747,735.0389964679703,744.748883981557
1731305427.5010874,795.5481719284008,823.5610100340823,775.4004697584288,749.2508457174172
1731305427.5041618,806.3865604548222,794.1718218165279,794.2352738289007,756.8783626494778
1731305427.5046103,819.9179389929685,591.0694391259317,777.5913358115369,767.576742093796
1731305427.508059,830.7982765486198,281.59266629627825,731.7656788275557,779.7949479017318
1731305427.5119565,835.1697963743363,18.832152532788484,678.224705438264,790.6166401042138
1731305427.5157807,832.663706607596,-80.63463240837638,637.0104448072425,797.0160188839039
1731305427.515854,825.7628824668881,-21.851150676621103,614.5308212918789,797.3110285485424
1731305427.5197513,817.3017157078825,93.42353396027886,605.673290965324,791.8646904154423
1731305427.5234666,808.2571123292574,168.25889116247038,604.5028464108563,782.7520004504314
1731305427.5236485,797.655925484789,186.9765326020664,609.9646935156072,772.7686744034173
1731305427.527546,784.6302862001978,200.09966367808835,621.6704629374175,764.3633460575228
1731305427.5313642,770.7287570014628,250.10967025002032,635.180797006388,758.9243221189183
1731305427.5314434,760.11195539045,326.336171328851,647.2781500890665,756.6158265207284
1731305427.5353408,756.8897457541045,393.4244160822976,666.485565479239,756.7120906310331
1731305427.5359654,761.5290601217217,448.3285165779968,712.2935812071166,758.1246238282024
1731305427.539238,769.6366766247866,529.7507754248559,797.00851004819,759.7418480180395
1731305427.5423226,774.8403791326415,665.7890518161685,907.3561714258612,760.4842716661276
1731305427.5431354,773.8821900622642,825.5401660317623,1008.5761274178981,759.3944538851005
1731305427.5469477,769.5819810556412,941.697658738316,1069.9391706946765,756.0782212819664
1731305427.5470328,768.6732394633596,988.0441501317196,1085.8161380495417,751.236712540719
1731305427.55093,775.9476745180092,1022.8059183421076,1073.225087457514,746.5563064062748
1731305427.5548277,789.7305691639257,1134.8358275531316,1053.8928984277804,743.6682490182378
1731305427.5587249,802.8090887497713,1334.4246487841524,1040.2885219783816,742.9936202219626
1731305427.5611787,808.0608355678339,1502.3711986961239,1033.8565895662223,743.7177004487461
1731305427.5625312,803.7514235603692,1466.5899643488058,1030.6433816752083,745.0877054108407
1731305427.5626223,793.9354702159886,1151.9714170861719,1026.9245037768828,747.6854855493056
1731305427.5665195,784.0789215738055,668.2489276474533,1021.4273285234749,753.1052283224307
1731305427.5704167,776.3322646719885,247.0912740544528,1014.7370155022369,762.038435854333
1731305427.5708437,768.8105073046222,75.71249321107979,1007.8747665515582,772.5836573064462
1731305427.5743144,759.0936917721771,170.7966170230577,1001.4124307159445,780.707438080602
1731305427.578115,748.0533218044794,396.1429547323454,995.3721001873015,782.8943364245646
1731305427.5782118,739.9617402931625,589.2905782493326,989.5262498281236,778.8527249391426
1731305427.5800347,738.711437403309,671.7053107497584,983.6826327087573,771.8117734479903
1731305427.582109,743.9752223371065,662.0890304585881,977.7846532729043,765.956545971627
1731305427.5860064,751.2291757843022,619.5196866181143,971.8697252155265,763.1604259364603
1731305427.5899038,755.6605445371586,587.9042499996007,965.9926111563888,761.8923375773561
1731305427.5936985,756.1558996756953,578.6212253360619,960.1816116039275,759.1936273261517
1731305427.593801,755.7124091385708,582.42216993316,954.4362480374014,753.7899963534553
1731305427.5976985,758.2753568468892,587.1226896727759,948.7442285336526,747.4659383593878
1731305427.5988908,765.1381644433436,586.9391846068575,943.0961001189681,743.596945649245
1731305427.601596,773.8020794742744,582.469490547421,937.4897506660117,744.3439432416251
1731305427.6054933,779.7059136754638,576.6864546944595,931.9277344971744,748.9868790608467
1731305427.6057217,779.3166812680153,571.7283732408968,926.4131852845239,754.5766382659956
1731305427.609282,772.714539156166,568.0397392849809,920.9476776160079,758.026170584608
1731305427.6093905,764.1617137200523,565.0598690833419,915.5312640813992,757.8312577803431
1731305427.613288,759.8742878451721,562.1468136467756,910.1634223142083,754.3358836251151
1731305427.6171854,763.8541255776831,559.0251772414915,904.8437933184555,748.8500790897077
1731305427.6177473,774.5867872144784,555.7494919317053,899.5723579095918,742.6729149082823
1731305427.6210828,785.4977039466696,552.4822532914847,894.3492597056045,736.7229166636067
1731305427.6248658,789.2776726702596,549.3310262118716,889.1746086863307,731.6574367415583
1731305427.62498,782.8128774053521,546.3128123576495,884.0484439362042,727.9747318961831
1731305427.6288774,768.9237923733722,543.395456407068,878.9708209524241,725.8860271530183
1731305427.6327748,754.0142496392626,540.546223442417,873.9418552127695,725.1813428051233
1731305427.636603,744.0441198270286,537.7528018990881,868.9615632013586,725.3172226923926
1731305427.636672,741.8417531925509,535.018924107437,864.0295219826473,725.6167637910618
1731305427.6404493,746.7678340428208,532.3517581044222,859.1446648493487,725.3496848576825
1731305427.6405694,755.7974234030929,529.7544834295168,854.3057164565141,723.7710554588991
1731305427.6406,764.9961202555681,527.2274405007058,849.5124768493907,720.4683270782232
1731305427.6444669,771.2179925632407,524.7734814510663,844.7671977932805,716.0386264575869
1731305427.6483643,773.8171534015642,522.4001247848166,840.0741629963927,712.4103226613776
1731305427.6522615,775.2309822618623,520.1130108922368,835.435698819369,711.9843408553284
1731305427.6554592,779.2494185167313,517.9023684058113,830.8456832887322,715.7485168223575
1731305427.6560328,787.5784933302651,515.7350974305441,826.2866743663277,721.8316023284792
1731305427.6561587,797.4018829070972,513.5715968015913,821.7396347334981,726.1118403256268
1731305427.6600564,802.5584553955194,511.41488483397944,817.2088259183431,724.9354056417177
1731305427.6639538,798.1111386055427,509.3627188690298,812.7458056037285,717.9955247883795
1731305427.667851,784.7815820357546,507.59068992613146,808.436453821746,708.9530424682115
1731305427.6716166,769.2038587074792,506.1994263519725,804.3208453783757,703.1120309318059
1731305427.6717484,759.257186246433,504.9679627947588,800.2733695552304,703.9183004455209
1731305427.6743152,758.2469922701398,503.2474397538401,795.9646372697205,710.9727154887711
1731305427.6754782,763.1027884967643,500.335836644749,791.0690566365348,720.8690571478493
1731305427.6756458,768.2436081662587,496.4271168561192,785.7422481602379,729.8700700228894
1731305427.679543,771.3477667093644,493.5171559296962,781.0323420049098,736.2512068295933
1731305427.6834404,775.292510085253,494.89277936999576,778.5398751450289,740.7971204821107
1731305427.6872,784.2836058880932,502.0690156806371,778.8249358786487,745.5188992024566
1731305427.687338,798.1733033816595,510.2475912750306,779.2183352320009,751.81125469714
1731305427.6912353,811.0787999551384,506.95469805857715,773.4375714244667,759.3652673226736
1731305427.6931713,816.22357221216,480.11014734944604,755.9890760288096,766.4445264770465
1731305427.6951325,812.4613118881549,436.4763416440935,731.3959094820152,771.1940684881384
1731305427.69903,805.8533134982283,417.95223778153,721.5131718762898,772.9954028338176
1731305427.7027836,804.3622858481189,490.7519104416659,758.6072111291744,772.889408250878
1731305427.7029274,810.6142438806978,692.1043695302136,857.9806407178241,772.8203152436405
1731305427.7068248,819.7180599376608,963.3667765140946,986.7562546579159,774.3821018139629
1731305427.7103562,824.1580596154887,1142.3495998840901,1064.9245484244927,778.0526848128653
1731305427.710722,820.8609827446918,1061.1325366804413,1016.454739616411,783.3042748242427
1731305427.7120273,813.6530059977765,693.8863619849262,836.8880398022976,789.1391805549687
1731305427.7146194,809.0828854690384,224.6813979635158,615.2249063804506,794.4102978040779
1731305427.718367,809.9388373603591,-48.884716409693795,480.31774827528335,797.8410598884648
1731305427.7185168,812.6061299644863,76.15372435124783,507.92901293993407,798.1942644218993
1731305427.7224145,810.5352557412922,547.9021051671855,663.5896518200503,794.8897047032564
1731305427.7263114,800.6343643879028,1085.330355567407,831.4740768218993,788.73935364587
1731305427.7302089,787.1072319979447,1382.5288583499678,907.8745572934893,782.0919483107658
1731305427.7308834,779.4309885066813,1331.9134560856105,880.6487460259583,777.9704182197221
1731305427.7339509,785.6586990505365,1084.8305883142273,827.0659452896604,778.5211066808291
1731305427.7341063,805.8453399441992,904.659774404113,834.9649660884168,783.7267562086835
1731305427.7380035,830.7371150987647,944.7305499941504,920.3297272693197,791.3625326379425
1731305427.7419007,847.3585013939689,1141.7077970653154,1015.329302778578,798.4154152205244
1731305427.7452345,847.8681413474973,1303.6411596000705,1034.594226234227,803.0767558598234
1731305427.7457983,835.0956355767894,1295.6552041814184,955.9943484131729,805.870583938721
1731305427.7495344,820.3350467269097,1147.1293977339867,840.6180348353181,809.0677775478847
1731305427.7496958,814.8748376480835,990.5193187218983,774.1388652061004,814.8232172930936
1731305427.7497394,821.6915671976307,907.0407211362965,784.9056581201404,823.4096826248931
1731305427.753593,833.7288139215092,840.4211060673838,816.2609033855441,832.8191279295597
1731305427.7574904,840.1338663412557,667.3230550541305,781.2874253598468,840.003340754373
1731305427.7613878,835.5593148471919,354.48954345792015,651.3463533103707,842.8658710861323
1731305427.765118,825.0862155096956,42.02728724507233,495.66625019135813,841.6074625233127
1731305427.7652853,820.7032502402665,-42.243801234436944,431.2999661715783,838.5310985600073
1731305427.7685957,832.0071655114933,228.18206573860442,524.5106338804394,836.5288823193588
1731305427.7691824,858.4052948538558,754.8726126309128,730.6170190977805,837.3296186218997
1731305427.77308,888.857739885233,1271.341628988272,925.8292386053279,840.6147236572697
1731305427.7769773,909.2180169792189,1534.0633660787532,1002.7529484466961,844.4701250805119
1731305427.7801125,911.4260796747084,1483.8412912274216,947.1934370681006,846.8631207774755
1731305427.7807016,897.7727872237939,1248.5587765074592,834.9930779053641,847.2709154168057
1731305427.7808745,877.7828903032583,1005.8264766486126,759.6528093729816,847.3891753296267
1731305427.784772,861.1347214513384,841.1772642537052,757.3126685147697,850.2218521554579
1731305427.7874515,852.5023613460851,721.0198639330669,789.9508052630101,857.9099302115828
1731305427.788669,851.5127270195347,579.1444978014476,792.3878325707017,869.849847893818
1731305427.7925668,856.0754382480765,412.1430278775577,734.9372353451593,882.8059184912292
1731305427.7962852,864.9192035176713,285.6303531118709,645.6881223666284,893.2125323581256
1731305427.796464,877.2148786825235,253.52351465918036,577.462432821577,899.7820973902461
1731305427.8003614,890.9805894404074,283.87248924920254,555.694257654816,904.019564905849
1731305427.8042588,903.1963226500027,276.8845399395413,558.2118213999727,908.162748914295
1731305427.8063078,912.0500819463133,163.9269520387598,544.0825864119884,912.675891110672
1731305427.8081565,918.723872515583,-9.693652519632849,500.55982649027965,915.9623941121906
1731305427.811869,926.2698116650329,-102.75219057536327,461.65751333008484,916.6933466858895
1731305427.8120534,936.2345931739653,15.395706348202452,481.6982095543892,916.3352179018635
1731305427.8149908,946.2142657943499,364.3244357352183,589.8325443587361,919.0352548137785
1731305427.8159509,950.8089923372725,840.6783269397048,765.241944726915,928.5006423000721
1731305427.8198483,945.428097007295,1291.1173484810192,949.2698531858789,944.4763110497414
1731305427.8237455,930.0536287660594,1596.8443018384892,1079.0388374345264,962.0225279231726
1731305427.8251638,910.2316817967123,1708.4279319391912,1117.4464009783533,974.4752715909502
1731305427.8274524,894.6125563647968,1635.2132220742178,1066.9483509945749,977.8772402846066
1731305427.827643,890.5373205987582,1431.9176373245712,967.444335226968,973.4723014001296
1731305427.8315403,900.2527684487691,1197.8819785465382,879.8180806822586,966.4410643829174
1731305427.8354378,919.9837422468432,1057.8078511194208,856.0475162888755,962.01460844489
1731305427.839335,942.3955714206612,1096.4568031710094,906.0061374745583,962.0755119702062
1731305427.843036,960.7174963391819,1279.4803842699496,983.0800188271296,964.8271682399941
1731305427.8432324,971.670430544753,1439.296142102909,1007.0956546651075,967.5217965121785
1731305427.84402,975.5745469438109,1372.5964119682026,918.2841864912065,969.6951383057778
1731305427.8471298,974.5424798162504,998.5277405627412,727.5108307332956,974.0001675609213
1731305427.849869,970.9468892679968,451.8464327977792,521.6431632508517,983.891126224319
1731305427.8510273,967.3098783705524,14.466206068268377,410.305457595717,1000.2196469230523
1731305427.8549244,966.8885998188975,-84.5805731709159,446.1813676698597,1019.7879026562382
1731305427.8586197,973.4771168999762,152.03891924202287,579.9330995951764,1037.192515153769
1731305427.858822,989.6613764861859,487.91276344817675,692.3946275777927,1048.4581241779324
1731305427.8627193,1014.1516316242213,643.8681193949724,686.4581910492443,1053.5356230314276
1731305427.862876,1040.1195315980954,527.4223987686926,566.1852808467609,1055.8421595727427
1731305427.8666165,1056.8310454737975,300.56791741753716,433.93133469258316,1059.4697425422717
1731305427.870514,1055.173381792437,221.4041748410928,403.6284591152562,1066.3656012897054
1731305427.8742032,1034.1702860775563,399.48690259289157,503.69249788974105,1075.5300816266479
1731305427.874411,1003.2360883004443,688.9352067641519,655.2548031298977,1084.547780457049
1731305427.8783088,977.0856425479053,820.4948048509968,744.5780864351423,1091.97434324081
1731305427.881732,966.1680199146788,652.044970686145,722.8044285791184,1098.5334869901246
1731305427.882206,969.89081434919,304.64743072452325,642.4447492074734,1106.1174558845603
1731305427.884747,978.1400578980204,56.769877795192485,600.4653799587117,1115.4695839269111
1731305427.8861034,979.9608878417066,94.28881285670064,644.3685264181636,1124.6961615833054
1731305427.8897867,972.6290064299442,346.24796296659446,729.2927653263487,1130.2300381244518
1731305427.8900008,964.26293965947,552.9141546674219,763.7611494434497,1129.7235704651212
1731305427.8938982,968.1102928683805,494.9576661135416,698.4683132688168,1124.3669229146305
1731305427.8977954,992.6069730968329,168.90341755040902,573.8754547364277,1118.3840938465926
1731305427.9005885,1034.2380116067154,-239.52388349926417,482.88312227484226,1116.078642171099
1731305427.9016929,1078.4840622651705,-529.3994134318616,485.2469386393553,1119.2712938086104
1731305427.9053702,1108.8363729625016,-626.5551799629618,554.7242217485948,1127.565182785791
1731305427.9055903,1118.1838668136556,-586.6640406191052,607.1958602821584,1140.8555784998298
1731305427.9094875,1114.6066131393839,-506.8857552808958,580.9677479010313,1161.0689180954987
1731305427.913385,1116.859457992696,-449.93486428821615,493.2408485648663,1190.8292979972082
1731305427.9172823,1141.9214588755228,-427.2754018569303,422.5624592857104,1229.7506329399587
1731305427.9194443,1192.8687916820854,-422.0707868038908,437.6581731174712,1271.3503355402986
1731305427.9196253,1255.371429743107,-416.13004245206884,539.5445533678445,1303.3915115462557
1731305427.920954,1305.1604313839985,-402.1406909121487,665.7433446703301,1312.3722442927092
1731305427.9211798,1321.3199109508903,-382.0659193699449,746.1365347465646,1290.294951284242
1731305427.925077,1296.6122232915154,-360.6392016628062,757.1578601776287,1239.8686442019944
1731305427.9289744,1238.6861781390548,-340.8303961741976,729.5725504697374,1174.2411678437209
1731305427.9328718,1162.8571812556095,-322.9966894213124,710.4828496072394,1110.3372495307515
1731305427.9365375,1082.8678018307892,-306.1493646912293,718.8593731521106,1059.6002930223092
1731305427.9367692,1006.1403670089954,-289.3389630822964,734.095538386653,1022.443132664775
1731305427.9383004,934.9940280548019,-272.225992535079,723.2936780520905,990.1643126199049
1731305427.9406664,870.2312726141863,-254.94501516060126,677.7266000975299,952.3596205116414
1731305427.944564,812.9150151093539,-237.74994756574728,623.0162177682387,903.9877598494621
1731305427.9484613,763.550117401104,-220.78695670867404,594.432815840376,847.3470221133231
1731305427.952121,720.9781544554917,-204.0641137738175,602.389262209383,788.7564797932786
1731305427.9523585,683.0009297122183,-187.52459502505195,621.8679217420856,733.5701138745824
1731305427.9545033,648.126713655626,-171.11865205337182,615.4240996830191,683.44862976741
1731305427.956256,616.3014531857377,-154.8300520382332,566.9793993715477,637.0721533824735
1731305427.9571564,587.7473255409747,-138.66636654336406,494.94332741027307,592.5086988827896
1731305427.960153,561.3542695329793,-122.63974927805629,435.07309398118565,548.704197091519
1731305427.9640508,534.6502857312105,-106.75570302103057,411.8631555037412,505.16724053556214
1731305427.9677048,505.64537122962963,-91.01251758940344,424.36929166128056,460.97824028420393
1731305427.967948,474.81759603095776,-75.40590011155945,454.8589183317121,414.7770515070347
1731305427.9718454,445.29076687220066,-59.93291312999082,487.21902008413696,366.1126234190043
1731305427.9757428,420.93785791938814,-44.592505571628465,517.127450710248,316.9531157126053
1731305427.9760125,404.00437397434405,-29.38310460901431,548.3393546426264,271.83779526720696
1731305427.9796402,394.0829848510664,-14.299819346015,583.5304323699727,236.23641139227186
1731305427.9832883,388.7822305941951,0.6652940852338247,620.4191320012578,213.99406188688
1731305427.9835374,384.9652382679252,15.517577482185345,655.1064827214993,205.24807230927854
1731305427.9874349,379.5851452681407,30.250836180658837,685.9852912814893,205.91469401677898
1731305427.9893816,370.3617135811815,44.844019480551594,712.1777925245956,209.2297425140813
1731305427.9913323,356.9126919243848,59.275547604906535,728.6470471380901,208.94647590833756
1731305427.9948685,341.85013845556796,73.55755993652559,726.2051600017235,202.58870920243703
1731305427.9952295,330.3224262272598,87.76657942513373,700.6804707648081,192.4298191677609
1731305427.9988718,327.2242254026486,102.02127573685965,663.9263314268737,182.97223184609254
1731305427.999127,333.4768789926082,116.36954834609281,642.55219144333,176.60013097133674
1731305428.0030243,344.2733695776611,130.6288354547513,659.0912000227905,171.2880771631303
1731305428.0069218,351.2547708133314,144.3497511946132,709.8593053236999,162.9661362199505
1731305428.010819,347.706643954443,157.1194969620724,763.1586819788296,150.79444108128882
1731305428.0137246,333.37462188725357,169.2146956051887,785.251304608352,140.28125960022032
1731305428.0144556,315.4821712655402,182.11818062183102,772.0242890958851,140.5720029573323
1731305428.0147164,305.00060968689274,197.96814667726653,753.8232219653075,157.4405471394383
1731305428.0186138,310.3296462629668,217.3245695052031,765.3450286421541,187.7220970551782
1731305428.0225112,332.25448734549747,236.26886898521815,808.7967187894569,220.1623822606914
1731305428.0242598,363.37187821239365,246.17233514530227,847.8875425053374,242.47806175244443
1731305428.0264084,392.4763033571641,240.02184331292824,840.9573877919057,249.2977232833549
1731305428.0300393,411.1877925748571,224.84163161023582,782.4854936445861,245.00322605470603
1731305428.030306,418.47091308904453,230.3509423203949,712.5083022730025,239.81464314307607
1731305428.0325806,420.02087758801633,296.61903201996574,683.0768132564164,242.83492226546605
1731305428.0342033,423.19813725340396,431.8495937545136,711.7124116149708,257.4428056966211
1731305428.0381005,431.68749388310397,565.2594025248901,765.1939331808255,281.37124197053635
1731305428.041998,444.3443817456306,558.577578871398,789.7994534865759,309.6157417765429
1731305428.0456226,458.9407010319088,317.15993961272284,761.0016421739291,337.16907368894596
1731305428.045895,476.6556326261085,-71.74127323784393,706.7736983288313,360.6685525451397
1731305428.0497928,502.01899792935654,-332.39360167980107,682.4562971009543,379.7987818781608
1731305428.051437,537.5122514299641,-190.64767829939484,719.926729665377,398.26757114204617
1731305428.05369,578.1236086500105,385.1291766338403,797.6548974593861,422.3584751263457
1731305428.0575874,612.2622238970719,1122.4612356727478,858.8021104195075,456.11569613286787
1731305428.0591378,629.63106306955,1637.629600995334,860.4311381860995,496.10231180277793
1731305428.061206,629.4415228439793,1719.3995731310617,809.3953040755786,530.9606844008679
1731305428.0614848,621.231789981334,1459.4801942678832,754.0283628946671,548.0491535156738
1731305428.0653822,617.0795486479894,1134.3053678989836,741.1572361240092,543.1076461140524
1731305428.0692794,621.9753719694916,964.9808698959803,777.6003860171376,525.2056982049976
1731305428.0702927,630.8061351606649,969.5305189415508,828.7413867991387,512.2135590135618
1731305428.0731769,634.219857895162,1012.8273743182948,852.3425710835766,519.568829421679
1731305428.07679,627.6504451056385,974.4664860335192,835.4362172073833,550.6369942621976
1731305428.0770743,615.5004092237125,863.2333342287641,801.771773120402,595.5989664146036
1731305428.0809717,607.5145231152708,778.0931737609299,785.2709641081154,638.8254383612726
1731305428.084869,611.3331763259886,771.8267323695482,795.5886363599263,668.3317902705332
1731305428.0887663,627.7161325825236,767.256865137701,808.2954818205015,680.538695758571
1731305428.089149,651.7165210829579,621.8208482791629,789.0769987413013,678.7956189740144
1731305428.0923734,677.9234542302703,286.3643451353372,729.6609620341402,669.3983325733503
1731305428.0926638,705.0009520478743,-97.89422464236162,661.9151645921328,659.2363972329937
1731305428.094016,735.6870074443316,-272.75616754374533,636.1371150349289,655.4512380176419
1731305428.096561,772.1957659449305,-58.03789979959441,681.8310004878158,664.541853852473
1731305428.1004584,811.0315979304139,499.06852660295516,784.4788627513672,689.5052322860637
1731305428.1043558,842.4185394514554,1150.8626231405226,896.7542808562558,726.9686014002126
1731305428.107957,856.2499016893246,1624.9597583989105,972.6255657570522,767.5696803012258
1731305428.108005,850.72720536481,1796.5229181109378,995.7848726303368,800.4497616474083
1731305428.1082532,836.4917528477384,1726.87675445252,982.876296503393,819.1175235168996
1731305428.1121504,831.540020672608,1569.681765905199,964.8200790878974,824.6006741084158
1731305428.116048,849.2865638235959,1448.5483813556996,964.3445544466371,823.8102820695916
1731305428.1199453,888.292105377196,1400.6934153925818,985.1190854964677,824.5796620089214
1731305428.1235406,931.9440492659054,1399.1404706685476,1015.1937809574572,831.0429637881257
1731305428.1238427,959.1826321852292,1403.8331567003604,1037.596337695722,842.2826645814197
1731305428.126861,958.7117220777784,1393.7850673388912,1039.8360466797828,854.3933846416253
1731305428.12774,936.2348998647464,1369.359146536313,1018.6774977879564,863.7809548346365
1731305428.128894,909.615548760854,1339.810078044201,980.6183874423349,869.3340745029772
1731305428.131637,896.0436636964964,1312.3846122589614,939.0751793721449,872.590616532414
1731305428.1355348,900.9761705139113,1288.924079012408,908.4732898482861,876.5228409443442
1731305428.1391242,916.6571917541638,1267.792193136907,896.6917600425472,884.0225367544573
1731305428.139432,930.345956256045,1246.8800307860126,900.3593115747656,896.7137902066249
1731305428.1433294,935.1098833339976,1225.1940484067575,907.8958491276934,914.1752286659424
1731305428.1457171,934.7281131170892,1202.8420514143734,909.661704755273,933.643050190185
1731305428.1472268,939.5717692259644,1180.3390825160902,906.7452480457634,950.5806534165189
1731305428.1511242,957.6018074472416,1158.0546179025716,908.7518346812798,960.3602449421625
1731305428.1547077,987.885410115352,1136.0658835809554,920.7906545488751,960.4838300692662
1731305428.1550214,1021.1627751177531,1114.2773735252808,932.496576172634,952.0863687594949
1731305428.1589189,1046.1388014545853,1092.5801021998168,922.9055882297481,939.7298567389448
1731305428.1628163,1056.3419167676834,1070.9284262724334,880.2070339144952,929.5019816498689
1731305428.1637723,1053.010636813475,1049.333438271639,818.4634020499458,926.3687251660115
1731305428.1645732,1043.0014618410994,1027.8246408949074,772.6716443442613,932.1367625963414
1731305428.1667137,1033.9186210484074,1006.4219486938935,772.1744160505273,945.1658068186821
1731305428.1702914,1029.6658578551826,985.1296203318298,813.8622787903997,962.0497434571546
1731305428.170611,1028.789683189942,963.9433707169827,860.1059068549301,980.1162415122228
1731305428.1745083,1026.4397583815621,942.8586396300091,866.6498346221371,998.7829090188392
1731305428.1784058,1018.9214299838925,921.8741576888069,818.9213663982313,1018.5932533909652
1731305428.182303,1007.911019011375,900.9913511574873,745.7307834798247,1038.8331307267747
1731305428.1834292,1000.7650612117047,880.2125730694971,697.502178554262,1056.1346996178681
1731305428.1858747,1005.5703853157689,859.540185172419,706.8745143840315,1065.7171098938416
1731305428.1862004,1023.994956724889,838.9764826912012,764.8774720585756,1064.3812802363263
1731305428.1900978,1047.9395908099439,818.5232664532379,831.7249847263033,1052.5833608867283
1731305428.1939952,1063.8808732769476,798.1803290859353,870.849565050416,1033.8280418918405
1731305428.1978924,1062.4371914047088,777.9439431194212,875.9093716776583,1012.3661167354633
1731305428.1986506,1045.5841327161536,757.808197524971,869.1661417462999,991.7393513549854
1731305428.2014585,1025.2377179962962,737.7713985512814,876.1947402108485,975.2777619029297
1731305428.20179,1013.9765917460239,717.8449773369417,901.6088231021736,966.8794724909492
1731305428.2022855,1015.3577981643297,698.0551419882735,926.9251775701086,969.7346363807312
1731305428.2056873,1021.7577001751522,678.4251246796025,930.2000795112149,983.2614738094566
1731305428.2095847,1021.5776098373356,658.9380514105119,907.8214923347005,1001.5460484159739
1731305428.213482,1010.0200881018317,639.50872907331,878.3012479358576,1016.1030656646174
1731305428.2170422,994.530723251302,620.0172284576179,865.3707582629647,1021.5616535957051
1731305428.217379,989.9476502930738,600.4374388669443,876.7550281063775,1019.2966662541502
1731305428.2211416,1006.6266322033172,580.9997004007901,898.3366808810138,1015.4128995606759
1731305428.2212768,1040.9768266518645,562.1962946142208,908.4146074590253,1014.9202240362653
1731305428.225174,1076.5583648293723,544.4133494353208,897.9255429493074,1017.792563356569
1731305428.2290714,1095.4387697467396,527.2286677046462,877.6435981138957,1020.6793782609401
1731305428.2326255,1090.7188641337825,508.9530169422251,866.5520241326614,1022.2080783836652
1731305428.2329688,1070.0583569328878,487.40453169983635,873.49167448197,1026.0442104126096
1731305428.2335286,1048.057294173113,462.42583431268963,889.5921493732609,1038.0135780173098
1731305428.2368662,1035.0754672334956,438.7952382873573,897.5670288508546,1059.5799064198643
1731305428.2399976,1032.221032015467,425.8188282742766,887.7095792009482,1083.9940627894898
1731305428.2407634,1035.0749759379964,429.78124841210723,865.0212638919779,1099.4907553227354
1731305428.2446609,1039.9344766574338,440.7186467146672,841.6066962156121,1097.5748704844832
1731305428.2482092,1045.1307133666287,425.09425699435036,823.1424637718706,1079.5102743835796
1731305428.2485583,1047.1728533412397,341.302126293626,803.6554233123297,1055.3485989695678
1731305428.2524557,1038.5332668693868,179.54471793536544,773.9785006176004,1036.3104437966292
1731305428.256353,1012.3518556206893,-5.941231034879877,734.8957501740157,1027.1029185394177
1731305428.2588537,970.7443358077105,-116.47885403766708,700.6703158854045,1024.4953114250166
1731305428.2602503,927.7396555588751,-82.24598958900452,688.208340404361,1022.6318796952543
1731305428.263793,901.9508637224566,70.90534781077088,701.9866382012975,1019.6959793723904
1731305428.2641478,903.8301652834633,229.86219863684204,729.49034565407,1019.7982923963335
1731305428.2680447,927.8392968720813,281.36805919391526,751.4111179754508,1028.569215681366
1731305428.2684069,956.0103519717948,204.16806844344507,756.5280527888403,1046.6089014007875
1731305428.2719424,970.1724226288669,82.87914127257534,747.905390303468,1066.8903738787174
1731305428.2758398,963.6273212361152,31.33240771858891,737.0260048701392,1078.8950413872535
1731305428.2777095,944.0683071241509,96.43151751234217,733.904037434392,1076.4329230473506
1731305428.2793765,926.523082728951,228.22967202893932,742.3348316868888,1062.6250634024766
1731305428.2797372,922.3148656319117,336.1627477847659,761.263371008197,1047.5348806620282
1731305428.2836344,932.0887652387953,371.6802008790388,786.7116194564726,1040.0538552728162
1731305428.287532,946.8080351335833,359.8093258100842,811.0026535312031,1040.748709101713
1731305428.2914293,954.338235284664,358.34829228402685,822.7563543872903,1041.795488959627
1731305428.29496,946.3132242119242,394.23506279821424,812.6254606694007,1034.025292249181
1731305428.2953267,921.998157324056,443.01382532047575,783.0106822408427,1014.8156447290644
1731305428.2965658,889.1016353073093,467.14834746722147,752.3799878913503,989.8946012756911
1731305428.299224,861.8514618564822,466.06626191635195,745.9832304012741,967.7975517715041
1731305428.303121,855.2016474818969,479.42564816654647,776.1907015698682,952.455387061156
1731305428.3032851,875.4063038888945,536.1202708122397,827.9233396727003,940.8746129412219
1731305428.3070188,912.219627060281,603.0209406397626,864.8472442097932,927.7714369987151
1731305428.3105435,940.6831688413183,595.7154986120042,856.3374889719403,912.2921953794872
1731305428.310916,934.8795637478895,455.2425042420207,805.1661583682487,900.030966939489
1731305428.3148134,885.2413107185084,222.68066824790577,750.4026467619664,898.1508140126734
1731305428.3154218,805.911069718357,30.277610815115565,737.9469181756417,907.9923123816093
1731305428.3187108,725.9176416736925,-2.6374367602031157,779.9782100165005,921.9389880426979
1731305428.3226082,671.2361330480226,115.30149199460612,838.7907611359296,927.5699424132074
1731305428.3261273,651.2203345019512,234.58179877157335,853.8417486959279,915.9319026054729
1731305428.3265054,657.2897221891889,186.32586318947887,793.8386492647187,887.5387125518992
1731305428.3304029,671.4476714295724,-57.52676319021492,689.9331018048682,851.8454590476489
1731305428.334278,677.1826083928613,-334.5756299131719,617.4511904117566,821.1847866938938
1731305428.3343005,667.4279381951969,-415.6521261043004,636.4484047595195,803.9537524669958
1731305428.3381631,648.0200970160269,-205.7844549658709,739.512769216311,801.4132222898332
1731305428.3381977,636.1156826281292,156.60115660147528,852.9200463841136,808.9632260932108
1731305428.3417108,652.6472176569014,400.6655483817108,893.3438921256936,819.6771651640672
1731305428.342095,709.8207497807033,344.27513151566995,834.0075889601475,827.4348037536241
1731305428.3459923,799.3237935868606,43.1246087044683,724.5723775091019,828.4710026452303
1731305428.3498898,890.0467782996799,-261.907975654303,648.033573581439,821.5716405475033
1731305428.3531342,940.7293561692494,-346.6518595407527,651.9744405773115,807.5914080372546
1731305428.3537867,922.9962097123541,-171.06400224352018,713.1361290993635,788.826316405783
1731305428.3572943,840.6115590458124,125.76417471435786,764.3348184321519,768.4873483392677
1731305428.3576844,730.4308401037024,368.28247841705985,757.9108080574279,750.1481195654588
1731305428.3615818,642.1203147974481,473.9459608287346,708.4514753419427,736.8118158095059
1731305428.3654792,609.3674640324148,470.1077938476027,676.7357134591853,729.583329453676
1731305428.3693764,632.1469858743734,428.29119873532426,709.5443288784843,726.7038758223993
1731305428.3719902,681.4222368690477,400.18821897011406,790.0092793450218,724.0613569116762
1731305428.372878,721.186448034495,398.5771632577247,845.2067306010549,717.5543159157687
1731305428.3730414,731.4119954089293,412.146319246034,807.6218297797944,706.1600393721749
1731305428.3732738,717.0769742740463,426.49885538041855,677.8432788021024,693.4310831326736
1731305428.3771713,699.7016915773368,434.9727473562084,531.7539802075469,685.6774647035788
1731305428.3810687,699.5114850734878,438.4142292353406,463.05231214505136,687.4391503027475
1731305428.384966,721.1172022424042,440.3746359293655,509.8866875989401,697.3888290852148
1731305428.3884616,751.7078509035854,443.3509879639516,628.4464540488596,708.1233038092242
1731305428.388863,771.5644249737278,447.82736132843905,732.7637313772375,710.5847969833571
1731305428.3908465,768.4350239500819,453.1201102773732,761.6625410311298,700.1102056662589
1731305428.3927608,745.370205673443,458.4706399443242,715.9480420690649,679.5677556498099
1731305428.396658,717.0769579146134,463.5618902247105,642.6937499919785,657.2049060223179
1731305428.4005554,698.563196167796,468.4644359181323,590.6682201695245,641.0313653738847
1731305428.404045,695.2769730280216,473.37111151095695,578.1484909811501,634.2168954528584
1731305428.4044528,702.0146323592386,478.4065568623706,593.1825548174404,634.6758532649645
1731305428.4079194,710.3085831685554,483.58796825615167,614.3224128612665,638.0982340763118
1731305428.4083502,717.1144629887602,488.875364918747,628.3310676981068,641.1954469164024
1731305428.4097023,727.0227870686916,494.22892280464237,633.8092424659752,642.896082524025
1731305428.4122474,746.1988835110551,499.6335214976657,635.4243811458851,643.6607647179995
1731305428.4161448,773.7032430749907,505.0938602296612,637.5687373051462,644.2909395119834
1731305428.4196289,798.4646607383055,510.61997485768586,641.7824344933942,645.2235925145125
1731305428.4200425,805.5124628469964,516.2176777870129,647.4204727546186,646.4622312243871
1731305428.4239397,786.8811896831405,521.8870867240892,653.3023378202836,647.8201566989346
1731305428.427837,748.2139850483808,527.6255488742405,658.7548675189128,649.1445578658377
1731305428.4285583,705.7515673942492,533.4306266674108,663.7432424502766,650.3918859280295
1731305428.4317343,676.5963342693333,539.3012437504411,668.5283569786479,651.5920611088698
1731305428.4352124,669.922661850325,545.2373235678297,673.3347593135558,652.78721380281
1731305428.4356318,684.2947973634367,551.2390052563949,678.2306346628508,653.9977415360408
1731305428.4395287,710.4624673999301,557.3061672108582,683.1739261081287,655.2213118705479
1731305428.4427977,736.2163689214633,563.4383800125992,688.1010497725463,656.4466493335476
1731305428.4434264,751.1883670998119,569.635072758235,692.97848675808,657.6650626825594
1731305428.4473238,750.9510725791965,575.8956866308706,697.8061827001515,658.8737965382388
1731305428.4474144,738.9827545676053,582.2197264821142,702.5981091483161,660.0737704150764
1731305428.450796,724.3777665643117,588.6067358016243,707.3651545876165,661.2663144748306
1731305428.4512212,715.624314008315,595.0562538656402,712.1097071780608,662.4515175660722
1731305428.4551184,714.8008762409045,601.5677915025775,716.8286478941411,663.6283167124726
1731305428.4590158,717.2661151546454,608.1408295532683,721.5180885812136,664.7953011406869
1731305428.4629133,717.3479190047922,614.7748276320108,726.1758996349336,665.9513249113193
1731305428.4662704,714.7580753329635,621.4692313981482,730.8017082813726,667.0956112339471
1731305428.4663796,715.4779445968227,628.2234740952902,735.395810733455,668.2274836499537
1731305428.4668107,726.0104821488741,635.036974005198,739.9582972489667,669.3460383812885
1731305428.470708,746.3107198845249,641.9091311412726,744.4888155711147,670.4500803426256
1731305428.474605,768.2369038699328,648.8393254924406,748.9867569755334,671.5385251690833
1731305428.477676,781.493606729657,655.8269174827027,753.4515081669448,672.6111404563376
1731305428.4785028,782.174273922166,662.8712498327611,757.8825740980673,673.6689731262742
1731305428.4819632,776.3548991409342,669.9716486729112,762.2795676391547,674.7134741147564
1731305428.4824002,775.1872101245438,677.1274210889793,766.6421468036893,675.7439153701885
1731305428.4851267,785.2182306863652,684.3378478832697,770.9699677821799,676.7546087922391
1731305428.4862974,802.0334171965445,691.6021753612622,775.2626764499996,677.7357018372136
1731305428.4901948,812.9750438869689,698.9196161479409,779.5199282083923,678.6811250820459
1731305428.4940922,807.318199519877,706.2893691316492,783.7414144187844,679.6016179200069
1731305428.497547,785.8490508452494,713.7106543437762,787.9268728997673,680.5306323563283
1731305428.4979894,761.8032502414832,721.1827314719508,792.0760650312819,681.5050868453019
1731305428.5018868,751.9466931884963,728.7048530959046,796.1887207194687,682.515584609202
1731305428.5039828,764.6842774572567,736.2761338224848,800.2644904160638,683.4579457507638
1731305428.5057845,794.5267597749977,743.8954138393362,804.3029795910033,684.1582142174061
1731305428.5096817,826.8560506185567,751.5613077414682,808.3039212543183,684.532133731234
1731305428.512554,848.4363075732876,759.2726134069367,812.2674176080981,684.8252726337139
1731305428.5131304,854.9366206291978,767.0289642320729,816.1939919258507,685.6905803069623
1731305428.513579,850.2053301796186,774.831099566592,820.0841247106616,687.7714939806949
1731305428.5174763,839.6181262505912,782.6798540065399,823.9372651026881,690.7300039477317
1731305428.5213735,824.6373379647342,790.5736356758952,827.7510588168736,692.3633045359271
1731305428.5228388,803.7333432053167,798.5060553400058,831.5222022062419,689.1091860774337
1731305428.5252712,778.0828648860472,806.4673535202219,835.2498380747983,678.7355262585306
1731305428.528714,755.2638581315529,814.4525898462803,838.9399286985031,663.6920811026157
1731305428.5291684,745.7154118594112,822.4736609291076,842.6055456514116,651.4487537412235
1731305428.5330658,754.0996868674504,830.5627559730535,846.257238988986,649.8435169257199
1731305428.5369632,773.7534162521875,838.7508695600445,849.8843263234323,660.6747053827874
1731305428.5408604,790.4228752961807,847.0195209792264,853.4422569706871,677.5459102357843
1731305428.5416949,792.7433207619299,855.2603241047125,856.8724788105815,690.3939349942375
1731305428.5442977,780.2643340568256,863.3115960140897,860.1690433461789,692.8881925301779
1731305428.5447578,762.1857177971027,871.1209821883956,863.4571241712937,686.4956963918119
1731305428.5474322,748.7884132145812,878.9648567373954,866.9851057806447,678.3413375799457
1731305428.5486553,743.7755030684871,887.4808688508847,870.9270753968024,675.2812784787104
1731305428.5525527,743.6791680154249,897.2184448978779,875.0312773371409,679.1484536801505
1731305428.55645,743.1802082432142,907.7211951537254,878.4210788537712,686.5055139780166
1731305428.5598812,740.2862779549152,916.8540688291247,880.0396169023139,692.4142089211085
1731305428.5603473,736.9384357154441,921.6776890260332,879.9441425025304,694.739933586639
1731305428.5605507,735.8986811991678,921.6501724912462,880.6911184503058,695.4318284558707
1731305428.5642447,737.9201226576479,922.5861705457228,886.9050521153073,698.0115229358615
1731305428.5681422,741.7560389704289,936.6122601470604,901.2057529834233,703.8710850195298
1731305428.5720394,746.1042357246384,972.8414172837745,917.4523211617898,710.9362975933442
1731305428.5754647,751.0048156480397,1019.9157790826805,917.1609333763649,715.8469623844078
1731305428.5759368,757.5109832301947,1034.7134705864817,877.269175708943,717.3667102261433
1731305428.579407,766.4565330656238,959.8500533316817,790.3872452782399,717.6804008796822
1731305428.5798342,777.5881607906476,775.6661091744597,683.1506451850822,720.4835079150218
1731305428.5823102,789.3537263175473,548.7799857814609,610.1291446937664,727.8372491992318
1731305428.5837314,799.0252809240926,413.985929149004,616.7245438450091,738.6423499081743
1731305428.5876288,803.3921316449812,471.0497869710233,696.3209467087461,749.8355472781358
1731305428.5910482,800.7125006597579,670.1805949714693,782.1921393671049,759.0688005312796
1731305428.5915265,793.4299946559064,803.0990468007019,791.2439545517238,766.6518488155483
1731305428.5954237,789.0473305090795,644.2424860257346,690.4490362779183,775.2112348529045
1731305428.598263,796.3741765392979,147.11035388990013,530.160515045739,787.0983233234085
1731305428.599321,817.9565299088024,-475.5022193858744,410.4651994837127,801.2932330045966
1731305428.6032183,844.4706091317935,-881.4961417855657,403.0838243315312,812.4524767873459
1731305428.6066318,857.6996162645934,-852.0068794680769,493.4204798779233,813.6704201082117
1731305428.6071155,842.480575244772,-454.9013620561146,594.5501032170043,801.5325788184928
1731305428.6110132,799.1906385439645,27.552200771143248,623.564898475652,779.5349542058582
1731305428.6149104,745.8909438298067,342.08704317393017,573.5794800193565,756.7480640897828
1731305428.6171193,707.0973918809016,453.66165532512014,515.9376120434403,742.4799065185123
1731305428.6171885,697.6866306582677,509.8141885517457,529.6981485812314,741.0065954845542
1731305428.6188078,714.6346485060576,632.5751316429522,623.4484459447015,750.0601227199497
1731305428.6222155,742.2155163581592,760.9771756779876,723.6709065271104,763.4388991358937
1731305428.6227052,764.9409151953812,712.248403234804,743.1395443845885,775.2074685851361
1731305428.6266024,777.1887015436114,401.60157599627195,666.7367996761757,782.6251491813796
1731305428.6304998,782.9618145007008,-12.156163057906099,572.229534732388,786.5376329330855
1731305428.6343973,788.3765793780464,-226.0612572899899,561.8253427211932,789.7151027915733
1731305428.6359754,794.8374250419924,-64.68743978974197,664.9681560684213,794.5529155988189
1731305428.637799,798.4907104810998,333.8309586289894,803.6513528065575,801.5731147693148
1731305428.6382947,795.0135423052556,611.3909824899542,856.5867558944594,809.4279562664256
1731305428.642192,784.6420738064937,497.30223442722365,767.3906523459584,816.029685800963
1731305428.6460893,773.3662842450866,55.984188643045854,599.5665960435826,819.7994390039468
1731305428.6499867,769.8174391040064,-354.2558686028546,487.18232875438474,820.3163187777573
1731305428.6520667,779.9354614684204,-383.8141263983976,522.4686878290148,818.382097389965
1731305428.6533823,802.3215085307788,5.793896340936783,676.9930547399885,815.8197560110985
1731305428.6538842,827.2842394574287,503.49688696095274,824.0533705634091,815.0268089907786
1731305428.6548314,841.5388064152447,709.9647328046,843.7122458914971,818.085584515807
1731305428.6577814,836.9544687971504,475.59718305758963,722.2428863514397,825.6023773471079
1731305428.6616788,817.2500148116111,25.007328354956712,562.4280820110756,836.0006226480056
1731305428.6655762,796.1678283258168,-237.44276381411072,496.54961466922185,845.9364720670272
1731305428.6689663,787.1384894313837,-67.42882116697996,577.0102293945438,851.7394839627354
1731305428.6694734,792.7941839319996,431.8592847643641,737.7685238724624,851.089244035735
1731305428.6733708,803.954715059472,926.1510251808012,855.9103075552212,844.1773293010626
1731305428.6736877,809.2588804151484,1145.0220792319315,855.0539415740873,834.0538997130379
1731305428.6772685,806.383543048266,1084.0962179221858,760.8492054445983,825.9935318205786
1731305428.6811657,804.2411938546722,953.4799085131577,667.740026539146,825.6174695888143
1731305428.6845498,814.280592797359,952.4169823793405,654.59575333954,836.012691246653
1731305428.685063,839.2329440584294,1090.438020563636,723.850813171435,855.3148975248091
1731305428.6869447,869.6068589793103,1203.8172538846488,809.2625360148329,876.8543581922897
1731305428.6889603,890.7827202461118,1124.7014366142942,835.8384245592616,892.6327717224309
1731305428.6925435,894.2197102763948,832.4303769235923,776.8304347133878,898.1792254705879
1731305428.6928575,883.3712108531031,455.78692731607555,664.2418472727197,895.2042111134037
1731305428.6967552,870.1212754215095,146.09935777760802,553.7600713663401,889.8723617450412
1731305428.700133,865.528328045668,-43.90638692754811,481.21709908461384,888.0351334590313
1731305428.7006524,872.5332587485374,-163.85508507924754,446.95684383235124,891.2229032740405
1731305428.7045498,885.6587908345055,-267.9680757583422,433.240164285566,896.325682373316
1731305428.7084472,896.7678980650811,-331.89818871791266,430.3103702895077,898.6917921502032
1731305428.7113996,901.6902855425158,-274.83212839399783,445.11512579370435,895.8961016645985
1731305428.7123444,902.6591505251167,-59.18391838221663,488.95466338892453,889.508985075965
1731305428.7157173,905.1964735739651,243.7811578908154,560.5783634579368,884.0429865470769
1731305428.7162418,912.4204672510557,496.5467886301575,641.1925999273502,884.0528219688492
1731305428.7201393,921.7042070643586,605.157058208479,703.416084191771,891.2043180229402
1731305428.721823,926.7636647288349,586.6734275165306,725.26665694111,903.043181557319
1731305428.7240367,923.8006727955225,532.6447160917472,700.8311963846324,914.3189696050772
1731305428.727934,916.5860340588763,515.2165962208524,644.6788917175063,920.242105251358
1731305428.7302556,915.4873351398384,534.8327753898891,588.7943780158366,919.6832153550785
1731305428.7313006,929.9176431809324,554.3118065118075,569.8402394390822,916.0949223553271
1731305428.7318313,959.5123527887822,567.0723637775535,608.0975086270422,915.2961625236497
1731305428.7357287,991.6585288255244,612.1749542968846,688.811816964652,921.46369161057
1731305428.7396262,1008.7887575822779,711.9987514723499,762.5162697805578,934.1518222252552
1731305428.7435234,1000.6213115420915,802.9568184232664,772.4887307097812,948.6529991054699
1731305428.746884,971.5729286290236,753.2750979712749,696.4415162238756,959.6413654862015
1731305428.7474208,937.251876186127,479.5532274339557,572.1250913063903,965.4154023653932
1731305428.7491117,913.3296551382069,60.55732699234272,480.97433177977473,969.2302548133822
1731305428.7513182,906.2434956326507,-277.11148454612584,493.32900219543313,976.1833925933565
1731305428.7552154,912.4691085043197,-317.7413392010421,613.5468076684298,987.8007113108322
1731305428.756701,924.869561972808,-29.06593549618259,771.978743298038,998.9750206958057
1731305428.7591128,939.0563332167172,413.5952450533722,877.2090253763325,1000.5896444696084
1731305428.762468,954.3885912975945,781.2854421077011,888.7230171923807,986.4130830466241
1731305428.7630105,970.4589452198655,980.2250120326477,846.7737932502157,958.7221521183608
1731305428.7669077,984.1525745278138,1096.9628812418339,831.4642266274305,927.7896748858418
1731305428.7679677,990.811585756633,1264.8470903221144,888.4111346991522,905.5476300730702
1731305428.770805,988.0182967183173,1494.6681406313728,990.1012017310352,898.4845646116512
1731305428.7747023,977.7620997933299,1644.9758553127772,1066.4984044100647,904.8434945120694
1731305428.7780514,965.0422561287816,1564.7548930830842,1070.4345889905346,917.1692892866341
1731305428.7785995,954.9995546733375,1266.8310263280628,1012.9534658397068,927.4187112287798
1731305428.7824972,951.3286274808713,954.5967533494061,941.7641809670697,931.0426890897701
1731305428.7863944,955.6713042684729,860.6296279328626,895.8863506192159,928.1203384634375
1731305428.786824,965.8744105776257,1035.741755373443,882.8041937954363,921.7393235704662
1731305428.7902918,973.8036210688391,1284.7054030907245,887.8941289769115,915.1468446392769
1731305428.7915792,967.2833392744667,1323.982546454955,894.4041233364323,909.544112035341
1731305428.793635,938.9280958951313,1037.9854709472065,894.5618078725126,903.8476313207406
1731305428.7941892,896.4629681285558,607.455981117683,889.1252387116871,896.4315729065592
1731305428.7980864,863.2305004881126,378.35300302423514,881.9855145376052,887.3690766506618
1731305428.8019838,863.2172484584914,565.9935743432484,875.9301089103585,879.1164918906871
1731305428.80568,899.8082753273912,1050.0010292304958,871.5247091838568,874.7398914735846
1731305428.8058813,947.0752684594675,1450.8573096945627,868.0251541852278,874.9987419915813
1731305428.8092186,964.5373216773706,1430.7418942316663,864.5892317199643,876.8931014753703
1731305428.8097787,925.9057822189511,957.188733527038,860.8592439905161,875.2520127901128
1731305428.813676,838.5343316535723,304.3130319598401,856.909799020564,866.381760008789
1731305428.8175733,737.4306392449274,-192.21398993210966,852.9552814163192,850.9739322199727
1731305428.8214707,659.7102832299869,-396.5782535888757,849.136776677122,833.9497986287539
1731305428.824536,621.4293405821506,-430.6022851091553,845.4762740477349,821.2519317875887
1731305428.8248022,614.2646002942524,-512.1447760095818,841.9313837867114,815.9431485096075
1731305428.8253682,620.433279477295,-749.8270436546586,838.4590670183443,816.5449576914655
1731305428.8264575,629.4628644694333,-1077.8297975158118,835.043411812457,818.8047445009081
1731305428.8292654,642.3384158830704,-1358.8341599008338,831.6905881141694,819.2416554567558
1731305428.8331628,662.6827608453166,-1527.8217834452078,828.4128404505976,817.2720362212322
1731305428.8370602,686.5321806869127,-1633.2836363360686,825.2177840512634,814.117781533476
1731305428.8403857,701.8461297770692,-1750.2986157073517,822.1067097089176,810.0216788781489
1731305428.8409576,698.1898942556415,-1867.6139831403436,819.0778651113147,803.184790626178
1731305428.843392,676.8117264295831,-1869.0832165773843,816.1298131581261,791.9857994971699
1731305428.8448548,650.9785791346515,-1630.8252261405344,813.2625973715693,778.1526396828162
1731305428.8487525,635.8369869530726,-1141.3370267993457,810.4770242448905,766.9806737725467
1731305428.8526497,637.0074283199335,-532.3980195290414,807.7734832744362,763.5240159526087
1731305428.8559692,647.98312693408,3.919455469861475,805.151609120954,768.0772936484357
1731305428.8565469,657.6376499623141,335.05709876935435,802.6113205578862,775.4333627645673
1731305428.8604443,659.8607410175795,449.2222486267517,800.1546004758094,778.9662947445474
1731305428.8613355,656.6743396321584,430.5424024228001,797.7861071332031,776.0296144690037
1731305428.8622482,653.7517306752666,391.7357098905385,795.5103405237373,769.9686076075521
1731305428.8643415,654.4446539977972,416.11210207026323,793.3251751165665,767.1543424667796
1731305428.8682392,658.2782872024643,524.2999134286099,791.2164804978881,771.7253695617071
1731305428.8715527,663.9473002287086,661.4495477317281,789.1630928945053,782.3748603623802
1731305428.8721364,672.1508099966406,715.7539101148955,787.1585805133249,793.4955110274142
1731305428.8760338,684.6698259869736,585.5759258545949,785.2403908885223,799.4132927727801
1731305428.8799312,700.8897573588488,274.0932806801343,783.493787779589,798.3074838551034
1731305428.8811042,715.9822423952924,-61.44495193827157,781.9914227989184,793.0560270871136
1731305428.8838286,723.2301470630979,-174.58365478717275,780.6710204778485,788.6751762252153
1731305428.8871365,718.722287294506,105.12678113666715,779.2469086119202,788.314269665728
1731305428.8877258,704.2802734764072,718.5529240927517,777.3289340542939,790.6343675724621
1731305428.8916233,686.0640093164017,1366.7814295392202,774.85110951993,790.5504921773924
1731305428.8955207,670.1500524780639,1681.783648545178,772.5980829150028,783.1477902105602
1731305428.8962138,659.1155323580534,1471.672967555764,772.194934909378,768.2418824288936
