timestamps,eeg_1,eeg_2,eeg_3,eeg_4
1731304379.050801,817.088018611836,779.9147811182787,755.8063773798011,808.3800591658301
1731304379.066398,798.9410111385366,776.3493008772974,755.9679017724706,790.4830981939651
1731304379.081995,794.7405336844939,777.1621354365443,758.5446286165944,784.6239563691465
1731304379.084031,811.5401028966979,784.3158484677093,763.80939968619,797.1132212316338
1731304379.087937,844.3495363190799,796.1973203813907,769.0865234058653,824.0485086716023
1731304379.091843,876.8265761507816,808.490433458445,770.0699782251319,851.8106883145791
1731304379.0957484,890.7423680090112,816.747960261349,763.8079989776187,865.3449416307069
1731304379.097592,879.7749337916304,819.0648435620362,751.4286662564501,860.0442059105898
1731304379.0996542,856.2515923774645,816.9811575272911,738.3069658630144,846.7592621160934
1731304379.10356,842.5952110890364,814.0090645174904,730.9838843969886,843.116942533316
1731304379.1074655,852.5286908042227,813.007172355682,732.7834719633822,857.1173598596511
1731304379.1083782,878.2545892147624,814.3730037394192,741.4128375197303,878.2306724442793
1731304379.1113715,896.3646419691945,816.1313699818719,750.4766462709457,885.8249665783227
1731304379.1131887,888.6344366293874,815.4833889442885,753.8216747695512,868.5056009351947
1731304379.1152773,859.3822908621527,810.5787037436259,749.4422600222415,836.5844743550325
1731304379.1191828,832.9982061997531,801.5079598398864,740.0955970396282,815.1163819049497
1731304379.1230886,832.7634756527248,790.1972903828406,730.4899591695404,822.5295109112211
1731304379.1269944,859.5095929594701,779.4582800974152,723.7243961532938,853.6463744321038
1731304379.1272435,889.703135595515,771.769908915005,720.0866195464855,882.8313914963318
1731304379.1287858,895.5103347480331,768.4218543903725,718.8292826756119,885.3875805717239
1731304379.1309,869.3844326096171,769.358960733595,720.4835060033209,858.824149419584
1731304379.1348057,831.1105155852641,773.5811366537287,726.795080813841,825.1932850335285
1731304379.1387117,810.6960799431284,779.6805438277561,738.1142076309791,812.0916662717887
1731304379.1426172,822.2428785747401,786.2403010499446,751.1966958605075,828.7890626034468
1731304379.1443827,852.1203436497975,792.0892902429806,760.4201847849642,858.433223819452
1731304379.1461086,871.8143628041928,796.4533249268288,762.0441993842421,873.1769433490055
1731304379.146523,863.6133995936375,798.9506496484822,757.7149704453194,858.8416152501053
1731304379.1504283,836.0086784633229,799.4636537108801,753.6006861311172,827.3633178753103
1731304379.1543343,815.2533142896891,798.1251068473925,755.4289678004778,806.1234462960985
1731304379.15824,821.0386863664248,795.5726467277973,763.5978533243233,813.6668798363834
1731304379.1599796,848.3899177259406,793.1725533640771,772.6653353373011,843.237169227469
1731304379.162146,872.1071607337016,792.6772828124518,775.7228352491272,868.5320027071907
1731304379.164974,869.6459272284005,795.2831652877112,769.9219149044652,866.433752770878
1731304379.1660516,841.6688667140298,800.8597213241857,758.5395235400692,836.7005733973568
1731304379.1699572,811.6611672889451,808.1692013062877,748.1108752773158,801.6545636168368
1731304379.1738627,804.9546659398881,815.8981481639564,743.4265932178885,786.656966780289
1731304379.1755764,825.994902203934,823.3842104832432,744.7530625402006,798.6433999178846
1731304379.1777687,854.0722983209548,830.2679461490428,749.2099015273334,820.997507712731
1731304379.1816745,861.1735461220936,835.6222357087344,754.2947997948243,828.5170321305623
1731304379.183839,836.317169652223,837.8104197314068,759.8865258554433,809.3472602508929
1731304379.1855805,795.5510890626095,835.5147183282096,767.0339733551632,775.5414173920393
1731304379.1860826,769.3138280821859,829.0316447666728,775.1915521114205,753.6613754142127
1731304379.1894858,777.7356254111561,820.615894517304,780.988658650523,763.0094492107019
1731304379.1911736,814.1688974304881,813.5890109844307,780.0342884321171,799.066078831258
1731304379.1933916,850.4391901536623,810.9115278621294,770.4012059220362,835.9105194140569
1731304379.197297,859.5970625705381,813.9892555586412,754.8927316501791,846.3456093165602
1731304379.201203,837.4390428468333,822.0069342648474,740.1341503594373,823.6404286949315
1731304379.2027044,804.8516107635774,831.9350243998425,732.9824873836247,786.7594560747915
1731304379.2051086,789.1141411668862,839.5560283386956,736.6618409652572,764.418528303089
1731304379.2067704,800.3554385409689,841.5658676601197,749.0566757471594,771.3488518430435
1731304379.2090144,823.5443294344963,837.7366355908387,764.0395209129874,796.8939133789931
1731304379.2129202,832.7022259926912,831.3820095372163,774.8938687792079,815.2974486294851
1731304379.216826,814.5270274235784,827.2707246658274,777.8695989644931,808.3141600895783
1731304379.2207315,780.6740324991903,828.3061276107725,773.9587905996244,780.6583322936341
1731304379.221,758.256965376617,833.6096905842264,767.9379779121217,755.6720237163279
1731304379.2215698,766.9927946252724,839.5721183387003,765.2087165200081,755.5850988399527
1731304379.2223673,802.3447404465837,842.8906239806969,768.3140993932037,783.0521136084873
1731304379.2246373,838.5818901860845,843.0134300512359,775.374917399023,818.8646948520236
1731304379.228543,849.2811582196272,842.1158800785029,781.5796000280695,837.3778647110289
1731304379.2324488,828.694408316572,842.8878443002674,782.736936815642,827.030994881592
1731304379.2363546,796.4648148458435,846.0934554710578,778.2585693743428,799.2065104099477
1731304379.2379644,781.4434321469274,849.8362135968521,771.2877396720295,778.0856816340824
1731304379.2402604,797.6574287094778,850.9834544418171,765.9718144061585,780.043127683974
1731304379.2404351,832.3985169134461,847.5597262036467,764.1726473360683,800.1443890002953
1731304379.244166,856.4985630879588,840.3183157252572,764.2201383125216,817.2158859271378
1731304379.2480717,848.2952366389663,832.4360277525533,762.5117805500222,812.8245735196372
1731304379.2519774,811.4991286016358,827.6649273863759,756.527585564927,787.5968576336508
1731304379.2535613,772.5507187967403,828.2507419671059,746.9236669534473,760.9433258045083
1731304379.2558832,759.9583472984627,833.839507484707,737.2436198720121,754.6735351967754
1731304379.2559173,782.2268148483591,841.703004219515,731.6005122238855,774.4823286520859
1731304379.2593002,821.4929577921132,847.8233639272258,732.1126673061242,804.7387772558167
1731304379.259789,847.5423553085943,848.2930610198727,737.9500090281032,820.8350724411748
1731304379.2636943,841.4285550588696,840.7920152982415,746.4943135288412,809.0043748890938
1731304379.2676003,810.5945315566087,825.8784085777221,755.3450051504823,777.4661294787019
1731304379.269158,783.4505174969975,807.3999687539919,763.2523488176632,749.8296465806798
1731304379.271506,786.9323074839556,791.258307328485,769.2815244492413,746.3523656576018
1731304379.2754118,824.3591371330701,782.6434899104607,771.5303454891693,768.8016042637006
1731304379.2781656,871.6082269057782,783.1982853325619,767.3955505615922,801.2479007522619
1731304379.2793174,895.46739492699,790.0838199790244,755.7665388780249,824.6591571877616
1731304379.2832232,879.9102135530702,797.8375830910443,739.1775646268438,831.0806105409222
1731304379.2847552,839.118602031649,801.8998569003815,723.4266352428012,825.6113873509933
1731304379.2871287,806.5100962537639,801.347144581186,714.2532695549112,817.982980821135
1731304379.2908344,808.3421059555197,798.8828152645169,713.4578552019593,814.2198470763122
1731304379.2910347,842.8865375203852,798.1900525139318,717.6743566447681,814.7405971132723
1731304379.2949405,881.8026531190694,800.7640300341562,721.0216639695108,817.1291638293291
1731304379.2970307,892.7660935645811,804.6995820459015,719.7182170364466,819.2075446480065
1731304379.298846,865.4189882179301,806.3019443650455,715.0689284037227,820.2436862515985
1731304379.300352,819.6984555289504,803.0992429402493,712.4191706384175,820.5788551559652
1731304379.3027518,789.4829380702033,795.7480346503544,716.8335803001036,820.8006204137939
1731304379.3066576,794.7813337972411,787.3533131970734,728.8957295172149,821.2347162800783
1731304379.310563,825.6984030786638,780.9897612143742,743.9289251812604,821.8906354707059
1731304379.314469,851.8308387813779,777.6994701645062,755.1145372813895,822.6359714340532
1731304379.315896,848.9585869721685,776.5863613598209,757.8790082396795,823.3600600108625
1731304379.315949,819.8731594161413,776.48936880235,752.2484367895837,824.0307443774848
1731304379.3183746,791.444492904857,777.2541281896067,741.962805259154,824.6697231388799
1731304379.3222804,790.7817258450273,779.299872338174,731.7678663020404,825.3083026195168
1731304379.3257515,821.1389320668953,782.1807956824745,725.1360612871948,825.9623724873026
1731304379.3261862,858.0459725175466,783.9702907878172,723.495723661543,826.631281797101
1731304379.330092,869.0193024294447,782.3805376156793,726.4895827399737,827.3076947500692
1731304379.3315458,840.825619524213,776.6352372372116,732.3587330441267,827.9860112771707
1731304379.3339975,792.0710893330933,768.2826823133552,738.2849548062239,828.6649055660122
1731304379.3347614,760.2776004933671,760.1838191616777,741.2277480463985,829.3457345377869
1731304379.3379033,772.6535256599504,754.6720856262234,739.4529194619461,830.0301448793202
1731304379.341809,823.2605601761124,752.5501643841234,733.8741187415981,830.7188284171258
1731304379.3457148,875.4795341817409,753.5710046591831,727.8562877747858,831.4115923858508
1731304379.3471427,889.3720728634494,757.489372685524,725.1362835767032,832.1080381766957
1731304379.3496206,853.1231018811255,764.3135066590909,727.257945219951,832.808139327626
1731304379.353526,793.1789849089571,773.4660479857682,732.617465520375,833.5123278831584
1731304379.3536267,754.0616207141882,782.9445555183428,737.9509705099443,834.2210083984883
1731304379.357432,763.4743576344913,789.7166628873143,740.9572302240196,834.9337572837968
1731304379.360669,810.7234831841371,791.3610759215421,741.8025413790017,835.6489043137534
1731304379.3613377,855.9902234289361,787.7232063435631,742.3929243128352,836.3644381769999
1731304379.3627398,862.989077950074,781.3267870259662,744.3434364930916,837.0805577929945
1731304379.3652434,828.4295254380944,776.2973840720236,747.5736257972061,837.8023230790436
1731304379.3691492,784.1840483240163,776.4931414060302,750.6341378178665,838.5387179095587
1731304379.3724918,770.4447952477656,783.733353813925,752.19631008628,839.29476453433
1731304379.3730547,802.2171889924681,796.7749672068526,752.2040796467281,840.0589498750148
1731304379.3769605,857.0579537767327,811.5096825887944,751.6973964330178,840.7980193217971
1731304379.378337,894.0024268997743,822.6047437660558,751.624847173829,841.4764704947721
1731304379.3808663,887.3241476487653,826.0733976009948,751.8533040994748,842.1051696428949
1731304379.384772,846.7188531089068,821.3437790854821,751.3420258222167,842.7870523348176
1731304379.3886778,807.7779330975554,811.3575464219164,749.3440266420887,843.6896185321932
1731304379.3913572,801.9572544993987,800.5728689975922,746.4851064821343,844.8871306477932
1731304379.3925834,831.6167244747065,792.4340791208647,744.5762805205947,846.1291679693247
1731304379.3939338,870.0292453096317,788.2122523816219,745.1647106954367,846.7746063141483
1731304379.395586,884.8482492696235,787.674996775685,748.1532400849403,846.2073885188156
1731304379.3964891,864.8273012617684,790.2670838181458,751.9510420015326,844.7717187468876
1731304379.400395,828.0796687534424,795.254279789978,755.1772180666833,844.5652233978764
1731304379.4043007,805.8934204689662,800.8410580806153,758.2324423696505,848.776325068134
1731304379.4082065,816.0756986677063,803.8471845105553,762.9586388619635,858.6830581317794
1731304379.4095306,848.1097850126764,801.205822813135,770.474811482844,869.8358189731332
1731304379.4102223,872.3848519466754,792.4781837008999,779.2624803856831,872.0094747574227
1731304379.412112,865.5874530344075,781.0016566539613,785.5166214774449,856.3495698801104
1731304379.4160178,830.8512212411948,772.125893216886,785.646005791501,825.3082092453789
1731304379.4199235,795.8013231192616,769.6390945759956,778.7861237886241,794.7240284746862
1731304379.4238293,790.2161710126692,773.2971956428156,767.2855638070891,783.1726112530408
1731304379.4251275,821.7603817410247,779.4406527969126,755.0752498151693,796.869629306206
1731304379.427735,869.2709420693533,783.9304942467669,745.5559372550978,823.7817663006327
1731304379.4290876,898.458209063966,784.7908239037566,740.5690385878141,842.4812686242229
1731304379.4305034,887.4029995099833,782.6247557086101,740.5929892241726,838.5048472676459
1731304379.4316406,842.4311672318777,779.0701621850912,745.2180172739634,815.1321631058636
1731304379.4355464,792.77881057582,775.077347970179,753.1883824226236,790.362630170241
1731304379.4394522,768.3995811084947,770.5180011080771,762.2840828491056,782.6258514911492
1731304379.4407246,777.9187854991924,765.1985679367631,769.797326580618,796.2804128211827
1731304379.443358,803.8081977399908,760.0803636794107,773.8209828563795,818.243986263887
1731304379.4472637,818.4857124880693,757.348288847782,774.5953465610629,828.7249489024551
1731304379.447953,808.0849950760318,759.0281768130383,774.7312107242252,817.8478246717203
1731304379.4511693,784.1291888286194,765.2957386923532,777.7209193647301,794.6767550751467
1731304379.455075,773.3295260611371,774.0850725425589,785.4242536795749,780.6106784374409
1731304379.4563217,794.0480459328231,782.4452563810112,796.2556927437654,791.67808911273
1731304379.4589808,839.1029310562662,788.3795654977633,805.6703712328698,823.86045866957
1731304379.4628866,879.3563529060224,791.5150851376911,809.0029119845103,853.9512302246543
1731304379.4654205,885.5874105070494,792.3534524838955,804.7163680539386,856.3714420815671
1731304379.466792,851.4182031807303,791.3674632814538,795.4556066923651,823.3535881054319
1731304379.4668183,799.0409799360549,789.0359016392838,785.991986316926,772.5198063307893
1731304379.470698,762.7680518553802,786.4053434320343,779.8955933412392,735.1258729441521
1731304379.4719183,762.8518078674658,784.9571982699716,777.7594912620085,733.243944656802
1731304379.4746037,790.235092139449,785.5052548699667,777.9641729349105,763.3364648084638
1731304379.4785094,814.8778999829605,787.2957770385173,778.5765859388644,799.3785888465618
1731304379.4824152,811.358397260179,788.4924233847859,778.5852522175209,813.4590060382633
1731304379.4856834,780.6133270892651,787.7049953566964,777.9576455196747,797.4596487700983
1731304379.4863207,749.1941171509693,785.0404487125653,777.086451641356,768.1778937622165
1731304379.4875152,746.3075341880237,781.7430578503685,776.2966885956855,751.8905488651021
1731304379.4902265,778.2127227699025,779.0456164395575,775.6796514520063,761.6293225211081
1731304379.4941325,822.032995838685,777.4990739592517,775.1687173285537,786.4499049137813
1731304379.498038,844.2841921900489,777.2190752292131,774.6709706746736,801.4938902668388
1731304379.5003378,828.2958415376054,778.3927632026007,774.1403268474334,789.8464271252232
1731304379.5019438,787.6190586411824,781.2847364979187,773.5797386614369,757.4191953477733
1731304379.5031123,754.8353329159087,785.7566401054578,773.0115158333341,728.332352889119
1731304379.5045488,755.5146537474008,790.9433111445456,772.4524754301982,724.782489790096
1731304379.5058494,788.530332500412,795.5727847333835,771.9066930100705,748.3210924805586
1731304379.5097551,828.1763432075026,798.7542367710182,771.370347480344,778.3976424805443
1731304379.513661,845.8567549426558,800.5685799875697,770.8387362477412,789.7479821426756
1731304379.5175667,833.428084612414,801.8902560926113,770.3098388350408,774.1533074485588
1731304379.5187092,808.9630805482005,803.4635800334511,769.7841691746514,747.8290670444591
1731304379.5214722,800.2282315676541,804.9317934272867,769.2631251941979,737.6267290996485
1731304379.523414,819.9059625975041,804.7485436512823,768.7477266087374,757.6093533183292
1731304379.525378,853.7200129767763,801.3532082105315,768.2383130535633,796.2607656503855
1731304379.5292838,871.8182771005931,794.8855154882075,767.7348458810673,825.664288835452
1731304379.5331895,854.0971970189764,787.9430324847848,767.2372738633463,825.1018527713354
1731304379.534306,808.2764544718598,784.3707636529466,766.7456794411296,799.0475811148804
1731304379.535255,765.3794621520146,786.6986855517721,766.2602209932403,774.1177646880016
1731304379.5370953,755.8555452430146,794.2103233420144,765.7810320964581,777.192544593659
1731304379.5410008,785.5419566852584,803.3077491999378,765.3082238133588,812.7586701240156
1731304379.5422792,831.0406180304894,809.9555922642699,764.8420194967819,858.3722524199593
1731304379.5449066,858.5324837101668,812.2422604622371,764.3828939513837,882.2976983132984
1731304379.5488124,850.9618209310098,811.1001068174442,763.9314781176864,869.035963178111
1731304379.5499032,821.3773396822136,808.8935051074219,763.4880691172275,831.7905315857143
1731304379.5527182,801.2838346521104,807.3072435437612,763.0519624806185,801.620408002532
1731304379.556624,813.5208744774073,806.2730237338263,762.6213586963809,802.2948266442538
1731304379.5605297,852.297907440902,804.5426778280494,762.1947436052747,831.5427533578978
1731304379.5611446,887.2326873363791,801.138904493725,761.7736850903246,863.7602035067915
1731304379.5644352,888.2264680942228,796.4008612502465,761.3648536767495,871.3925010766877
1731304379.5655,850.701362582205,791.8688662133256,760.9772982307763,847.3042229603966
1731304379.568341,800.5377462513761,789.2237953630284,760.612643604703,810.3707566164478
1731304379.5701723,774.6757378623158,789.1841864188647,760.2530720863988,790.3961402915667
1731304379.5722468,792.8229239046395,791.2329046500555,759.8616210286763,804.660980391959
1731304379.5761526,842.5273276592899,794.3173338027751,759.410702217247,844.5261043092137
1731304379.5800097,889.1046440933717,797.7852195039645,758.9348224579624,882.3867472135787
1731304379.580058,902.3476094555798,801.5910856914714,758.5629728068866,893.3064439425596
1731304379.581097,878.9423819754629,805.5737244922075,758.4566430141917,874.1065496907416
1731304379.583964,843.1900834018438,808.6754629627045,758.6184114201468,844.730551866382
1731304379.5878696,826.055148452622,809.1740409428569,758.6777792037168,831.0544120533505
1731304379.5917754,839.8511405690672,805.9832738744338,757.9357120990259,843.432549795711
1731304379.595681,869.0514581283586,799.8646564395534,755.9473019401117,868.5215200464492
1731304379.596694,884.2221192695703,793.2960266186808,753.5123801133825,880.6466653840436
1731304379.598875,867.183348512563,788.9307574850474,753.1844534096163,862.9719800839842
1731304379.5995867,826.7540603870517,787.8989153112578,758.0517208674131,821.3306057196735
1731304379.6034925,792.4659337763534,789.3585504241914,768.7858545874176,780.0863670209283
1731304379.6050894,791.3651610379965,791.5205479450998,781.4243305841368,763.7428309741304
1731304379.6073985,826.3208660573575,793.0466475702358,788.920477843287,778.8265336415617
1731304379.611304,873.0781680123864,793.6427081119568,786.1456439688826,809.9594616328592
1731304379.6122909,898.6673746828717,793.7137738470253,774.026818064724,832.7811344769765
1731304379.6152096,886.8742497713531,793.7459133526402,758.8003534507508,833.1742176637987
1731304379.6177404,850.529041328845,793.9672521650573,746.9750656968914,817.4269829931574
1731304379.6191154,820.5744837905711,794.3560877885016,740.645805649525,805.4620183305788
1731304379.6230211,820.6173664397751,794.7980856146604,737.2115506325697,813.0777032105531
1731304379.626927,847.7748990641219,795.2109469483082,733.1665316538655,837.9949005544098
1731304379.6278875,875.5967826595676,795.5777240187989,727.9358797392539,861.152830662875
1731304379.630833,876.4317534880719,795.9202235798589,724.1683398498055,862.0860657943474
1731304379.6347382,844.4393131287129,796.2633328734852,724.6444125216226,835.818262191182
1731304379.6366055,800.3628067858402,796.6177521022664,729.1264012057113,797.6315432209994
1731304379.638644,774.7581109760257,796.9814336088999,734.1875235301954,771.7968520372576
1731304379.6400068,783.885739435406,797.3481642781986,736.018963753111,773.0160859849914
1731304379.6425498,817.6636486010758,797.7138562752879,733.5398593073216,795.2036940045781
1731304379.6434848,848.7472031950106,798.0779222484174,729.127250410317,816.7660475919967
1731304379.6464555,854.8433449412705,798.4416784613852,726.5511649086419,818.4937418276128
1731304379.6503613,835.9992707888503,798.8064682844575,728.0233691238622,799.501826183452
1731304379.6542668,812.8386906813195,799.1728381344597,732.7843366300166,777.5511780586847
1731304379.6554708,807.494810202122,799.5406808312041,738.2119333608572,773.0286779696935
1731304379.6581726,823.6796970206352,799.9097051227112,742.3394425089986,790.3912291370198
1731304379.6590817,843.2688509166808,800.279751508684,745.5395570668254,813.7243673925448
1731304379.6620784,842.5357130347966,800.6508438271253,749.8462172699101,820.7995962131605
1731304379.6659842,813.8939085787595,801.0230946488671,756.4832135952902,803.360759158034
1731304379.6698897,774.0379893120106,801.3966081388111,763.9391597223711,775.563517406425
1731304379.6737957,751.1608286857827,801.7714456139477,768.6297021677635,762.8062680942903
1731304379.6743362,761.8875939184229,802.1476425545288,767.8122448379187,780.1816372679848
1731304379.6746786,797.0929632698261,802.5252354697907,762.1290134095894,818.5886351650778
1731304379.674924,828.2629759515099,802.9042661831841,755.3163043588419,850.2740971676318
1731304379.6777012,829.5222551294422,803.2847587185823,751.2510074052035,849.9819437670619
1731304379.681607,798.1275486851886,803.6666940362123,751.0721137270843,815.3250479724405
1731304379.6855128,757.1972389757323,804.0500255194169,753.0371196426377,769.9729249517148
1731304379.6894183,737.9629629724064,804.4347619660114,755.070521303897,746.2371942107256
1731304379.6902754,755.0445001232182,804.8210792274157,757.3073642269679,760.2125944783113
1731304379.6932013,794.4993119990038,805.2093319993085,762.0096374988908,799.3766764988347
1731304379.693324,824.8028846490791,805.5998160980267,770.9674878848614,832.9310696888474
1731304379.69723,822.3679720682284,805.992297542236,783.0892174439103,836.5166820252484
1731304379.7011356,790.9104558228196,806.3856850773759,794.6917477433434,811.1015453667546
1731304379.7050414,758.6893016047205,806.7785128432876,802.2708562245165,781.0513162401951
1731304379.7058723,755.8116982163972,807.170605882706,805.0674610784988,773.8693552964
1731304379.7089467,790.0802874173353,807.5650759481733,804.9992671214329,798.6247055234038
1731304379.7098413,840.6978957462825,807.9681840779216,804.168946140541,839.9471284324529
1731304379.712067,874.4844748445514,808.3844393731881,802.5441271844595,871.1071129271602
1731304379.7128527,871.5696410612802,808.807737938673,798.2006641156921,874.8202907744427
1731304379.7167585,840.4756237184819,809.2161653425043,789.9120943876892,855.30043214576
1731304379.7206645,810.830523500133,809.5828622796913,779.393589140748,832.6725840517994
1731304379.7214694,809.2827352156781,809.9084180284028,770.7140016854083,825.0197018230411
1731304379.72457,837.701322538623,810.2561098571159,767.2517193039981,833.3136661982742
1731304379.7284756,871.612015994117,810.7420778699616,769.2082271488736,842.0908995398913
1731304379.730932,880.7689195115249,811.4335279535832,774.1878867693563,835.2260421001514
1731304379.732381,855.1285142004467,812.1766017189842,780.0752160872804,812.6891044746094
1731304379.736287,814.2326781969693,812.4974906402945,786.9553830125134,792.8665234535288
1731304379.7370665,791.5697443509168,811.7766424729465,795.9589646336544,797.5847477614988
1731304379.740193,806.7490282043605,809.7168414000379,806.4367479997726,832.3833269087668
1731304379.7440984,848.8220063147545,806.7586729984665,814.8336862970738,879.0903051225623
1731304379.7447584,884.6667687677511,803.9782284422566,816.8599193886535,907.5323546845275
1731304379.7480042,885.4018054663202,802.4588846717631,811.0262927855891,897.4189030658313
1731304379.749797,849.2137413878146,802.706226068909,800.1123122410394,853.3590720313917
1731304379.75191,802.3679847258688,804.6030527478518,789.1632799875869,801.5683999177917
1731304379.7526634,777.9558144341833,807.7422012823245,781.9639345777167,770.950874704097
1731304379.7558155,789.633330493264,811.5834445542902,779.1146292475879,772.9183466167325
1731304379.7597215,821.4791202743401,815.2284788628936,778.8361762865694,795.0280136430671
1731304379.7636273,842.1062480360716,817.2359603614831,779.0153363343915,812.8205316031742
1731304379.7675328,831.3815924133679,816.0549983780189,778.5440673467059,810.107181633162
1731304379.7682602,797.5659764736237,811.114042334238,777.3828450137219,791.4326966266112
1731304379.7686625,770.5027056687079,803.830912842409,775.9578627318012,776.9704047149056
1731304379.7714386,776.4564996512668,797.5478077244999,774.6231682103847,784.4568666398231
1731304379.7753444,815.5609919426703,796.029459926781,773.4785298603692,813.1538747495839
1731304379.77925,860.6379419778935,801.291661912397,772.451323629967,842.944857491813
1731304379.7796755,878.4045481777122,812.1758469364748,771.4398642907096,849.4323701410872
1731304379.7831557,855.7475397159034,824.6352966276834,770.3933054805149,823.2388453585897
1731304379.783857,809.877175999181,833.5846830331751,769.3142592048204,778.3687473605129
1731304379.7870617,774.5005977091478,835.3461020791663,768.226531632955,742.783402405214
1731304379.7875278,773.4226018979679,829.574118458183,767.1480151132588,737.961577432239
1731304379.7909672,802.7110578388856,819.7287153404851,766.0827314129402,763.0151941098843
1731304379.794873,835.3150228897739,811.550323289194,765.0260774184237,795.9731316819039
1731304379.7987788,843.8089037566156,809.8986335505332,763.9724675707657,811.6620166266397
1731304379.7994542,822.4396763271042,815.6131903066148,762.9192307908376,802.0851805448807
1731304379.8026843,790.6706439197202,824.6219373778547,761.8664619497866,782.6167875591527
1731304379.806393,775.9957894978029,830.3391865542725,760.8152270762192,778.6138497854417
1731304379.80659,790.7775103889792,827.9913556489371,759.7661834324134,803.2151027792634
1731304379.810496,822.1700865788953,817.8423137446812,758.7192426773021,844.5955584431009
1731304379.8144016,842.8690194879703,804.9334993086775,757.6738953003222,873.4946324890278
1731304379.8145928,833.4434767117418,795.5239075621265,756.6296153456938,865.5817922073435
1731304379.8150513,798.1496988685275,792.8432658486006,755.5860388402874,821.213518652554
1731304379.8183072,761.7883781185917,795.1486107644644,754.5429215674122,766.766611318735
1731304379.8222127,750.2515740924365,797.2550210978776,753.5000246226724,735.8116817381654
1731304379.8252585,770.134085635615,794.2207824543389,752.4570611721051,744.2607629112231
1731304379.8261187,803.5921380522384,784.5008810443513,751.4137504566438,778.9109444353949
1731304379.8300245,822.7939106019581,770.4763576892482,750.3699252847096,808.6915715890486
1731304379.830648,812.6508705079963,756.3311238966982,749.3255615671749,809.7284415253914
1731304379.8339305,783.4488857418711,745.250577343251,748.2805970066329,783.8577736368088
1731304379.8378358,762.8203740735815,738.2182972911144,747.2345535712067,755.6009697903835
1731304379.8417416,773.3499968758539,734.9776861948598,746.1862713304741,750.7238248231534
1731304379.8441236,814.0103469814347,735.6248742836666,745.1342905053799,774.8027031789163
1731304379.845647,860.4814826397925,740.906772430279,744.0781798925805,809.5706076640382
1731304379.8462448,883.9785757616951,750.9243948932758,743.0201299734297,829.2774763604408
1731304379.8495102,873.4056454110777,763.7539347273969,741.9648439310441,822.6041004465882
1731304379.849553,843.2456426887502,775.6149137380002,740.9156281693683,801.6640831152571
1731304379.853459,821.0954602235548,782.6948413700732,739.8673258661435,790.9224271011162
1731304379.8573644,825.0405078555343,783.2343378905367,738.802179471969,805.7050212935552
1731304379.8612702,849.3695468450446,778.3309203443883,737.6985230753468,838.5520713071469
1731304379.861842,870.4514986920984,771.0240164755043,736.5566899616596,864.9700020672306
1731304379.8629887,867.7980046246705,764.4875255555366,735.427317356347,863.7374270012233
1731304379.865176,842.3296689874498,760.6199671871739,734.4041043863001,834.678808705381
1731304379.8690815,816.1042663502864,759.7924822357538,733.5444663436567,799.0961964731094
1731304379.8729875,813.663126741707,761.5296024236567,732.7379948475709,782.7020063983318
1731304379.876893,840.9381494655066,765.2792120885939,731.6453608864798,795.3313977975614
1731304379.8774388,879.6000469845476,770.6338757223872,729.8919386480987,823.9226136461158
1731304379.8807988,901.4448134194182,777.0686865763191,727.5787804775525,843.9238341359205
1731304379.881854,890.7496785103197,783.6977795318858,725.8082051811735,839.3468130131513
1731304379.8844275,856.4261393016086,789.3749789124097,726.5380549128273,815.2782826853293
1731304379.8847046,824.4410048949287,793.0499019913366,731.2665656914955,793.1545446936562
1731304379.8886104,816.7501771035332,794.1360874692195,739.2264388357647,792.780097775552
1731304379.892516,833.662955770229,792.7595289952139,747.0108775284817,815.4964970777529
1731304379.8930357,854.0935750932159,789.828795748688,750.8871273271864,842.301203910448
1731304379.8964217,853.989540529929,786.822507940179,750.3118413787895,849.0734721326953
1731304379.9003274,827.9732702810684,785.2389556981207,749.2500526950307,826.947903654414
1731304379.9007194,795.6466625514348,785.8914348917338,753.4092121086718,790.910903369501
1731304379.9042332,786.2236084459408,788.4414868061075,765.3262628293209,768.8617421763719
1731304379.908139,813.6153859149994,791.4987112505893,781.6379545251882,779.5604055800912
1731304379.9086328,862.8841407042244,793.3180691494885,795.2581813928955,817.345521917878
1731304379.9120443,900.0641376901555,792.8027020006111,800.8539782300368,856.0887319167049
1731304379.9159503,898.0926579169986,790.3076437069532,798.982752320437,869.2179794891032
1731304379.919345,858.200654047352,787.7176067583115,795.3813115022052,849.8738230576998
1731304379.9195845,809.5138544465448,787.5637945621816,796.1031029138236,815.4931469054369
1731304379.919856,786.7882629191433,791.5384153405082,802.6762500378022,793.6005602002422
1731304379.9237618,803.4892014091398,799.2860243832536,811.2816465774584,800.2080253989643
1731304379.9242296,841.4161872758983,808.2951676716738,816.4586592831927,827.7835678383015
1731304379.9276676,865.4131146084503,815.0216164842931,816.0153383600548,852.1397428189844
1731304379.9315732,851.7467025535883,816.5875484337934,812.7991592436438,852.5733003120628
1731304379.9354787,807.3158324836786,812.1252653451315,811.6767044107879,828.817908956375
1731304379.93845,763.9596518996852,803.1568992764119,814.3137008337658,800.7971218293279
1731304379.9393847,752.5722487273451,792.9508374616693,816.4861671292907,791.394947262394
1731304379.9398265,778.4169798054949,785.2245487025331,810.6619807317741,806.873618732293
1731304379.9432905,817.743946607005,782.7724125203707,792.0627059365773,831.6683654000508
1731304379.9471962,837.8808012712994,786.5626047930933,763.3055686560881,841.9420238822942
1731304379.9511018,823.7841583531949,795.5460908565572,733.7962105977572,826.1663936975066
1731304379.954262,789.4053682801242,807.0343498060406,714.3030463411229,795.1838472183767
1731304379.9550076,765.2598332024913,817.4034966467958,710.7932065128551,773.4409897396715
1731304379.9554236,773.0088464751194,823.1320915968863,721.6687442922926,778.9452872997294
1731304379.9573152,807.942657768817,822.2453620477273,739.5441851671604,808.5513415684035
1731304379.958913,843.419414955136,815.6719392253174,755.6730763772165,840.5471667265283
1731304379.962819,853.3783671380928,807.3600993268388,764.2324001396304,852.4048484218938
1731304379.9667246,834.2320181016852,802.377185756766,764.5594383083896,839.1304351461976
1731304379.9706304,807.6990988219899,803.7838240265438,760.6728438853178,816.800376281792
1731304379.9710205,801.8312381409127,810.4236240173536,758.4400419621588,807.9550166235424
1731304379.9745362,826.0982613790098,817.408898516186,761.7994789155317,821.1532702331904
1731304379.9761803,861.9905273845935,819.1785710990209,770.2067068300656,842.6162509357678
1731304379.978442,877.7303202559384,813.1549598582023,779.0169878465217,847.7868398933771
1731304379.9823475,855.0870129826799,801.612631057186,782.6462118178123,823.2116318131301
1731304379.9862533,805.7827666913312,790.5396327092885,778.3555450146616,779.8599555255458
1731304379.986617,763.5826600292568,786.1628517096508,768.0435444588745,746.1081906824932
1731304379.9891791,758.3080175421359,791.2508780015153,756.8722155313922,745.8071126872899
1731304379.990159,792.6822870892029,803.4363462039809,749.7497431298319,779.3025311621609
1731304379.9940648,840.4239293268244,816.5514080602602,748.1449745630194,822.8099652554099
1731304379.9950457,866.9383843434446,824.135106539434,749.5544552758482,846.6353183566158
1731304379.9979706,856.096525867054,822.984493165714,750.1310812879976,837.6598466128673
1731304380.0018764,821.880571156464,814.6562734587045,748.4289787388966,808.2616407710562
1731304380.0022142,795.84699576249,804.1380023648711,746.8792106630519,784.9000137694749
1731304380.005782,800.8242665964684,796.6559285420182,749.2154793760942,786.0044230271827
1731304380.0096877,832.2705080366569,794.6639231316269,755.8729029781572,807.2581826097951
1731304380.0135934,862.1925768025976,796.8201849828786,761.886293724779,826.0103593402035
1731304380.013911,862.0380589669693,799.416229106079,760.0223409661717,820.8034184089746
1731304380.0174992,825.9497508071039,799.1577016855672,746.954117379622,789.9190077239289
1731304380.0178113,776.113704566352,795.394401458317,726.9622598119556,754.0102566253702
1731304380.021405,746.4361682809372,790.3469021288968,709.460901948685,740.765082541783
1731304380.0240965,757.4239303786744,787.2687158875551,702.1231023761202,763.5626322586867
1731304380.0253105,801.4010622378324,787.9014792376869,705.3853175638351,810.5986910105369
1731304380.0292163,849.0086621592263,791.0924602211517,712.8888953517164,852.9772478010917
1731304380.032776,871.6576326496169,793.6762329461577,717.1568692293936,865.8683362484014
1731304380.033122,862.340047635922,793.1036496802966,715.3693487150033,846.6380374315662
1731304380.0334082,838.5084011737854,789.8775935889868,710.4105707947813,815.7864574290279
1731304380.0370278,825.2034757351391,787.7331740902779,706.902074571684,799.8117551686415
1731304380.0409336,832.9837936283453,791.0401225811079,706.4599141127944,809.7781732482937
1731304380.0448391,849.5911482883703,801.1498002482426,706.8511026763741,833.1885233612209
1731304380.048745,852.320958494709,814.5348164483204,705.7441315155934,845.7631591738964
1731304380.049005,829.9016494722412,824.4326629645732,705.0488700665067,832.8726930459568
1731304380.0516417,794.4233291799374,825.0856982966505,710.9500091095773,802.3411689147525
1731304380.0526507,772.6860775714745,815.6762682149017,728.7991040822021,778.0256161549646
1731304380.0565565,784.1324636819517,801.2062676119448,757.3283269595602,779.8725103680468
1731304380.0590136,823.8509800415281,789.6329751687679,787.8516517503456,807.08132900965
1731304380.060462,864.9006585816336,787.0597861740803,809.6778019805869,838.1313631340316
1731304380.0643678,878.4549170318271,794.092800137758,817.0943193482061,847.7710411174236
1731304380.064602,855.8995621072086,805.7462172619968,811.8725492704941,827.4961639786276
1731304380.0682735,815.3632955638172,814.8924508694903,799.6689202176395,792.9491239011154
1731304380.0705068,787.3958488391037,816.8192619332917,784.4045314507597,771.7314447651879
1731304380.0721793,791.0183337574423,811.7901296840238,766.0860544516536,781.0017147514936
1731304380.076085,819.1562329725388,804.1026290023698,743.6259657519377,813.2253600431668
1731304380.0799906,845.1446242449692,798.6829893969493,719.2274224076239,842.3180954251304
1731304380.080199,845.0494770154004,797.7786496245504,699.5899693503629,845.395087604366
1731304380.0838964,817.5821092063029,799.8821030636079,692.4027672542901,821.8715952168736
1731304380.0878022,785.2968039836301,801.283030814982,700.9891747547965,793.8540129778959
1731304380.089372,776.1910323538576,798.9632007861818,721.5695152968955,787.7197951372443
1731304380.091708,800.8616041483349,792.8717089367312,745.320074848353,812.3432267527198
1731304380.093931,843.7275751281408,786.1171193993182,763.5259113562896,851.5888014738048
1731304380.0956137,875.1784085170465,782.9334543303506,771.9573014118835,876.7368022059674
1731304380.095796,874.6945846399354,785.7458231040991,771.6457251519705,868.8177017073295
1731304380.0995193,846.3876826575812,793.3738315895636,766.280165740522,833.3805021526193
1731304380.103425,814.6120669085689,801.705082641285,758.8749950200215,796.1405868198124
1731304380.1073308,803.4891304863772,806.3915747371383,750.3523798991733,782.8392873247076
1731304380.1082373,817.4929924191026,805.6411335550025,740.5611906128735,799.3481375195273
1731304380.1112366,839.4058542581628,801.2081158498055,730.0744892884882,828.1568451537639
1731304380.111393,847.0491268282237,797.0959684814479,720.7773105443059,843.9884774612801
1731304380.1151423,833.8250964046069,797.0197202367722,714.818772623828,835.2466170248795
1731304380.119048,814.8493374096739,802.2613761928978,713.2097221094532,813.2369658468596
1731304380.1229537,813.3598263108408,811.0493390737876,715.4921714450404,801.8289665027967
1731304380.1268594,839.4625285140343,819.5613862683516,720.5449338748929,816.8282924856583
1731304380.1269898,879.6563466173303,823.7999534008934,727.359055019361,852.4178280725134
1731304380.1271026,906.0580054320649,821.3793261471161,734.8819299545277,885.450221644153
1731304380.128848,897.8788518629794,812.5990301340147,741.389727684346,893.6563384508123
1731304380.1307652,858.0712934871281,800.5228589495058,744.6401137434151,873.0857329265399
1731304380.1346707,811.9630087363563,789.8832934343159,743.2594412484174,841.0108687386413
1731304380.1385765,788.5617250280357,784.8960691328281,738.2381032300806,821.8868848914254
1731304380.1424825,798.7425897408013,786.8513222508993,732.8570075740965,827.3836126644037
1731304380.1425867,827.4505813800185,793.0590570354894,730.6842125791165,846.7678463180927
1731304380.1459675,846.407054534895,798.2921954244945,733.2717455444276,856.0815613331564
1731304380.146388,837.3977935069149,798.1514082633495,739.713445073354,839.0521748433396
1731304380.1502938,807.3647954986341,792.096474322039,748.4804153154864,802.2944534049325
1731304380.1541994,782.9466973875129,783.8531078461318,759.5427238819734,771.5900196876535
1731304380.1581051,788.8207030813186,778.7668862072077,774.3091870966479,771.8132954156724
1731304380.1581838,827.356007859882,779.9962204302999,793.1604315743504,806.8357642310672
1731304380.162011,875.8396232699546,786.3382628951967,813.1304419047144,855.6275373827276
1731304380.1637654,903.2941567657596,793.2566973546203,828.5514721553983,887.4143679347245
1731304380.1648333,893.6010261367094,796.2720377137236,834.6402771683343,883.8612246594797
1731304380.1659167,857.1245926573907,794.063421788166,830.8251560409625,851.4939346588922
1731304380.1698225,822.0773425121586,788.8735079503502,820.4598557466908,815.5093520228389
1731304380.173728,812.4021830899263,784.1765608845811,806.9476203577965,800.1749929700692
1731304380.173781,829.519567636242,781.9966379403108,790.0868924713063,811.0024223576487
1731304380.1776338,852.5389774065297,782.1368237190709,766.7136257029919,832.382004456861
1731304380.1815395,856.7283301492057,783.2620638935704,735.6929107180615,841.9972194750994
1731304380.1836984,834.7648082802799,784.2471060311998,702.6398294278079,829.652266252677
1731304380.1854453,802.7997708130265,784.716036064964,679.1529030350719,804.7719857645535
1731304380.189351,786.3491471338891,784.8356360677327,675.8614946744801,786.9020813278763
1731304380.1893775,798.2625598727864,784.8971133795512,694.3161969916528,788.1437009670749
1731304380.1932566,827.4794913324353,785.0617080176688,724.434043332552,802.7843319898794
1731304380.1971624,847.8022392708237,785.333576144361,750.0997551501068,812.5316313441272
1731304380.1986823,839.2575017109971,785.6466178661151,759.0078353490487,802.4505445364655
1731304380.2010682,804.7447517242708,785.9458046809955,749.4744119858356,774.2640512460613
1731304380.2025635,768.7685843639825,786.2152540191447,729.5752893311123,746.1983916257061
1731304380.204974,759.0104921137657,786.4658488801422,710.1803796606043,739.2135912063828
1731304380.2049744,784.6112386741072,786.7131970575138,697.8889662786034,760.0762881841289
1731304380.2088797,827.9587165220306,786.965207672771,693.0114384716986,794.7004991491771
1731304380.2127852,857.1490780024723,787.2215635686846,692.8320294924407,817.960561089958
1731304380.216691,850.4208820663006,787.4786361923404,695.9917638179578,813.3026944353509
1731304380.2205715,813.5870499387863,787.7336678825963,703.6708902686878,786.6991797796649
1731304380.2205968,775.9219215159193,787.9860245314197,717.0200879748835,762.8664189285641
1731304380.2214289,766.9546221987582,788.236405509615,734.1681935831514,765.7559618973256
1731304380.2245026,792.6506892561241,788.4856711993635,750.4290807082324,798.7269769238038
1731304380.228408,830.5649805515794,788.7342443038953,761.9046282028758,840.7057164024286
1731304380.232314,848.1189963285808,788.9821376840255,768.9939614265066,861.8158368939119
1731304380.2336,829.0507301703655,789.229232107129,776.0758335145487,846.1878686425348
1731304380.2361684,786.4419226517861,789.4754705936655,787.194985210197,804.0110838420994
1731304380.2362196,751.9061009510117,789.7208677598924,801.5634293876795,763.5846519547247
1731304380.2401254,749.9628814342394,789.9654220728177,813.1659423992894,749.7863872038861
1731304380.2402942,778.4596730749446,790.209083720917,815.1272779859314,765.7931161805943
1731304380.2440312,810.8587771183586,790.4518733862933,805.1415430868674,792.2824016723138
1731304380.2479367,818.4566862225611,790.6940929785852,787.308987305029,804.6027674016161
1731304380.2517653,794.3240191509675,790.9363852022489,769.0131747869203,793.8655201240676
1731304380.2518425,759.2185807627683,791.1793446733151,755.7978613118524,774.3234636721124
1731304380.2557485,744.5072756228386,791.4226680869918,748.5609705058622,770.5130583999336
1731304380.259159,766.191756245009,791.6644854612242,744.8220997598879,794.8583858998045
1731304380.259654,811.5077569004908,791.9020920355068,742.0909427104564,835.0538026103648
1731304380.2635598,849.0600484732536,792.134872879811,739.9987702684343,862.5950557906285
1731304380.2673624,854.0180792762112,792.368072655173,739.7634077668484,855.8315346087072
1731304380.2674654,827.7677526333189,792.6130484200638,742.4050155623257,818.4021136949228
1731304380.268517,796.2705124235824,792.8789716556039,747.941927847714,777.5794850010493
1731304380.2713711,788.7659330082357,793.1566984566391,756.0633917214545,763.5409827249146
1731304380.275277,814.1705035244152,793.407861825039,766.7950582870043,786.0843530102661
1731304380.278025,854.2252709443804,793.5819529930089,779.8249261142324,827.404783411586
1731304380.279183,878.9374062232913,793.673636319974,793.2002985215493,856.7810202519387
1731304380.2829592,871.7573506429477,793.7901883348595,803.4654631015144,855.417235222832
1731304380.2830882,843.6659920733126,794.1439565116269,808.0323316738788,831.1824884960369
1731304380.286994,824.0492879037761,794.8798027018446,807.7690933030665,810.9225421694432
1731304380.2908998,835.4603621927228,795.7647586984447,806.739563635831,816.6583036869506
1731304380.2948055,873.3239372696762,795.9937440551214,808.5227488908615,845.9058628107267
1731304380.29689,908.0908349322585,794.5030801928467,812.3634062685801,873.1221381276991
1731304380.298556,908.7347275508846,790.872289535241,813.2799143356733,871.2040149189736
1731304380.2987113,868.4549682659682,786.0844741451191,806.6737190687357,834.785305907637
1731304380.3026168,811.3378840648847,782.0636147496785,793.3144032880291,785.6950352593852
1731304380.3034344,774.3080379144271,780.0529256164016,779.7272905438473,756.140466853846
1731304380.3065226,778.9582107952626,779.4602396665988,773.1745202376545,763.6658735149457
1731304380.3104284,816.0187764269107,778.5326255588943,775.6335650025177,798.3250912615368
1731304380.3141532,854.6088308407085,776.2635666439386,782.2779170166237,831.9746558477751
1731304380.3143342,867.9185953538354,773.6427554822138,785.7992644699921,841.3106149006416
1731304380.3157551,853.7554708464507,773.0157992515775,782.4945560749168,825.4614541816491
1731304380.31824,833.364828600867,776.0561494536797,774.5835687814532,804.2369447038521
1731304380.3221457,830.6097362195288,782.0655060035682,767.0348597838649,799.6068519053938
1731304380.3260512,850.0105742316324,788.077346656477,762.45705385685,816.6533500199359
1731304380.32975,872.5192907234975,790.7870245760143,759.2051196262619,839.8973665911378
1731304380.329957,872.303877571563,788.8475063478968,754.3057527185678,847.3752623005846
1731304380.3338628,839.9127005544437,783.7923160136309,747.7663276287724,829.9587988757455
1731304380.3346205,792.122034299971,779.0232464970154,743.3826382067977,799.5854704587038
1731304380.3377686,760.1470772513369,777.8391132140448,744.7660878218685,779.8099328858428
1731304380.3383515,765.5956136990367,781.9533290777232,750.4023645810995,786.6494719113815
1731304380.341674,803.2323792649844,791.0920294192475,753.0590533353576,815.2486790513354
1731304380.3453467,844.2484036853206,803.2473707577154,745.1000958438673,843.0691728597566
1731304380.34558,857.8410635098777,815.1269917015834,725.584744775351,847.3590307823652
1731304380.3494856,834.5701155615943,822.9959900905337,702.7639387989376,823.4145727011689
1731304380.3533914,793.2067315501355,824.1880050739561,689.1243465247444,789.0849311603405
1731304380.3534858,765.5324474826044,818.657868610717,692.5197471416845,771.34984987249
1731304380.3572967,771.1361827571009,809.2415793470262,710.4489561196377,785.1027887645324
1731304380.3609438,802.3902566700003,800.035971446601,732.010977168128,821.0477457532841
1731304380.3612027,831.4799461879469,793.9997560202161,745.780811179163,852.7069558629381
1731304380.3651085,833.3994605174147,791.6533231351797,747.2752138380151,857.091564043769
1731304380.3690145,806.0909371241422,791.6855430536199,740.4844276565166,832.415504133924
1731304380.3723507,771.656435433537,792.5196493520409,733.0732327461524,798.7611566937077
1731304380.37292,758.1090954205048,793.2928857131212,729.81626075489,781.5487823067166
1731304380.3732688,776.6211780863938,793.6969174574699,729.6394818526873,791.297711729697
1731304380.376541,812.5395409395709,793.4312166895614,728.0183365663431,815.7076122470538
1731304380.3768256,837.3856919648167,792.2362293161732,721.8584825790095,830.1453076050931
1731304380.380731,832.311112083932,790.5268959500524,712.3489026432228,818.1729326696478
1731304380.384637,803.9284726847324,789.696481704574,703.7022309561916,785.6686432969815
1731304380.388543,779.0165362217862,791.3117722224276,699.5766738021694,756.7191550141694
1731304380.3912165,781.8113368881776,795.616731516704,700.6413365826967,753.9498444299271
1731304380.3921378,812.7616096773962,800.7905471105624,705.0086541789196,779.2034839284271
1731304380.392449,847.2890498837581,804.0365959689145,710.3295009199724,811.097673435781
1731304380.3963542,856.4040145271939,803.887584920897,715.2471322414858,822.3894778966053
1731304380.40026,831.9444432721455,801.6733579492163,719.2736472784359,803.1513881358969
1731304380.4041655,794.6694519266858,800.5479674136366,722.0106972921293,770.1682068435309
1731304380.4077346,777.8167526452407,802.6778776826563,722.9692040070329,754.0457844510726
1731304380.4080715,799.5436114128061,807.0827501242761,722.1026012699793,774.0922421740055
1731304380.408186,847.0207606710266,810.2105360583855,720.1542971388578,821.3718278571698
1731304380.4100816,885.4370620327874,808.8747691173896,718.1690436454047,863.9951953623349
1731304380.4119773,885.1763914371139,803.0071084865632,716.6118623870843,871.1232626032586
1731304380.4158828,845.8422186974426,795.8320685018758,715.1911094931177,837.2162903059314
1731304380.4197886,797.7153023179055,791.348263758114,713.9185904296346,787.2506158735335
1731304380.4233315,778.5392197666854,791.2614545821951,714.5928241096179,758.0447659820405
1731304380.4236944,803.4250176266232,793.7985670264268,721.0250608831633,769.9320793719198
1731304380.4276,852.1149316161725,795.1271833376621,736.9906742382348,811.4095343084157
1731304380.4289467,884.4683139254814,792.116081589377,762.8838447140415,849.1936033278145
1731304380.4315057,872.0785188562397,784.4936359521352,793.7449696136935,855.131833244536
1731304380.4354117,820.6649785660272,775.2055452795704,820.8679825780104,827.625033294874
1731304380.4389286,765.6073185465027,768.9683500979194,836.4604491228126,790.6025418136452
1731304380.4393172,744.8298902369852,769.8623620240216,838.0724517162627,772.4589562331372
1731304380.4431033,770.7559747915574,779.1712363928623,829.427072847556,783.4714355187018
1731304380.443223,822.6054676558789,794.6040106608353,817.1864743529256,809.87028661722
1731304380.4471288,863.6595681185763,811.4118714717475,806.4528281175075,827.746123491551
1731304380.447812,869.1167681239075,824.8088400772187,798.4691992419123,823.8531265887931
1731304380.4510343,843.0241675448018,832.1896705816962,791.675150000164,805.923074865232
1731304380.4545257,812.0569258240648,833.7727355242638,784.3563011464914,794.7148710229973
1731304380.45494,802.1987654872098,831.5526121190458,776.2236142116959,805.1946083644486
1731304380.458846,817.6452675017405,827.742799982663,767.8427357037617,832.8634856298601
1731304380.4627516,838.9961886648489,823.9838089915015,759.138551251567,856.6942023257282
1731304380.4666574,841.5604867251061,821.4889232733555,749.0477576615747,856.2430829337043
1731304380.4666774,817.7407034864024,821.287874963094,737.0763988365762,828.7598154374914
1731304380.4701226,784.3560471133542,823.875768335532,725.3023252452513,792.2683008454306
1731304380.4705627,768.9332525614657,828.5362840411005,718.4204964333641,772.2463645380813
1731304380.4744687,786.7946265218546,833.1944826077339,720.9617569096944,782.6674157215903
1731304380.4780204,828.0808765288342,835.2640309580237,733.6692621354961,816.1474736938079
1731304380.4783745,865.191392373906,833.0759500525194,752.3531400304481,850.2786334263614
1731304380.4822805,874.3657164937093,826.9571289241528,770.6057094630539,864.6383243990925
1731304380.4855423,853.9582015317217,819.2263244082243,784.1183700761798,855.21070567595
1731304380.4857194,824.8525438115261,813.0441669108153,792.6947405661423,835.4599886108799
1731304380.486186,812.7823910970682,810.7315510789583,798.3209922473014,823.783849713952
1731304380.4900916,826.8655114767773,812.5137137998812,801.668399956306,827.6827201890777
1731304380.493997,852.0035360576453,816.4743349415033,801.0132676750027,837.695404872217
1731304380.497903,861.8429703380117,819.8167716661972,794.9683723732693,836.4300525838488
1731304380.5013163,841.9961131703275,820.6647230990851,786.1647930590651,815.3825648417053
1731304380.501809,804.1099356499534,819.219703730658,781.5169184810724,785.0220874121303
1731304380.504408,778.2952717804022,817.5343405882279,787.7582994069362,768.6000900148325
1731304380.5057144,789.1718235908759,818.146523446323,805.7523864463019,783.7610962493941
1731304380.5096202,834.7301087592787,822.538968558293,828.8706766635825,826.788345426053
1731304380.5129378,885.6833503462925,830.3196451047319,847.4650083758611,872.8640608139697
1731304380.513526,906.911205812185,839.3897362959747,856.003654794283,893.1224252039443
1731304380.5169132,884.6610762640456,846.8085039256475,856.8931250359248,875.7848413861459
1731304380.5174315,837.7810254146099,849.922959332689,857.8400378716035,835.025557820852
1731304380.5213375,803.2868627396099,847.4263689343131,865.2489038694633,800.3198030730941
1731304380.523273,807.1171150567274,840.0360879934203,879.3902283088551,794.0883293350006
1731304380.525243,843.567206728062,830.4444678918808,895.060304201754,814.9959473421723
1731304380.5291488,880.5369855565876,822.3567700713238,906.4058344435728,840.3780648419196
1731304380.5325105,886.5959209771027,818.8878426839481,911.3773789381789,846.0776534837486
1731304380.5330546,857.3552655378717,821.0760430950642,912.4619455341411,827.3083447305612
1731304380.5369604,818.9586277286711,827.3731989371727,914.007096571526,802.7787700079002
1731304380.540866,805.908330952959,834.5029610432732,918.8718847535396,798.3758845407142
1731304380.5421383,832.1782327687334,839.276534141185,926.7476958038606,824.409329805028
1731304380.5447717,879.7944885107786,840.3164656411076,934.6464833409672,866.0273146402368
1731304380.5478551,913.8688858730096,838.6219312956905,938.7393898526306,894.9693557927437
1731304380.5481071,911.1136115022965,836.6129926838496,936.4876832291741,892.6477200194571
1731304380.5486774,878.3707913159083,836.3165201736529,928.1683378582452,865.2688463828705
1731304380.5525832,846.3131972695502,837.9720792583129,917.013628572899,838.5448601093598
1731304380.556489,843.6817314294545,840.0068960666042,907.6047088921317,836.3655792010085
1731304380.5603948,873.218089598776,840.2645765260697,903.177193466252,860.9376738350982
1731304380.5610037,909.2139203157918,837.4672197827263,903.4941736417138,890.8124205940891
1731304380.563704,918.8953497971587,831.8986399943642,904.8693019604698,898.6411237523573
1731304380.5643003,889.9566513272131,825.0668630030941,902.5388571264926,874.1939231440274
1731304380.568206,841.242745880754,818.8131849226795,893.8404766843128,833.652989292232
1731304380.5721118,807.6286481858691,814.4344210916684,879.8985110383845,807.3452257163177
1731304380.5760176,811.6934192747981,812.0862955858878,864.4636019652257,815.7187850463007
1731304380.579301,845.5383272267594,810.5499239963896,850.7500412580632,852.8582260534346
1731304380.5798688,877.3306490475669,807.5073630380812,838.95071773702,890.5311213229786
1731304380.5799232,876.8787924515957,800.4829510394901,826.8089389367136,899.316956361845
1731304380.5827725,839.6412845096102,788.2850780559442,812.9619058748231,870.3114690562643
1731304380.5838287,790.3273802802236,772.2503315760209,799.8730293948802,821.0575868516091
1731304380.5877347,763.4516294941689,756.3186170967043,792.964040940497,781.788530280078
1731304380.5916405,776.202867135539,745.3978829813631,795.8270713204552,772.975458141085
1731304380.594898,815.0827161542372,742.5943756689395,805.4665983916075,791.4112322908014
1731304380.5955462,846.9481335215567,747.0028580648235,812.3947488280187,815.0001513460188
1731304380.598734,845.4894024059234,753.8444106180139,806.6772466384475,821.5374650401816
1731304380.5994518,811.6506651210011,757.3155866724866,785.6646673269962,805.873734027953
1731304380.6033576,771.6611002603172,754.3759998478054,757.0250768562494,781.7907776587119
1731304380.607263,754.942474933124,746.6472753354485,734.0927056643238,768.0169667045116
1731304380.6104949,770.4417737744162,738.8680745660511,726.8081498145193,771.0703230428451
1731304380.611169,800.4424576405337,735.1497274987314,735.2330668177175,779.8399317942834
1731304380.6150749,815.9937397206011,736.1353206578015,750.4612942475759,776.259847249223
1731304380.6175995,800.7889270985971,739.2725604790588,761.624151426957,752.4135928934228
1731304380.6176896,764.3970383529429,741.5732789313673,763.0125774103789,719.0332278123368
1731304380.6189804,734.7630968299359,742.1501546760911,756.0150725083722,697.8893840578983
1731304380.6228862,736.0553130919714,742.3650294252066,745.5429286936379,704.2532204746029
1731304380.626092,769.1828408404793,743.8646094289908,735.1716586905308,733.9955985475824
1731304380.626792,810.5036759357953,746.6991868890107,725.4753930839181,766.2141340166189
1731304380.6306975,830.2659264174255,749.393318217755,716.2462180807839,779.5380352374178
1731304380.6346035,816.3058057702979,750.7334500194122,709.3365782408634,768.8355338719072
1731304380.6364646,783.5455192790596,751.2719336482741,708.4683900421553,748.5526964099203
1731304380.638509,761.1412877140432,752.8796103754974,715.7021839848312,740.0179780197384
1731304380.6416888,767.9476213112678,756.7663299037534,727.9811837918463,753.4283933350632
1731304380.6424148,796.9961791967071,762.0221005834034,737.6078535293233,779.4792193289517
1731304380.6463206,821.9227651948556,766.1482070129331,737.1436650411407,797.271100915897
1731304380.6502264,819.5757754615107,766.9534804737765,725.0694681557858,791.6027881845398
1731304380.6526067,789.7227933507755,763.9717808497261,707.4201199786311,765.4277721652415
1731304380.654132,755.7384072999455,758.420713076005,693.6851485846696,737.6840883020661
1731304380.65533,745.9979520790872,752.3376805523203,689.9840830711346,728.5715655214896
1731304380.6572857,771.0421334765521,747.906220947863,694.8396710060285,743.9654428149454
1731304380.6580377,814.6953655111444,747.0288714307266,700.8200903947718,771.0174888644854
1731304380.6619434,846.3594171821063,750.578315896973,700.6313113544416,788.3460339293065
1731304380.6658492,844.9604468903219,757.4455804497134,692.7688359986482,782.9998068474702
1731304380.669755,815.2865225103276,764.4576208053403,682.3847824238348,760.8634062541701
1731304380.6728828,783.1483228285101,767.893379611625,677.0678614305358,741.9823772048115
1731304380.6736605,773.3101187925523,765.8037607716954,681.2984409651646,744.3006997397387
1731304380.6741953,788.8852584116667,759.3459698188963,693.9782130854528,768.9417975584112
1731304380.6775663,809.620351529636,752.0343478578492,710.3493258502566,799.1013177198421
1731304380.681472,810.1259863154452,747.4902334062348,725.8455894495767,813.4943667990262
1731304380.6853778,782.2423117468887,747.35899366272,738.2949954972494,803.4300305028208
1731304380.687524,742.8317304767463,750.7544883391253,747.0417120462919,779.7405720118121
1731304380.6884797,720.8916223714662,755.3557741854148,750.711842473086,764.0043443827192
1731304380.6892836,734.6600572168722,759.1559986974464,746.6158685400852,771.0061091172885
1731304380.6930604,777.016425844666,761.6156931499305,733.0523606172965,796.4671889309079
1731304380.6931891,820.8165195876633,763.6458175942573,712.5883581984388,820.2915278976217
1731304380.697095,840.2131340006533,766.783303429021,692.7420502751274,823.3766680024099
1731304380.7010007,831.0348579256303,772.3013362955134,682.2766673817891,804.4839502758349
1731304380.7040763,813.2478734655193,780.6127810743549,685.2940046877936,782.4650274470969
1731304380.7049065,812.747568279009,790.8379761069901,697.8373319218463,780.6886859445268
1731304380.7088122,837.52395122903,800.5546835755338,710.0953757676436,806.082740947351
1731304380.7119255,869.087454688095,806.2950439112972,712.723680626876,841.0612545073529
1731304380.7127178,877.5533331240523,805.2477250252992,702.4396508222341,856.4794429309504
1731304380.7166235,848.1183846526002,797.4471404800647,682.9796091213317,835.7227300351125
1731304380.7196734,796.1454398863013,786.63363658479,661.6090255784317,789.8676774800704
1731304380.7205293,757.2824905370021,778.5195962634992,644.6069777248714,750.7162141014717
1731304380.7224412,760.0353578841657,777.3280159072791,634.8420366587945,746.7092648373413
1731304380.724435,803.0119898258356,783.1783632517202,631.9362180278978,780.935143297477
1731304380.7283409,855.4782579479739,792.361390324193,633.6633798853993,828.9161500414343
1731304380.730791,881.1476290904415,800.1937843032518,637.4102130654043,857.9426023622118
1731304380.7322464,866.4266119535243,804.1635527597358,641.396642640535,852.3932361040864
1731304380.7352705,830.5098722484654,805.1074404296014,645.4372008986398,824.7650778114127
1731304380.7361522,809.0260281990114,805.8815491427802,650.6651435750501,803.9189795808314
1731304380.740058,824.352541016979,808.828957960854,658.0328073460917,810.7445039316613
1731304380.7439637,866.9234578966455,814.0175435594153,666.5986009132577,841.5277838895204
1731304380.7478693,903.0609541169569,819.4382036331752,673.2788501380667,872.295596673143
1731304380.7496562,902.8786629954213,822.7710262791871,674.7840204519513,879.5251759230082
1731304380.7508674,865.1365618032456,823.1345714786436,670.4254924048174,859.4160583266247
1731304380.751775,818.6749150544492,821.4152787908108,663.2387831597706,830.2485167065696
1731304380.7556808,799.5052614151987,819.1829141169363,657.89769508745,817.0310552451831
1731304380.7573586,822.3161171787025,817.4773158969089,656.7238064591377,831.6420910172546
1731304380.7595866,869.2893250017265,816.6229781033593,657.3121000940259,864.156548995099
1731304380.7634923,904.9385216092841,816.9045863140461,654.4503497987707,891.3809177475545
1731304380.7664642,904.6933277933383,818.9462094818537,645.2062068381327,895.1249725661115
1731304380.767398,873.9000500578899,823.1014949197341,632.5944323706377,875.6368129464386
1731304380.7685215,841.85399573561,828.4947717046164,623.860983643414,849.9208800202456
1731304380.7713037,836.2182953755506,832.9502454205406,624.265455499785,836.8876057995153
1731304380.7752094,859.5973146377139,834.1856655142916,631.9282144018354,841.894275787036
1731304380.7791152,888.0767131142675,831.3055331134103,638.9279527850467,853.5643076747141
1731304380.782061,892.6393351524687,825.2909484748589,638.1792209746794,855.2287995942733
1731304380.783021,864.815996873361,818.1564066304788,629.9489937232303,840.7075878133344
1731304380.7869265,824.7044101324348,811.6484609464804,621.8589472278828,820.4844920182071
1731304380.787387,804.9288370928692,806.6145803812493,622.0956123880572,812.8956438132138
1731304380.7908323,824.2314144874426,803.3596408361129,631.7728496306684,828.0329336809615
1731304380.7922757,872.1880710348804,802.3209080361888,643.2213303530973,858.1896628918994
1731304380.794738,916.7159219951573,804.1705962307261,645.8954294882788,882.9259043294754
1731304380.7976582,927.7241196245166,809.1545698219205,635.2022891777104,884.5085818277926
1731304380.7986438,898.08767904281,816.3693886425382,617.0973014651319,860.9598049008632
1731304380.8025496,846.1219004689772,823.839926122799,604.5267395549055,826.2336768760096
1731304380.806252,799.3812572250606,829.4994598471109,608.2260306142457,798.3179071028369
1731304380.8064551,774.9042213571232,832.292715815615,629.0651043496094,786.4070429960591
1731304380.810361,771.9125914648325,832.5329711881263,658.0313771831081,787.6812356216724
1731304380.8132553,779.1134784635541,831.3629004720894,683.462369447765,793.6556708261224
1731304380.8142667,786.0205322383351,829.8978304829197,698.9509895066941,797.8536480236675
1731304380.8181725,788.5168994068486,828.7093295128658,705.5974905783675,798.5926764003733
1731304380.822078,787.6581924022609,827.8395184486923,708.4273170189915,797.3118231812593
1731304380.825117,786.0190366067076,827.0965941045104,711.690401334664,795.8959257351067
1731304380.8259838,785.2038258763527,826.3145430276187,716.8456989770967,795.2448633019521
1731304380.827193,785.3928423757644,825.4442784179737,723.2909605833954,795.2733522020501
1731304380.8288522,786.0401922334211,824.5183290041213,729.9305952794034,795.5261979912235
1731304380.8298895,786.6285709949888,823.5842017960192,736.1468742476595,795.673804585393
1731304380.8337953,786.9761535099234,822.666229503141,741.9152347548616,795.6466531055877
1731304380.837701,787.1589937771822,821.7636018050927,747.4820571112075,795.5305902111731
1731304380.8416066,787.3165748159557,820.8652124203766,753.0564987805074,795.4247389093003
1731304380.8439827,787.5286082495686,819.9624678000864,758.7011763233413,795.3721271312099
1731304380.844449,787.7994304815093,819.0532198774647,764.3767045947659,795.3649181526473
1731304380.8455124,788.0983936924493,818.1394275474142,770.024564459906,795.3784386879502
1731304380.8494182,788.3990863284477,817.2235841564649,775.614674998395,795.3963230954782
1731304380.853324,788.6935439707781,816.306846938062,781.1480727048228,795.4161281493896
1731304380.8572297,788.9868309509792,815.3890668211684,786.6386211287239,795.4430452651584
1731304380.860046,789.2865703696616,814.469616464643,792.0971356566649,795.4824254891645
1731304380.8611352,789.596844784951,813.548044025515,797.52646548343,795.5364647894799
1731304380.86211,789.9177865839324,812.6242435466164,802.9243578815535,795.6047486820697
1731304380.8628478,790.2478698797029,811.6983111294597,808.2878774742902,795.6861153934054
1731304380.865041,790.5859314721392,810.7703559356748,813.6157322480889,795.7799215379421
1731304380.8689468,790.9318123825418,809.8404098881492,818.9082461313764,795.8862599678062
1731304380.8728526,791.2860053272138,808.9084362529181,824.1663368265582,796.0055908604265
1731304380.8756428,791.6490950521874,807.9743754102494,829.3907044688832,796.1383509668274
1731304380.8767583,792.0214596976945,807.0381780627152,834.581617591086,796.2847978935106
1731304380.880664,792.4032718823677,806.0998123172045,839.7390892898679,796.4450534613266
1731304380.8817132,792.7946287321387,805.159255082774,844.8631107054364,796.6192062574814
1731304380.8845696,793.1956553286474,804.2164820418213,849.953762834174,796.8073750533898
1731304380.8884754,793.6065287247623,803.2714632821007,855.0112057596791,797.0097130875737
1731304380.89124,794.0274481567016,802.3241642996711,860.0356217040754,797.2263802914723
1731304380.8923812,794.4585997504839,801.3745491124085,865.0271740032243,797.4575178309912
1731304380.8962867,794.9001497677278,800.422582711075,869.9859990644296,797.7032463175868
1731304380.8970275,795.3522731011188,799.468231460317,874.9122176854333,797.9636908165587
1731304380.9001925,795.8151935252508,798.5114611168267,879.8059464243852,798.2390149426616
1731304380.9005785,796.2891870456172,797.5522333248567,884.6672989690337,798.5294260917227
1731304380.9040985,796.774502153246,796.5905033684085,889.4963793943137,798.8351127172187
1731304380.9068367,797.2712111385869,795.6262234511366,894.2932771402185,799.1561202444549
1731304380.908004,797.779120528035,794.6593537261252,899.05807437724,799.4922660424307
1731304380.9119098,798.2979481862743,793.6898753966058,903.7908675133854,799.8432675227948
1731304380.9158154,798.8278608842934,792.7177898627691,908.491786494708,800.2091780505447
1731304380.9194436,799.370067332356,791.7430868969379,913.1609793773662,800.5909043033922
1731304380.9197211,799.9266776789875,790.7656871764917,917.7985388212938,800.9901608926004
1731304380.9224336,800.4990608229101,789.7854087758765,922.404401121152,801.4081819076608
1731304380.923627,801.085094948266,788.8020381713641,926.978328582426,801.8434135084002
1731304380.927533,801.6778398404092,787.8155412575167,931.5201114189363,802.2901900132928
1731304380.9314384,802.2694466883006,786.8262934511146,936.0299866811081,802.7416224049622
1731304380.9319446,802.8615689738045,785.8350198091447,940.5089530028903,803.1980878644758
1731304380.935344,803.4757637040151,784.8421476408342,944.9583854852821,803.6764088466468
1731304380.9380307,804.1487495889946,783.8467334795666,949.3785823759273,804.2072925928741
1731304380.938309,804.8993270975513,782.8459597794156,953.7669395033765,804.8091800206672
1731304380.9392498,805.6774562900355,781.8366889856867,958.1179127918892,805.4452254184122
1731304380.9431555,806.345847814128,780.8195455868438,962.4271955998846,806.0035666013848
1731304380.9470613,806.7639540163386,779.8029471466618,966.6996296382383,806.3604593119045
1731304380.9509673,806.9880888431202,778.8011615057746,970.9543020049064,806.5444114763767
1731304380.9536276,807.4507785311648,777.8213043656999,975.2156847365638,806.8966703043274
1731304380.9548726,808.8309677670867,776.8435521940795,979.4851768834733,807.9898459063429
1731304380.9571743,811.393353747686,775.8144710915242,983.7084039472462,810.101884278675
1731304380.9587784,814.0520586655045,774.6809776136834,987.7801279246164,812.4194793538006
1731304380.9626842,814.1511001264395,773.470752841295,991.6293502182864,812.7677097963191
1731304380.96659,809.2224202039647,772.3678032043981,995.3667422744543,808.9499042294283
1731304380.966862,800.7607596091226,771.6790978412492,999.3611319986566,801.8642357878771
1731304380.9692245,797.1159844731791,771.633852632264,1004.0347229441148,798.1563979052722
1731304380.9704957,810.4284714807072,772.1496875840367,1009.2861626179075,808.1663575922628
1731304380.9744012,846.2232490370637,772.8491409388306,1013.8389038295855,837.5273675953268
1731304380.9760394,893.8435985165052,773.4184224641302,1015.2167073043461,878.527123965928
1731304380.978307,929.8753943014867,773.9990109204725,1010.7636527397547,911.4887792502097
1731304380.9822128,935.6930203717625,775.2073438715976,998.8225296928451,918.5779355779312
1731304380.9848216,914.3387308489474,777.6975285486868,978.5330176737409,899.11192655485
1731304380.9861186,889.9096015703076,781.5081919937016,948.6674427562245,871.8328310103896
1731304380.990024,887.967005098474,785.5667982071627,908.1051008071311,860.5958703681014
1731304380.99393,913.3195006936965,787.7856300834509,858.7287026344154,875.0501218224715
1731304380.9949048,944.9170338088525,786.0565957859244,807.493838804739,902.8653825401504
1731304380.9978356,953.1613708755588,779.8430018960219,764.1311477224699,920.3094811643127
1731304381.0004184,925.437793811131,771.2644855405014,735.4008893456034,912.3019126619058
1731304381.0017414,878.2772936236474,764.5174502937716,720.8233077758252,885.1316566867345
1731304381.0017793,845.5703688302815,763.6322128616298,713.7913515301116,861.2547257763124
1731304381.0056472,852.1236836015418,770.0521468378989,706.9848209438,860.4549670594636
1731304381.0095527,893.9687010912429,781.8516678234196,697.1694116677802,882.9868963241452
1731304381.0134585,941.3930862216484,795.1446411486625,685.5386178210736,908.9512058919948
1731304381.01377,962.2603437980392,806.4947591219933,674.4021997898893,914.9049454063911
1731304381.0160153,946.8170415197721,814.4696949092188,664.34737082169,894.1422559185094
1731304381.0173645,914.1286789136741,819.3765481959683,654.71277691478,863.4474379937677
1731304381.02127,895.3149169848073,821.7978410266551,646.0455798481152,850.0183906358254
1731304381.0251758,907.5558667935678,821.4573824066086,640.8712179455873,868.9090067025128
1731304381.029081,940.085280354481,817.4808455910866,641.1168247259125,909.6055009973106
1731304381.0316122,963.3208700102629,809.7348390766924,644.6211483914814,943.0032745375986
1731304381.0326352,953.4264936801378,799.8622725073501,644.8486033986524,943.3443768061836
1731304381.032987,912.3869628435276,790.8546700621123,635.1963205810969,907.7537673697786
1731304381.0366964,867.5035446178799,785.3273157119029,614.6307893168225,858.3178778098962
1731304381.036893,850.4994756796024,783.8721640115384,589.4381869312206,825.508034489218
1731304381.040799,872.4708753942485,784.8582216019826,568.9225221261538,825.9310020877849
1731304381.0447042,914.5936948404491,785.8706313469323,558.4085018746283,851.3424081198464
1731304381.0472093,942.5710473974304,785.6711900764068,555.6150901634006,876.8997691344694
1731304381.04861,933.8154836669229,785.1640987140221,553.5077156978743,881.5643582998907
1731304381.0515006,895.4092262396674,786.6042971573606,546.8277707744774,864.11185985657
1731304381.0525155,857.8285819126343,791.6133981569665,536.3303532992832,842.1403496123444
1731304381.0564215,849.4104933404733,799.5248848211758,527.2341667233609,835.7102194690287
1731304381.0603273,872.8326954880129,807.4149673000845,523.8641495325319,849.8725522069807
1731304381.062806,903.1912295811311,811.8911403643336,525.711964048254,870.6614571381513
1731304381.0642328,908.9321329816876,811.2764982908271,528.4264583903829,877.2241242030784
1731304381.0681386,877.9276739389769,806.5109283241711,528.5230992079959,859.2931199672051
1731304381.070366,827.4071623255625,800.2206955274738,527.2416763349029,825.5129610649637
1731304381.0716136,790.2872137380102,794.9201093302482,529.821004405225,796.3688182337369
1731304381.0720444,789.385440154945,791.7893196252946,540.6289918974476,787.9524635350151
1731304381.07595,820.0321749772678,790.646752230358,558.460873365512,799.6520819849328
1731304381.078403,854.5359933584234,790.6586814877705,576.4661070333123,815.4776698304793
1731304381.079856,864.6771798273369,791.0328354761931,587.1998999242722,817.9657203242886
1731304381.0837617,844.0722023754792,791.3348758347969,588.5578525248828,803.3571445555522
1731304381.0876672,812.2256466431448,791.4708004006427,585.3040667165288,785.1212724424438
1731304381.089231,797.0156803825304,791.5183498266391,584.83746063234,782.1467257359722
1731304381.091573,810.3832563348831,791.569716896994,591.1314374687511,801.1877330560496
1731304381.094,837.8171112013473,791.6622187856398,602.2576695812455,828.9537184955853
1731304381.0954788,850.5722193964352,791.7851630620049,613.2203578584578,841.6214901228029
1731304381.0993843,830.3173359804612,791.9135699194125,620.8452158227868,824.5216961216955
1731304381.10329,785.5191376317463,792.0318458336883,626.0684646588694,785.5018750715162
1731304381.106531,745.9041547811441,792.1381765851371,632.068001869136,750.3551329984131
1731304381.107196,739.4365950647822,792.2378330395846,640.7394497356597,743.50313160427
1731304381.1080964,770.2825520604497,792.3358762832454,651.0884177769099,769.1483423370183
1731304381.109597,815.2666691467607,792.4341568753645,660.6831468337119,807.7047335822795
1731304381.1111016,841.726769897566,792.5320328175538,668.2361800512664,830.4017481754144
1731304381.1150074,832.8659906792738,792.6282364383374,674.5890715237811,820.9905930204375
1731304381.1189127,800.4662177183747,792.7220680852254,681.2172221352923,787.8399797611545
1731304381.1228187,774.4192388069475,792.813554479722,687.8589133213469,756.7798186500146
1731304381.1251938,777.237277448141,792.9030637337188,691.7512748715473,750.0666092908788
1731304381.1267245,804.5585612067828,792.9909286851082,689.5268262609513,768.2897408472201
1731304381.1269617,828.2474618637348,793.0773101076499,680.3445717253987,790.1092413179165
1731304381.1306305,819.9515031808248,793.1622471831793,667.4915221431492,790.2490437514298
1731304381.134536,775.6941527388745,793.2457522357575,656.8072823737475,761.0239089662377
1731304381.1384416,721.0457455250702,793.3278595348447,652.9954782787337,719.6861102839432
1731304381.1407907,692.3594714120185,793.4086239539945,656.7432928615967,695.4869337342104
1731304381.141448,708.9460117915428,793.4881124629474,664.8314984419927,706.727809284213
1731304381.142347,758.1395809779629,793.5664229856636,672.835570429554,745.9812702066132
1731304381.1458268,804.8855655004401,793.6437187496925,678.0690088786966,785.2586649257041
1731304381.146253,818.3343028441609,793.7202183837006,680.7140539836479,797.4232040521962
1731304381.150159,794.7319149147638,793.7960819084932,682.9004618293552,777.2543107984624
1731304381.154065,758.7544336671518,793.8712207537272,686.9304197932786,745.2185351525233
1731304381.1563878,742.4796802469184,793.9452142451215,693.9289660421226,730.3520159035538
1731304381.1579702,759.2303089601478,794.0176006261935,703.4437323274589,745.8892763467743
1731304381.161876,793.6489976948118,794.0886176924537,713.8397597487833,777.9679118250056
1731304381.1646922,815.7354913558545,794.1599114897705,723.0709005030575,797.2563952977855
1731304381.1657815,806.5916964285337,794.2341388282306,729.4521254209743,784.0118417409507
1731304381.1696875,774.2369059919711,794.3125732535536,732.2701389422,745.5365790538855
1731304381.171985,746.6546312940958,794.3915462560578,732.2312776690917,711.2889943633874
1731304381.1735933,748.2972816587192,794.461352500968,731.5859637581789,709.5335126855327
1731304381.1763654,779.657935803079,794.5124798605046,733.4849941327328,744.6121112186484
1731304381.1774988,816.6607724564374,794.549825818771,740.4138276159597,793.2692172691266
1731304381.1814046,830.3078573112476,794.604832740791,752.5708809404109,822.8565222371847
1731304381.1835575,810.5019293673164,794.7251547405541,767.6879949948715,816.5924774705252
1731304381.1853104,774.4615274711836,794.9271168795158,782.8120582734102,785.6222803938505
1731304381.1875818,752.6348010058164,795.1308567349141,796.5618665103929,758.6444315885028
1731304381.189216,763.6242067868827,795.1498834305339,809.5818186345948,758.1962069942253
1731304381.1931217,799.0039849268617,794.8237208815915,822.6052485504338,783.2366492435486
1731304381.1970274,830.7801273497408,794.2946247338779,834.144993692516,811.8214576294455
1731304381.2009332,835.1090207995964,794.2295538894072,840.4846017712468,820.5878591286735
1731304381.2024226,812.1326651308293,795.6300083124046,838.4711452211441,804.0829726236528
1731304381.2031786,785.2932742029519,799.0760899240526,828.7433883531223,778.0677732520511
1731304381.204839,780.9703486096008,803.9288302056387,816.3082422907232,765.1212288129143
1731304381.2087448,805.623181426059,808.4418209209522,807.5348328625255,775.5058523639213
1731304381.2112827,839.4494112292683,810.9732852958808,805.787442849605,799.3139283542595
1731304381.2126503,851.9682770687523,811.1896043740409,809.3355460209436,815.8088272334453
1731304381.216556,827.1103545408113,810.0557962905267,813.4982661830478,811.5633861888413
1731304381.2187755,777.4746638407503,808.7117113092366,815.3579994006819,792.0336813690716
1731304381.2204618,735.7784352582556,807.4569880064373,816.8334893170834,776.8628271876803
1731304381.221288,729.8013720570569,805.8489218751947,822.9822097516632,782.7840870125755
1731304381.2243676,760.7268146383655,803.6683329393371,836.6599836906388,808.5002682277452
1731304381.2282734,802.3985450954308,801.5271198464084,854.3954850546522,834.6091950048627
1731304381.2321787,822.2170720732964,800.3018898208694,867.6799452918096,839.2350290386546
1731304381.2343724,806.8739280371539,800.0433723319028,868.9546780586024,816.6576281443805
1731304381.2360847,772.3624673949121,799.7974829599485,857.0743701626341,783.3118804241878
1731304381.2399905,750.637459359991,798.7509385974844,837.5478732292264,765.7417567668899
1731304381.2401533,763.9440354150609,797.39641073979,817.8769747742518,779.829223537164
1731304381.2438962,807.1096880041366,797.1817925113395,802.6413849438793,817.6595582790947
1731304381.2461998,851.354510711607,798.8401050391308,792.4454416500905,852.4434231909421
1731304381.247802,866.4691730360352,801.2921368413678,786.5251615689184,858.1656188050545
1731304381.2499695,844.2727947949271,802.5540213457265,785.3622369273445,829.4883283238792
1731304381.2517076,805.1042720998269,801.8347122721623,790.2700303851333,786.7899324674671
1731304381.255613,781.7790414002069,800.5232345941764,800.5400443398056,761.7431959673434
1731304381.2590184,793.1996156623972,800.8482491973251,811.6019744783605,773.5634080976996
1731304381.259519,828.9942226981253,803.5244848547994,816.9775467576172,814.0921324398292
1731304381.2634249,858.5071135091566,806.8344959146742,813.1551842989132,853.9246047751534
1731304381.2655663,857.2273640397863,808.058437885132,803.2195613139511,865.2352142943346
1731304381.2673306,828.2150579398858,805.7459774514621,795.4423969915941,843.0583713833008
1731304381.2712362,799.7480474504563,800.690903467005,797.2605357846948,807.8330798730846
1731304381.275142,800.9635423446541,795.0524564595421,809.4754610977953,787.6434523738519
1731304381.2778838,836.519203254069,790.8314416032371,825.711624369941,795.3361319780836
1731304381.2790475,882.009834070386,789.0109699305991,837.6135490393337,819.2667797449358
1731304381.2811172,903.8551998837652,789.4952108058172,841.2153402007596,834.4767035155029
1731304381.2811632,886.8195017621807,791.2386000252496,839.174891307923,824.339222758373
1731304381.2829535,846.4260755330766,792.4018719710053,837.5225636953613,794.733649977683
1731304381.286859,816.2558712146765,791.0330885246389,840.2114399220126,769.2776219232537
1731304381.2907648,820.5898011921025,786.4499983531493,846.0434403329928,769.6161094166192
1731304381.2946706,854.7454479778764,780.4290744278513,850.0393627913645,797.1227647234298
1731304381.296749,889.2784879210756,776.898799622107,847.7003136892474,831.5137068817529
1731304381.2967603,894.6905066508165,779.8615615123925,838.721708577929,847.8453288123079
1731304381.2985764,866.2332887355223,790.8259118831438,827.489718425922,837.5501057417094
1731304381.302482,828.1276527253793,807.5622349528124,820.1556793327103,815.3784547573558
1731304381.3063877,813.5530984334115,825.0025938312799,820.4972205533762,806.1753324124088
1731304381.3102934,836.9637715961156,837.557265484697,827.5525388910074,822.9738119581075
1731304381.3123572,881.6123728206614,841.3574078196414,836.5929817421727,855.3650390003857
1731304381.3141992,912.3746993020947,835.404891776561,842.4636594989552,877.9746504427509
1731304381.3156142,903.1668259544169,821.5942612186576,842.7537928426461,871.585935183426
1731304381.3160343,856.8483447768598,804.031565279271,838.798595831194,839.1630045916734
1731304381.318105,802.164758164741,787.8024594393028,834.286209736807,803.7887682118867
1731304381.3220108,770.7686899235371,777.1366642660959,832.5984664146051,790.4181483893124
1731304381.3259163,772.9501089784397,773.4675175222167,834.3784679395568,806.1607372785339
1731304381.327954,791.5340712768973,774.6702779206572,836.6762737557517,834.9132622567778
1731304381.329822,798.6646707591007,776.5099604802111,834.5350293474746,850.8358484429298
1731304381.3337278,781.1842969950467,775.6965133026471,824.589279608695,839.939372901782
1731304381.3344796,752.7403488099543,772.3025626262016,808.4215633340021,812.0295755615715
1731304381.3376336,741.8011481116858,769.4542980615129,792.7329745124638,792.7778393795245
1731304381.3415394,765.6407444232876,770.395559117659,785.289053216439,802.1544104181685
1731304381.3435512,812.9243190658972,775.4009463298479,789.1391779097329,837.0615473467803
1731304381.345445,850.4899201829181,781.2885577489873,799.6470383894944,872.6366114190495
1731304381.3493507,849.3000234729977,784.0128864533866,807.1478011518991,881.2313537616628
1731304381.3509517,808.2302707617998,782.0356005558789,803.6886161650602,853.7839145577102
1731304381.3532565,756.0859105630452,777.5120332337872,788.9388160982836,806.8469877363295
1731304381.353345,729.9948085025935,774.3983536866835,770.7814384162432,770.2359389421749
1731304381.3571622,747.194316838742,775.3358523141729,759.9923965975015,765.1062541758126
1731304381.359148,792.3077761007738,780.0208078295265,762.8311928945636,789.014242901009
1731304381.3610678,829.9654033031261,786.1406661870813,777.0166230468385,818.8654714935151
1731304381.3649735,832.7518112302347,791.6271105672754,794.050621827698,829.1764798211408
1731304381.3688793,802.3978762487217,796.122781208526,805.8588045267711,811.5569896659655
1731304381.37221,767.5369499512343,800.6762144794747,810.2090229485697,780.3690088408209
1731304381.372785,760.1466950551408,806.3773873832508,810.5649486664934,760.3015677253275
1731304381.374745,789.7904168014616,813.2788169749659,811.1184995458073,766.0237227191602
1731304381.3766909,836.1057022272437,820.250152898629,812.069466456913,790.4716413015768
1731304381.3805964,864.9687464096078,825.4730462902817,809.6548388735903,811.1757903028542
1731304381.3845022,855.0448413811283,827.0897302359988,800.6057842998549,809.1447612946248
1731304381.3858688,813.9069422797007,823.903989542981,786.4105303312688,784.6036120569128
1731304381.388408,771.7088857477429,816.1457018541514,773.0764097654188,756.7300605130747
1731304381.3903418,757.8917177220892,805.8806277331176,766.4941923117265,747.8138072516771
1731304381.3910754,779.108703271592,796.3903171234548,767.696598433166,764.951495613459
1731304381.3923137,815.3491583655331,790.4864495754512,772.4116842062117,794.3431183015938
1731304381.3962195,837.1754586893783,788.8636005792353,775.3467061063268,813.0107261625523
1731304381.400125,830.2803715504211,789.9423206476922,775.2459828758869,808.3589023110328
1731304381.4040308,807.1374460599391,791.5151627489065,775.9737541859696,789.0868762512875
1731304381.4059389,795.5799091519972,792.8066660655234,782.5170105409279,777.8156101959606
1731304381.4079366,813.6067428118167,795.0312702900954,795.5981010706431,791.3091733010776
1731304381.4099407,852.1101395597947,799.8683644983649,810.0007778755397,825.1243867357069
1731304381.4118423,880.9802639968384,807.2754182795411,818.3324110701063,856.0800188812354
1731304381.415748,874.0204780297639,814.7789862274831,816.9559541109136,860.8699460435446
1731304381.4196537,831.7546163293574,819.0430536898427,808.9047628000783,835.4145140816681
1731304381.420786,782.7179584634948,818.3414338600649,801.3836586483908,798.7647766467148
1731304381.4215355,761.6858416278723,813.6808153290003,800.1872463515557,778.0678931557903
1731304381.4235594,782.3370745937555,807.650983674224,805.7221020882574,786.7258925510253
1731304381.4274652,826.5270913721417,802.2896093741605,813.5019585979053,813.6813998171162
1731304381.4288058,859.0794551215134,798.0635486501358,818.032748191246,832.9279622019967
1731304381.431371,856.3680567322534,794.6889321828522,816.5286089335314,825.7515418533051
1731304381.4352765,825.4170808845633,792.5002662141546,809.7519450248586,797.2564432701081
1731304381.4371326,797.5712650858408,792.6287833343575,800.2004940070943,772.8530778318801
1731304381.4391823,801.742265340455,795.7711213079383,790.0040758657336,776.9377253829421
1731304381.443088,839.5926752471443,801.0421137945657,780.4557403863806,811.4189826812069
1731304381.4469938,883.6133063533248,806.3676341113024,772.8937281550429,852.5341408720321
1731304381.4476712,899.6520141829733,810.1380342222803,769.1239726147301,869.2471910585263
1731304381.4508996,874.8411610644283,812.3673044032995,770.313670635385,848.2418439550366
1731304381.4527297,827.7789496852175,814.0624864000567,775.3843562990315,804.8883399566515
1731304381.4548051,793.0916493814782,815.4528080262149,780.9491211665877,771.2261834242148
1731304381.4557033,793.5573412515283,815.0669192534601,783.4649864941703,770.8243892011128
1731304381.458711,822.5194502989278,810.8772738872769,781.8649792946197,800.7733240774733
1731304381.4626167,850.424965594546,802.5595413014913,778.1515569848659,834.9680490788552
1731304381.4665225,849.717676640827,792.5874756456386,775.3034217918865,845.5728711820378
1731304381.4665363,817.6579752595692,784.8617384810636,774.5027182294205,825.0976494414327
1731304381.4683266,778.5027136011375,781.9386386221968,774.315708426501,791.4304892557533
1731304381.4704282,763.387369189377,783.2893045025525,772.4085001833317,772.3527406801227
1731304381.4743338,784.5462472594377,786.0266011776513,767.8802771083489,782.7449878757749
1731304381.4782395,825.1319201671427,787.260759154509,761.9393100181422,813.164674665089
1731304381.4821453,852.9351341637126,785.9717036074196,756.5798789134336,838.5452014325238
1731304381.4839234,846.5861425662777,783.1041804394874,752.916969557264,839.1304919040501
1731304381.4854016,812.8095115644454,780.3986674813269,750.8839530901464,816.3052264831276
1731304381.486051,780.956897525218,779.3453513147937,750.2995979465798,790.9006932585535
1731304381.4899569,779.4477557880119,780.9465312389317,751.7774408164423,785.9480990038952
1731304381.4906206,812.8963623288854,785.8144614517631,756.1583185623645,807.9087282809103
1731304381.4938624,857.9453792388603,793.8980217730689,762.8806734140784,841.2275035594729
1731304381.4977682,881.2417469766651,803.9050039565722,769.1833312408372,860.5780387971915
1731304381.4995203,865.702845607018,813.1957752292185,771.5504015134956,851.3431723715559
1731304381.501674,824.3596446875589,818.7216781952898,768.5200252633858,822.0565534280056
1731304381.504267,790.3724515042823,818.685585178516,762.1451136774572,798.3404437937965
1731304381.5055797,790.7087410797358,813.863187036551,756.2556121168452,802.5068478770842
1731304381.5094852,824.5641108608064,807.557932122925,752.8203714824581,835.0472331173303
1731304381.513391,864.2513079638047,803.9702760825663,749.9988422056425,873.3711820138162
1731304381.5151174,877.9606228048283,805.8380868592939,744.1732724730291,889.2804542994114
1731304381.5172968,855.6161698265158,812.8229083646758,734.2544760747663,871.1027426631558
1731304381.5212026,816.613344141695,821.7544668096612,723.8790081567043,832.4917172484339
1731304381.523132,793.5604850510317,828.6394965183658,718.7933246954713,801.0206720346213
1731304381.5251083,805.8773449228131,831.1128684724813,721.4072761404041,796.2731762959867
1731304381.5255375,844.7096777819118,829.677783363159,727.622808930295,815.3158912204879
1731304381.529014,880.6905686327635,826.9281845668642,729.3672978843341,836.9243950339652
1731304381.5307145,887.5905325295628,825.3803809793728,721.1400280920307,840.4833700282682
1731304381.5329196,862.6750118471649,825.5347668099201,705.0214224999228,823.6401687581131
1731304381.5368254,827.7572495322715,825.6118966850609,689.646749755213,804.014826558548
1731304381.5407312,810.6850212340282,823.1481702416494,683.7902482039311,803.6423328895036
1731304381.5419974,822.7960976663195,817.1870814002843,689.8572122629581,829.4145630443945
1731304381.544637,850.8597157895938,809.2851809037012,702.5876146027668,866.2302741759272
1731304381.5463111,869.6112507483657,802.47775958583,713.7183379505783,888.7354209969458
1731304381.5485425,863.6944844956702,799.0665407001333,718.3724312320559,881.7529977094639
1731304381.5524485,840.4052470581132,799.1318350966832,717.8546806806959,852.3724936629882
1731304381.556354,823.0339264838364,801.0060021488848,717.000199517402,823.9929077653704
1731304381.5602598,831.0316105657004,803.1185636522273,718.9337830466976,817.6339767087894
1731304381.560455,863.6449332218208,805.39695138129,721.9390862198817,835.7837853381811
1731304381.5608628,900.1261910685525,808.9732024354214,720.8575604934417,861.3186941347443
1731304381.5619082,916.0037292372485,814.6473873138706,711.4538270854885,871.750612402907
1731304381.5641656,902.3147660404542,821.6512380134212,694.0006588677088,857.2820364903872
1731304381.5680711,872.4946675117562,827.7987722243837,673.4062440160611,828.5434398504016
1731304381.571977,851.2404018784393,830.7741800125619,656.16930736599,808.0044801974674
1731304381.575883,854.0414951561962,829.433602134584,646.7599643582047,811.8101923565732
1731304381.577505,874.0476634775869,824.2212257869378,646.0274707278476,836.5068530466152
1731304381.579728,887.5035983233979,816.6581960474011,652.2225696650423,861.4613895659231
1731304381.5797884,873.827802828509,808.5053272703228,663.0572241435868,865.2865876414062
1731304381.583694,833.935202868656,801.2190849494353,676.7630255207476,843.2291230593129
1731304381.5875998,791.3396219237229,795.8891584243122,691.5666047259713,811.5213191839414
1731304381.5915055,774.4892958836062,793.3693371578464,704.801510893154,794.9923208086815
1731304381.593102,794.2204033855407,794.1597854201449,713.2301959529892,807.556357898737
1731304381.5953722,834.4182134104534,797.9440637786843,714.7883542194598,840.9301035196394
1731304381.5954113,863.6466288135604,803.2652816382607,710.3083386627667,870.5738009595443
1731304381.5985932,859.0606272744177,807.974377764023,703.4778095604279,874.4287273231399
1731304381.5993173,824.1448159322828,810.4151918671284,698.6660345177171,849.9100065165316
1731304381.6032226,786.1472044981223,810.4031936208285,698.0717044817491,815.6436679958531
1731304381.6071284,774.5936501331097,809.0130522032181,700.295070843321,796.2350131957156
1731304381.608699,797.547352320864,807.2960963888642,701.3689991888589,802.1710443648329
1731304381.6110342,834.94669350281,805.1752663525679,697.4675687556231,821.5087606924724
1731304381.61494,855.0194711667326,801.5944585027462,687.4497007408164,830.6099907240176
1731304381.6174586,840.573108345355,795.6789569303523,673.7446249161753,815.0426316432619
1731304381.6188457,803.2823449597943,787.6923464905817,661.2838453386522,782.7872446759822
1731304381.6227512,773.9845868825887,778.9705834077772,655.2395974987097,758.2717017214854
1731304381.624296,777.1873830120799,771.1525858921879,658.7026098054882,762.1282209747405
1731304381.626657,811.0852113635797,765.5652472615369,671.2297547149552,793.7045546402129
1731304381.6302896,849.4166508445427,763.1246552746574,688.8134103889008,830.9679930061727
1731304381.6305628,863.1804765439653,764.3710077318509,705.4719543625735,847.8647339941649
1731304381.6344686,844.066846090515,769.1732934996406,716.1294827091085,834.7916834099262
1731304381.6363237,810.4202429935419,776.244607041171,719.5482194172955,805.3760724685867
1731304381.6383743,791.0668300567995,783.1372668964452,719.3500026032926,784.135416137505
1731304381.6398928,800.5942217793588,787.1717118401907,721.7952693944292,785.5505593604387
1731304381.64228,826.8884121115369,786.9074894954412,731.3308504655505,802.4135062727547
1731304381.6461856,841.6851089030283,783.077389883073,747.2486482713483,813.461694129713
1731304381.6500914,825.4598281186337,778.1183243980815,764.4626678660977,803.5212111793122
1731304381.6539972,785.5129537125695,774.5207094349798,777.9167316476133,778.2419032907166
1731304381.655189,751.6016449919688,773.2787126271245,786.5748384892129,760.1733168860974
1731304381.65549,752.3523882608433,773.6943388666645,793.1930415545401,769.361486527678
1731304381.6579027,791.6803653223315,774.5405350693779,800.2917318968044,805.1268731858214
1731304381.6618085,844.3142312345325,775.2933483742236,806.6880740690381,844.5955443120928
1731304381.665207,874.1479695992605,776.2009132063303,808.3914031789635,859.5013617732932
1731304381.6657145,861.3338048498057,777.3841883523816,803.1053772790643,837.9645562893679
1731304381.66962,817.4149005972308,778.3548799365788,793.7490051303987,794.1649973879378
1731304381.6710868,776.8906716111038,778.8060618470487,787.2098855479435,758.41544234349
1731304381.6735258,771.3929230974267,779.7768648486376,789.083477854451,755.2115013347923
1731304381.6740544,805.9281076454475,783.4161077632539,798.9530133781465,785.83923409574
1731304381.677431,855.3635299938209,790.865723894737,810.3779586084812,828.4498633325466
1731304381.681337,884.0034704943794,800.0642440857357,815.764485942629,855.1178145937387
1731304381.685243,873.0724070199806,805.9925350333933,812.2304120035333,852.5058844168707
1731304381.6866837,834.4728535001274,803.935760764439,803.7287920937972,830.3041362544061
1731304381.689149,800.0830394462953,793.3939419127977,797.6841511877064,811.520676968467
1731304381.6929195,795.655252178077,779.2290527968802,798.8811650209695,813.0352061865406
1731304381.6930544,820.7357438452549,768.6989638056551,805.6719186020961,832.0745362909648
1731304381.69696,850.6628085967518,766.4671724206436,811.6232113759993,848.9749029701713
1731304381.700124,858.2813227543537,771.4367639350827,811.0376383332941,843.5505849860542
1731304381.7008655,836.9460557486342,777.8123611727818,803.5193439319766,811.985623268931
1731304381.7022808,805.7322024077441,779.4645018024415,793.8827227520178,770.9813951798398
1731304381.7047715,792.772309582701,774.2561194999952,788.005287859782,745.6849045784144
1731304381.7086773,810.9047296395674,765.2601027525818,788.549786021794,750.4943722187282
1731304381.7117848,846.3412522287952,758.2459450210118,793.9579908630623,777.8781855188868
1731304381.7125833,870.236048457163,757.4584044368295,800.784814618205,804.6308324885338
1731304381.7164886,863.5682911624252,762.7403278286749,806.6890889727899,811.0063130506824
1731304381.7178776,834.0581644200565,769.9306644260562,811.4519080214715,796.9743705355584
1731304381.7203944,810.3067374321346,774.0739774585371,815.6241195961338,781.6215824600332
1731304381.7243,817.7727022673429,772.9881606009952,818.5594035147426,785.9546885736758
1731304381.728206,856.7542835721786,768.5733477674137,817.9687346183639,813.8672372803853
1731304381.7306502,900.7834189955324,765.0348119174946,811.6544243554926,847.7190450383488
1731304381.7321117,916.7443029405221,765.5508201130897,800.0154566352876,862.3604672690936
1731304381.7334745,890.524484278197,769.9829637341178,786.9582776094375,845.835898238236
1731304381.7350411,838.1369977067498,775.2288711865065,777.9583936478906,809.6536794045518
1731304381.7360172,793.9895827308459,777.6987891864223,776.4783133770138,780.1903527024657
1731304381.739923,785.516439711078,775.9072793167218,781.607865286618,778.0127923725615
1731304381.7438288,813.593905838789,771.3507927103796,788.9108944470125,801.6790540944734
1731304381.7477343,853.5657333077885,767.2976886617835,793.6580256437381,829.2352629826307
1731304381.7490714,875.5636570126657,766.5680794369944,793.6060022676038,836.3905694957223
1731304381.7495153,867.5378292072243,769.8284299239658,789.2718415468178,816.4530190869833
1731304381.75164,842.5301415736487,775.34530469147,782.2791335272134,785.373674704944
1731304381.755546,825.1009158594529,780.1697652981933,773.9345017485335,767.7283162192562
1731304381.7594516,829.2811886662116,781.9388785874324,765.2230626262937,775.7447470264372
1731304381.7633574,847.111228590218,780.1739044704295,757.3797635891631,799.368413182331
1731304381.7646685,857.1838720558474,776.287838371838,751.6299432735469,815.6406171468816
1731304381.7672632,845.1905960823073,772.4033721447933,748.1315247534427,808.9831524422831
1731304381.7683806,818.2525143314508,769.9360461047538,745.5984825555264,784.9065784340174
1731304381.7699585,800.2046016812752,768.9800888952124,742.5312715616313,765.553235022545
1731304381.7711687,811.1904118654987,768.7722197232715,738.9331339787113,770.7864509845331
1731304381.7750745,848.5724840870445,768.645477420436,736.3968582932085,800.5514907555388
1731304381.7789805,886.0433640097549,768.669603142875,736.051570889198,833.4997779582432
1731304381.780265,893.3341884589557,769.6077500610908,736.5117430327612,843.7954397524901
1731304381.782886,861.2228456865349,772.3479974253712,734.4991079293802,822.6810370848187
1731304381.7867918,810.7032557569069,777.2028126076874,728.1212670135249,786.5440027443323
1731304381.787246,777.4350505596898,783.4592629764514,719.5626727981463,763.9488081970482
1731304381.790697,783.4407265424354,789.4564196936705,713.9327558791697,772.0186176135463
1731304381.794603,819.3760189607759,793.2386450159975,714.7347757178458,802.0583463229677
1731304381.7958622,852.209592366971,793.4823384123504,720.1748688439951,826.6608999280525
1731304381.798509,852.0280414335499,790.1744766518508,724.2237287886803,822.3404354769615
1731304381.802415,816.1417715989954,784.6996992302837,721.9363722971055,788.9369836931521
1731304381.804876,771.3922342536449,779.4127188224364,714.2677829240957,750.236951854226
1731304381.806111,753.2979265253844,776.9638258557616,707.7444595606896,735.8114010262697
1731304381.8063202,778.5919473020102,779.4667791689423,708.9124614256741,758.6573019794761
1731304381.810226,832.3020593719297,787.5066645131516,718.3247250512917,805.767915509492
1731304381.8114593,879.1259744108253,799.3692622018824,729.4952694467514,848.3603920616222
1731304381.8141315,890.1918495369089,811.2973795918067,734.0021837285226,863.4852483432095
1731304381.8180375,864.2739072493888,819.1842473131936,728.4538876948268,850.2000349966727
1731304381.8219433,826.8138112410534,820.893102453653,717.2721176304996,827.8730237700104
1731304381.8249764,808.0748530824026,817.5518955007894,708.9024936730299,818.5067060963888
1731304381.8258488,818.917018024616,812.7807460585512,708.8819448681495,827.9959808144312
1731304381.8270562,844.1303140657013,810.3990466660356,715.8359130761285,841.9662003178415
1731304381.8297546,857.5389545119051,812.2183221074748,723.5821236702052,839.3576215516143
1731304381.8336604,844.3201418524103,817.2434523255133,726.9452629849999,811.8912024971684
1731304381.837566,811.0779369215824,822.540755472505,725.8744658123975,772.8325471260382
1731304381.839793,777.0474924610214,825.1247821801878,724.5288008390061,747.6858281305176
1731304381.841472,757.337616712805,823.7947782919603,726.7751863736886,754.3425953303619
1731304381.842653,753.9656372181305,819.8566540299213,732.4507233346638,788.5592784983353
1731304381.8438418,759.4931465401684,816.2031036770575,737.5141891046102,826.3825807522052
1731304381.8453774,765.7203300623971,815.2998313839587,737.5623144008841,842.0485609891537
1731304381.8492832,768.8368733670809,817.5629286319221,731.5227058664062,827.7518460663222
1731304381.853189,769.1964330421599,821.4191023781151,722.5727490688813,799.6132427350962
1731304381.8570948,768.6878018025765,824.9192330213567,715.8126630598208,784.4887521715779
1731304381.85825,768.6684887035327,827.3779645202981,714.7812191068386,797.7533932587495
1731304381.8610003,769.4158719885817,829.549014304337,719.587412657784,830.2342742685039
1731304381.862707,770.5685944360116,832.3174060796078,727.8092051956155,855.4520119851609
1731304381.864906,771.7161706565134,835.3282364786434,736.853218897968,851.5019662709461
1731304381.8688118,772.6833672180794,836.9805319282734,745.4313089281717,819.5616646735839
1731304381.8727176,773.5055275760897,835.8458271753505,753.1160757124552,783.7463786956903
1731304381.873847,774.2864194919001,832.1678065122206,759.1213905178299,772.3808028095696
1731304381.8747103,775.0943912329003,827.9718113410673,762.1307617210398,795.758328862994
1731304381.8766234,775.9398737261978,825.5733787693798,761.5031106659729,838.0544946801426
1731304381.8805292,776.801904250882,825.7759505639691,758.3507091364886,869.6881712458359
1731304381.8815722,777.6591483943969,827.3952328179337,755.0031471541201,870.3456204804932
1731304381.8844347,778.5034700676076,828.5542323285242,753.2273860348138,844.4791231659314
1731304381.8883405,779.3375155017221,828.5121463412962,753.0551090536711,816.8564677390257
1731304381.889444,780.1669288984392,828.2335337763252,753.3962788003224,811.6186806576457
1731304381.8922462,780.9951251949119,829.1009369012467,753.5846307992093,832.0157763144128
1731304381.896152,781.8224450045815,831.0368603783246,754.0234339788805,857.9197430823087
1731304381.9000576,782.6477513059061,831.9852709538172,755.295198285274,863.4969782598016
1731304381.9004376,783.4700950857989,829.4495030769897,756.9661673737519,840.0919975749844
1731304381.903963,784.2893316809298,822.7606241699981,757.624191060796,804.5858080916976
1731304381.9050407,785.1057896495763,813.9413013112629,756.1548928671871,785.7605623829949
1731304381.907869,785.9196195736396,806.2697220300048,752.7626809585995,800.0011499925089
1731304381.9096274,786.7304469379344,801.7938854342117,748.5205161649584,836.8533191061862
1731304381.9117749,787.5377161770364,800.0624231275882,743.9513945799958,866.8445940278983
1731304381.9156806,788.341679340833,799.2060298002941,738.3743408792959,865.4208735985846
1731304381.9193027,789.1442981457964,798.2223323199349,731.0642317082802,833.2271392839413
1731304381.9195862,789.9487121917065,798.0787432975853,723.2446030130781,795.6416406324978
1731304381.9206378,790.7562719354707,800.3922879087787,718.6236008887879,781.5837096197953
1731304381.923492,791.5622877663178,804.9913135629603,721.1871305159191,799.1506295539892
1731304381.9273975,792.3549718747865,809.0394199204794,731.6772856956176,828.6675640927676
1731304381.9313035,793.1233170492452,809.016505675317,746.0309251379266,839.1926075588771
1731304381.9352093,793.8742901967639,803.9525500563157,757.8218394997847,814.6091347950143
1731304381.9362347,794.6466958137787,796.8601982017649,763.1010579435898,767.4419666580758
1731304381.938168,795.4971428145442,792.8477514270634,763.392712095226,729.2334782623121
1731304381.9391148,796.4415134205484,795.3757507087573,763.9075943258758,725.8872995707311
1731304381.9430206,797.3779895924054,803.6728859383765,768.4179760386603,758.0059361379523
1731304381.9445448,798.0790499619736,813.2177367073915,775.5267787882217,801.2387694130341
1731304381.9469264,798.3555058938134,818.7232578966086,779.9189800482453,825.4649556252529
1731304381.950832,798.3821630567861,817.3890813345995,777.5445174280013,817.4301649487173
1731304381.9518316,798.9255753665025,810.3384815984728,769.9236947563326,789.5111038488141
1731304381.954738,801.0113223631886,801.5962764531815,763.4619123056337,768.3955618461911
1731304381.9570334,804.7660525136836,795.506625474368,764.20436864799,773.1330803151736
1731304381.9586434,808.0076990380563,794.2615270538138,772.6867165378845,800.3210038411212
1731304381.9625492,806.2524258842329,796.9490054787934,783.5731011718046,828.3288354732576
1731304381.966455,795.8636435526624,800.4944735123959,790.5284408229883,836.6113267954405
1731304381.9674287,779.4907628898972,801.7100980564877,792.0133312043117,823.3661040655458
1731304381.9703608,768.4916001026656,799.1136448800163,792.7183889668854,806.3926485812336
1731304381.9742663,776.540502663946,793.5128890630082,799.1630898032402,806.8665500434495
1731304381.9758985,806.9407394050814,787.2097088545698,813.2605495452514,830.5085517457011
1731304381.978172,845.7269269743771,782.4757577549793,829.647939743377,862.2608328122142
1731304381.979462,869.9038645481642,780.3184999031263,839.4070095224647,878.5258806294945
1731304381.9820778,865.8295021429769,780.2836305088097,837.1894765877581,866.5369750806367
1731304381.9830256,842.0420357157565,781.2052327352703,825.6728850749207,835.2681344088772
1731304381.9859836,824.4144439973769,782.1170697456848,813.4619396620888,809.3241564938419
1731304381.9898894,836.0041638316459,782.6539222190286,808.1474024926799,810.3040519732847
1731304381.993795,877.3262930726975,782.9083256928528,810.3774840382779,839.7186301298948
1731304381.994764,923.8349043367706,783.1024006601915,813.8758769376747,876.8380133447386
1731304381.9977007,944.1570664034267,783.3721430656547,811.1810453145017,893.8384336101687
1731304381.9986224,925.1376357847213,783.7305726080012,800.0342846318263,877.0466841512865
1731304382.0016065,883.0436407811651,784.129398942531,785.0322667796854,837.7254615848987
1731304382.0055122,851.1360799773486,784.5240518327016,773.5104929661709,803.7530452350718
1731304382.009418,853.526033598294,784.8993779086338,769.621800976615,798.7194329671281
1731304382.0133235,886.6490765945036,785.262327285573,771.7652511681748,824.7825164839509
1731304382.0136292,922.9915586566703,785.6250058494068,775.0811791986949,862.0741850978724
1731304382.0142195,933.2999108903242,785.9941709659206,776.1110547230918,884.1640201704619
1731304382.0143793,909.2602133664011,786.3700585311815,775.2318143483407,877.2955907645952
1731304382.0172293,869.2486434033526,786.7499532109099,775.1344881362681,849.2841255448252
1731304382.021135,843.2777033403243,787.1315664290375,777.4576096980585,822.1228959368058
1731304382.0250409,849.0624632458678,787.5142210361206,781.0066449330764,814.2215063188934
1731304382.0289466,877.9994243951446,787.8983531641313,782.9810479326843,825.9463057603823
1731304382.0298164,902.5107801418073,788.2846022661387,781.6894857142422,840.0693013668885
1731304382.0324943,899.2670551296658,788.6732928403236,778.1355983008561,837.165307007336
1731304382.0328522,869.2879351377863,789.0644080375779,775.1528021380515,813.2015056931393
1731304382.036758,837.7673511730482,789.4577903640622,774.9205688182006,783.8169296409872
1731304382.0406637,833.2537222843417,789.8533138052843,776.9574236687795,770.9365726898241
1731304382.0445695,863.4913369854352,790.2509365901648,778.3175008897005,783.2916236988697
1731304382.0454133,908.1759692962154,790.6506724243279,776.0295721400254,808.3436426218086
1731304382.048475,934.5048253590365,791.052548721441,769.9463918853742,823.018779584042
1731304382.0492964,922.5501750533339,791.4565866139368,763.6084545179187,813.7721020367925
1731304382.0513597,880.1050909190593,791.8627957582008,762.1669336763731,788.3263368006949
1731304382.0523808,835.7630850345022,792.271162602428,768.8217011114147,768.9234002077035
1731304382.0562866,816.2602706485773,792.6816293876079,782.5094749930278,772.9703523786263
1731304382.0601923,826.1716077915244,793.0940940450145,798.5233603653902,797.7235449628578
1731304382.06101,846.1381450396304,793.5084732634368,811.352091093028,822.2868691598673
1731304382.064098,851.0139614152376,793.9248273334168,817.5508011478591,825.5080348927678
1731304382.0680037,832.619036873368,794.3434462889174,817.0275892587854,804.5669139402928
1731304382.070225,807.1789088227099,794.7647172550011,812.6369568578161,778.0820216024392
1731304382.0719094,800.3492955601483,795.1886731873471,808.6875381640673,770.6708847431102
1731304382.0758152,822.8016921438151,795.6144559504779,808.8023033532404,791.9208729838696
1731304382.0766072,858.508383695453,796.0403613611305,813.7325275623023,827.6583637698793
1731304382.079721,876.9647400564234,796.4651735235856,820.4623112924368,850.9782167162143
1731304382.0836267,859.1676986595083,796.8905594511381,823.8603675147936,843.883258793305
1731304382.0842135,814.8155493564094,797.3224496443142,820.3402378742699,811.7607417210676
1731304382.0875323,775.8378921473598,797.7680531536658,810.8573579616038,779.1138359805486
1731304382.08909,771.5463760682602,798.2270576461497,800.5152790435703,770.2710256899123
1731304382.091438,805.6734753955725,798.682100587167,794.6896294912557,790.605727443251
1731304382.092204,853.5366766069526,799.1014197205203,794.731219922997,823.0367745420382
1731304382.0953438,881.311251270622,799.4660570124247,796.9862846766372,842.2626166329298
1731304382.0992496,872.126548214385,799.8148588092888,796.1596464176356,835.0694277204997
1731304382.1031554,838.4841720700924,800.2661333786549,790.1702031924241,810.2848250034713
1731304382.107061,811.2536261408363,800.9555796498195,782.1439074352847,790.5374471520197
1731304382.107801,814.1263556032172,801.8759939601073,777.6507225246899,793.0582550403784
1731304382.1079557,844.1900838266583,802.7409912421629,779.6417299178706,815.6504430586587
1731304382.1109667,874.4041037405069,803.113888393895,785.7412100376741,839.1481855029922
1731304382.1148725,875.956976644184,802.8623898996018,790.4063207442188,843.6566593982253
1731304382.1187782,842.3462989883222,802.4991535608441,789.9050212901342,824.7833755816945
1731304382.1191308,795.6623180119722,802.8145084220746,785.4338673109677,796.7917793382703
1731304382.1226838,769.8571021035156,803.9311027178611,781.5711528710145,780.6763236798233
1731304382.123398,784.1116078510172,804.7888183911763,781.7809276076096,787.1666213034777
1731304382.1265895,827.3303980118832,803.8867438760968,785.3612068368294,808.3473553226928
1731304382.1268208,866.2360021261736,800.8403269898819,788.5232292628718,824.5195323889154
1731304382.1304953,871.077455968084,797.2631385951536,788.1303980385998,820.7211498505011
1731304382.134401,838.8141982505533,795.8776181068959,784.2383728269955,799.3860128499601
1731304382.1383069,795.1861142818836,798.3996383246324,779.1184799243576,778.4572611284409
1731304382.1389947,773.8279816124705,804.053405946762,774.0946065639395,776.1567842697964
1731304382.1422124,789.3478013773621,810.1337868910665,767.6153224511696,794.9999983992332
1731304382.145686,826.3144906054664,814.1410831923797,756.6412334846901,818.6812077593796
1731304382.1461182,852.8535075469028,815.5239252977663,740.1267945693712,824.8983084663179
1731304382.150024,847.2178535901862,815.4908368290173,721.2967848355976,803.937093178666
1731304382.1539297,815.4111797832968,815.2532871071502,706.4444413327151,767.984564614997
1731304382.1540482,785.8274594482267,814.5304968933453,701.0865232673805,743.3511510700341
1731304382.1545918,785.7662562594691,811.7833529689156,706.6224979188205,750.9732731627126
1731304382.1578355,819.0442519539927,805.911163985423,720.1072777013048,789.6897584219747
1731304382.161741,862.706143368623,797.7550615528536,736.9841984395235,835.3280474397912
1731304382.1645513,885.4507098219923,789.9558405610574,754.2333937979719,857.4089941352305
1731304382.1656468,872.921679935961,785.2219901905063,771.4084903172575,841.7843402796103
1731304382.1695526,839.2419805376495,784.4660794751156,789.1471115490231,801.8270941712924
1731304382.170189,815.1815053097833,786.3476154051958,806.8812829039505,768.5631733670414
1731304382.1734583,822.6730581823166,788.5031768496262,821.8991830020076,766.6473443714276
1731304382.177364,856.8503210880193,789.3036496721818,830.5507277994924,795.1171920711605
1731304382.1812696,890.3000820610364,788.6686456196924,830.5224689363316,828.5736409839293
1731304382.1834166,895.4394511353056,787.523693541736,822.2068627908758,837.9181080879655
1731304382.1851754,866.2764609143637,786.7410119558782,807.9772993941108,813.8909554584577
1731304382.1857858,822.3038666741293,786.5730132122441,790.0906428011558,774.6255504050949
1731304382.188965,792.3875803914528,786.7865239086887,769.313148826028,751.4232361564053
1731304382.1890812,792.1564056528346,787.0572730750575,745.7437176292093,764.1076613145688
1731304382.192987,812.7436367688597,787.2153194248962,721.0289915412018,805.3296655496197
1731304382.1968925,829.371743011502,787.2602705411488,699.4319735022844,846.1855836844561
1731304382.2007985,822.5870723888771,787.2638870111048,686.0429136706983,858.7955978563468
1731304382.2013826,794.7994436051466,787.283786802347,683.3131890052418,837.9134523948068
1731304382.2022817,768.354275358555,787.3354018482237,689.1348560808929,804.2200392196072
1731304382.204704,766.4196973984297,787.4063524780486,698.4870640038407,786.7050547453405
1731304382.2086098,792.4825064580083,787.4800260377341,707.2062145733298,798.6409850165912
1731304382.2125156,825.8552983805682,787.5483639459561,714.3355027687521,826.9230033542414
1731304382.2164211,837.4709129663462,787.6120156598527,721.0934293555063,843.4569252582662
1731304382.2169795,813.2923840072013,787.6749649021908,728.0637295015971,829.0268383295999
1731304382.220327,766.274450961691,787.7401371396899,733.863782643724,789.9344624802133
1731304382.2211473,727.1379737518257,787.8081731470913,736.6030855635012,753.8976648342901
1731304382.223883,721.1214979368965,787.878329475647,736.2129421801822,748.6030241646582
1731304382.224233,748.7473836897937,787.9497302915928,734.807158345698,780.0145510989714
1731304382.2281384,785.5469932395766,788.0219882498652,734.5312149205076,827.5917899506966
1731304382.2320442,801.2618710054994,788.0951669892621,735.2722073987276,860.3018934246198
1731304382.2325766,783.8394407055001,788.1694850464478,734.9145865983229,860.814086471208
1731304382.2359498,749.1601017038732,788.2450936627987,732.0970412986042,838.3508136368104
1731304382.2398555,728.1973208335114,788.3220229862326,728.4911701036938,819.5265641073674
1731304382.2400124,741.5565340191538,788.4002300694625,727.7305275845565,824.7287314604954
1731304382.2437613,782.1296980130452,788.4796578814918,731.487933196471,850.0470079777201
1731304382.2476673,820.3008100842932,788.5602667918687,736.5410605046379,870.3064745838936
1731304382.2481737,827.5926167666211,788.6420495784002,736.3809149405274,860.7904100760214
1731304382.2515728,799.4730679333284,788.7250473824502,726.8320970965276,819.247072943206
1731304382.2554784,758.9334030162072,788.8093537289955,710.9560234428061,769.5920218848132
1731304382.2587998,738.2642815008076,788.8950659497003,698.3455571208332,744.1937198153628
1731304382.2588775,753.8500045817603,788.9821656639755,698.4235054679907,759.2307687463788
1731304382.2593842,793.9643325846173,789.070400651801,712.8144920837168,802.7869350071778
1731304382.26329,828.9808813989089,789.1593440364351,733.3078131208274,844.6547377486511
1731304382.2637703,835.6048004779026,789.2487849635031,747.6035435762777,859.5201623123572
1731304382.2671957,815.4497490073761,789.3393255939654,748.3566318191325,845.0046249487724
1731304382.2711012,792.6876003336525,789.4325904916205,737.9934070512553,820.6667861640422
1731304382.275007,792.7772127874096,789.5302287347606,725.4328077420008,809.711068845419
1731304382.2777429,820.4097209901095,789.6315568769271,718.0287763953356,819.1739005092408
1731304382.2789128,855.5583381436427,789.7314659135309,716.0643612934508,835.141976860687
1731304382.2793674,870.7508141219928,789.8219854573812,714.2773876842422,836.4435053656252
1731304382.2828186,854.3562347688164,789.9000836954943,708.1521799914184,814.5100700274229
1731304382.2867243,820.0406389380661,789.978638827848,698.6157163621418,782.1812436913916
1731304382.29063,795.0519059442198,790.0888472042144,690.9255793150544,764.0003196704013
1731304382.2937171,797.925083532203,790.2592302731471,689.3661874357051,776.2651300769296
1731304382.2945356,824.2049640199168,790.4707842334954,693.137388245477,813.3852416927558
1731304382.2949643,851.2361603976344,790.6220357612249,697.271491475507,851.563227162474
1731304382.2966082,857.3469274514317,790.5685959221877,697.460691215838,866.7624639966789
1731304382.2984414,839.6060451399951,790.2805466912575,694.0748878912392,852.8210524482629
1731304382.3023472,815.8303870739835,790.0513586378895,691.5611778050231,825.6094868673331
1731304382.306253,809.1462690375148,790.5420111294109,693.8418876697455,809.8979462831072
1731304382.3101585,827.6255687430306,792.4360667234753,700.1436433027889,819.1085184690655
1731304382.3105612,856.0960303455563,795.7889827990808,705.3017403113727,844.1280185235677
1731304382.3140645,867.7085097079769,799.5828325610743,704.32471311689,860.568108772242
1731304382.3154733,846.3501297283641,802.0321386488112,696.985678807519,848.9804132908141
1731304382.31797,801.3591303789202,801.6639907649537,688.277551221114,811.6271584631487
1731304382.3218758,761.8427999523165,798.5154152756077,684.4488944836155,771.9248701601631
1731304382.3257816,754.619075506577,794.4705128981703,688.1554094793868,756.7938987472606
1731304382.3261583,783.3922934772581,792.1920444884549,696.6570025708428,776.0405591477247
1731304382.3286345,825.9282720609186,793.2280079576135,704.1346997999608,815.0876085949661
1731304382.329687,851.5307721592708,796.7953542380333,705.9814563585297,846.4523249140329
1731304382.333593,844.8851733431788,800.4059186555936,701.8794908267125,850.5872344475041
1731304382.334339,817.2806272059063,801.9710485377109,695.8450186020603,829.7225573747928
1731304382.337499,796.2878371046592,801.6317825145555,693.6260273032699,804.1918624105408
1731304382.3414044,802.2833731073952,801.6577949351521,699.2568108302762,794.6257295084206
1731304382.3417552,831.0602656054674,804.3877111205464,712.6749793015131,804.693472042602
1731304382.34531,857.0949694308031,809.9511484378751,729.532370499792,818.7939350951092
1731304382.3492155,855.1021809328403,815.7903457603671,743.2920671496568,816.8591005819488
1731304382.3531215,822.081827952056,818.4715206155535,748.6733158417084,793.7463432719303
1731304382.3532038,781.3094921422461,816.3206328075008,744.6607231708024,766.1124006085514
1731304382.3570273,764.5725324638161,810.7849077267572,735.1678848854496,759.879068123683
1731304382.357352,786.919077154009,805.5364591298695,726.6318471517682,788.125535449568
1731304382.3609333,834.2706207446057,804.060542102529,723.9603756624098,837.9814454579439
1731304382.3635516,873.7973528344794,807.4149414292365,727.7336435333468,878.1433138302293
1731304382.3648386,878.8502881685392,813.5573027981814,734.7774576058752,881.8190300411861
1731304382.3687444,848.889188403007,818.5791691976667,741.4511871186688,847.1545366057084
1731304382.3720691,808.8782696317004,819.0667149924045,746.6108515043064,798.8132443807308
1731304382.37265,788.8310679397267,814.180900719585,751.5902768723615,769.1083154687983
1731304382.3729491,800.0040650206811,806.2172567519027,757.5109833865597,773.4021445570137
1731304382.376556,827.0107081784867,799.3041195066421,762.92409563234,799.3713906395295
1731304382.3804617,842.1589238077721,797.040385996847,764.4816441302396,818.7709789885735
1731304382.3843672,829.8771500358622,800.5554146635649,760.3099832212972,811.8678887956285
1731304382.388273,800.6066730551983,808.1819132910133,752.9949632228953,784.0351309745295
1731304382.388546,782.385730641726,816.7728300007875,749.1725385355738,760.6037736051342
1731304382.3909345,797.0825659638999,823.5132680711747,755.46555256358,764.6442847915362
