timestamps,eeg_1,eeg_2,eeg_3,eeg_4
1731144240.3010662,692.8271784830221,801.5586999329042,786.4953309613973,690.4968887969843
1731144240.3049667,592.3886041592053,795.22891801125,790.8705055309032,610.2800950525912
1731144240.308868,520.0656533552676,789.9961580123895,796.9474756143111,547.8941099479987
1731144240.3127687,487.24283719743033,786.3275818544023,804.7808096669961,511.897851263191
1731144240.3131835,483.35740896975767,784.1267359688478,812.1537917463927,497.836508609582
1731144240.31444,485.42769179089527,783.3691053052324,815.5551842066552,492.166766496523
1731144240.3166697,474.8231405682664,784.4714577258761,812.3966901691657,481.07439351006843
1731144240.3205705,448.8299837467439,787.8224965771377,803.0760612424348,458.37889212089294
1731144240.3244717,419.22550655972964,792.8995335745553,791.2441655914446,427.7353802342578
1731144240.3283722,400.6182896744228,797.9910602303714,781.7641488617305,398.65076584271475
1731144240.33,399.0009221877239,801.0120980008197,777.7104197915439,380.0003894041052
1731144240.3320458,409.4720653834677,800.8027091236771,778.6966932398918,375.6039825259177
1731144240.3322732,423.23789691826545,797.8252425059935,781.7814277768657,383.8661230539613
1731144240.336174,436.0841042164853,793.7590061200959,784.0016346440622,400.2117058700166
1731144240.3400748,450.4454703204174,790.4422074207141,784.2892901944914,419.7692618454605
1731144240.3439758,470.1965658323536,789.0111569580189,783.3325148122558,438.8045382637142
1731144240.34556,494.1632237672215,789.7118411975862,781.9847620260857,455.05069260894436
1731144240.3478763,514.9096537664525,792.2044007943238,780.0877457786157,467.7115063800286
1731144240.350124,523.9993348579634,795.8702324649465,776.917132356375,477.48564478316496
1731144240.350908,519.1720422025584,799.8787391038912,772.6438853336896,486.44379157111007
1731144240.3517776,507.44057793915727,803.2345749335553,769.0610625387642,497.58467968948685
1731144240.3556783,501.36323617437006,805.1349874770772,768.4983979655691,514.1305835314677
1731144240.359579,510.84002989605557,805.5306479089764,771.7148867634785,538.6415740106675
1731144240.36112,536.2544208852452,805.2946735697606,776.7868105475128,571.9237665148095
1731144240.36348,568.2312284085363,805.5524437321708,780.2802067292474,611.937040592987
1731144240.3673809,594.6247614326683,806.5419412201422,779.8896065048608,653.467247799535
1731144240.3697703,609.6491833383853,807.0437778324424,776.2637383688483,689.4537697021187
1731144240.371282,617.947233322557,805.1123295511884,772.399995337157,713.9033670469205
1731144240.3751826,630.154746455832,799.6973994170893,771.175385754953,724.8307937270667
1731144240.37668,653.4775995959121,791.8477580108937,773.2080944815585,725.1679163564557
1731144240.3790836,685.1442282416922,784.4411636668634,776.8117919779606,720.9251327593884
1731144240.3829844,714.4060989379883,780.5631259211053,779.81450757046,718.0443178927993
1731144240.385,731.6081694532272,781.6663301207705,781.3894481659372,720.281030666154
1731144240.3868854,736.7021483114521,786.6856939706983,782.2595421349969,729.1674084876813
1731144240.3886328,739.7720367622517,792.548172252989,783.3603357391887,744.9836559734334
1731144240.3907862,752.7653892723729,795.7224046585072,784.5356842071773,766.9753139483072
1731144240.39224,779.2302580800174,794.0245806458914,784.6653531169518,792.5074773666173
1731144240.3946872,810.9273187924516,787.8040746494719,783.0494313535503,816.7546498685225
1731144240.398588,834.6296524692533,779.8362464703771,780.551487919483,834.5828002180843
1731144240.4024887,843.6248436426185,773.8511546549393,779.2550948235239,844.0918980379695
1731144240.4063897,843.9449598101461,772.4683788087717,780.8823433895589,848.9427772003473
1731144240.407495,849.4660334032255,775.7866148911769,785.404198334049,856.6924186845245
1731144240.4078,869.6044162864247,781.487871977049,791.036960566074,873.4026803897864
1731144240.4102905,900.1186067707266,786.2938888062835,795.5433903347321,898.376594698318
1731144240.4141915,925.3285885566623,787.770204158441,797.6990604246041,923.6094185647664
1731144240.4180925,930.4647705599165,785.4136030513399,797.7999860926693,939.134313329379
1731144240.419876,914.0204458235036,780.5820677936642,797.0252368373614,940.41298418751
1731144240.4219933,889.6460430392212,775.5627261784251,796.4195736467681,931.7914720699931
1731144240.42336,875.7685961919556,772.4296244447611,796.3584234296517,923.0908259229666
1731144240.425894,881.390441336848,772.2320557912496,796.6787979606631,922.133005490911
1731144240.4263573,899.6658095626872,774.7254962355853,797.0766165842032,929.323865625495
1731144240.4297948,914.3392326540859,778.5955246095001,797.3734151192598,938.4713310993315
1731144240.4336958,913.5528991039326,782.0216100031139,797.5550210244669,942.6970253643146
1731144240.4375966,899.6251610252845,783.4028964026171,797.686343889582,940.2569534308711
1731144240.43892,886.8686630854792,782.0333740619053,797.825604766865,935.5728415479949
1731144240.4414976,889.3992875408212,778.4713488173351,797.9917364074354,935.0532223410695
1731144240.4452195,909.0717279452786,774.3833272163889,798.1749484308625,941.5531022367323
1731144240.4453983,933.4969890241099,771.8422880159127,798.3592252982629,952.1075583118093
1731144240.449299,945.777912227611,772.3791153594663,798.5358895883761,960.5512291185287
1731144240.4532,938.0307762486727,776.2892667755873,798.7048480509428,962.5690741081673
1731144240.45448,917.7628656528569,782.5590770655955,798.8697641092534,958.9424786735921
1731144240.4547515,902.0574023584759,789.3786108184775,799.0336359841815,954.4977004421557
1731144240.457101,904.3166741012836,794.9009093810145,799.1973122128745,953.9035284595117
1731144240.461002,924.0825767273311,797.9041111283726,799.3601975323978,957.9507673215098
1731144240.4640818,947.7680476884809,798.1711285109398,799.5214592033279,963.2884770574836
1731144240.4649026,959.3948021002687,796.5001318390666,799.6806940724604,965.4885935325101
1731144240.4688036,952.659219191212,794.3141492275483,799.8379457843599,962.5367080096335
1731144240.47004,934.8992286267892,792.9886530970397,799.9934309372778,955.7995016584182
1731144240.4727044,920.2585032142659,793.2231823176664,800.1473123065398,948.0514252867904
1731144240.4766054,918.0391694074668,794.8277257646619,800.2996382323868,940.76790361042
1731144240.4805062,925.8238709779063,797.0517744887067,800.4503967280963,933.2320414527683
1731144240.482944,932.6151559502515,799.1986363312251,800.5995853638249,924.0265902041758
1731144240.4844072,928.8203510205163,801.0517833490351,800.747232124738,913.2762029463631
1731144240.4856,914.5167292779449,802.8021800542467,800.8933587577723,903.5111217146622
1731144240.488308,899.2889578041404,804.5965734391234,801.0379266830608,898.337582201309
1731144240.4896276,894.0724916790725,806.153369099132,801.1808343867984,899.8674023505365
1731144240.4922087,901.8725149237393,806.8131216299694,801.322022038047,906.7800341325035
1731144240.4961095,914.9907995467622,805.9845812653022,801.4616545414574,914.5402356851185
1731144240.5000105,921.1169073987394,803.6056513054928,801.6002127230577,917.9451720492866
1731144240.50116,913.4845744994234,800.2589206375511,801.7382397104001,914.51396683353
1731144240.5018065,896.804985790542,796.8826556345224,801.8756585151616,906.3084086790304
1731144240.5039115,883.7642478742994,794.2944544479798,802.0110871721415,898.5472929988227
1731144240.5078125,884.4374150893949,792.8181650302586,802.1421442519614,895.7180485660637
1731144240.5117133,897.1528175688131,792.2169590478235,802.267613396762,898.097320853767
1731144240.515614,908.799873402535,791.9657922232416,802.3907852977087,901.5693552591581
1731144240.51672,905.1210560063741,791.6869929675412,802.520680226735,901.0209149204611
1731144240.519515,883.0017576029302,791.4409869961726,802.6665619251894,894.5509084363732
1731144240.5206687,854.4909825417774,791.6651536779215,802.8248171448373,885.0328084233812
1731144240.5234158,838.5805340153061,792.8396924278251,802.9671412606726,877.8315399736431
1731144240.5245037,846.6974769949634,795.1546902718983,803.0489196893991,876.6190490627706
1731144240.5273166,873.3343991869745,798.3781331165462,803.0523581861689,880.5942140134613
1731144240.5312176,899.6425337122928,801.9149646009785,803.0475954020357,885.0953365942926
1731144240.53228,907.6648952658243,804.9514064375818,803.2063085902881,884.8807417447081
1731144240.5351183,894.0977899903927,806.6498869779207,803.6834631973915,877.4381432036934
1731144240.539019,872.3967735583714,806.4341710879652,804.3594222622695,863.9950071896242
1731144240.539531,861.3243922503169,804.3289791108332,804.6173909528837,848.0194178712744
1731144240.54292,869.2982454368481,801.1438667108989,803.4814334851636,832.9480716284788
1731144240.546821,887.534367403862,798.2473544255624,800.2830210488781,820.9439844220285
1731144240.54784,897.6613160821663,796.9309898320045,795.4615706515744,812.9858965819394
1731144240.550722,887.3963781470445,797.7534933262707,790.6439767611635,809.3984972960076
1731144240.554623,861.2917140795245,800.3623789027671,787.5798660783887,810.1445356625123
1731144240.5583932,837.7800979240858,803.9050244534096,786.7137882038897,814.9580355391008
1731144240.5585237,834.9064210738381,807.6061585786846,786.8199043343071,823.4289497762333
1731144240.559379,856.0453845685761,810.9810696539345,786.2324506098215,834.6925929396458
1731144240.5624244,886.7959320065145,813.6072821425099,784.5738796476408,846.6434265608028
1731144240.5634,905.5603329072023,814.8923898463847,783.2870721423931,855.6251442278473
1731144240.5663254,899.7528002362203,814.277969161089,784.4235306117336,857.7895677199241
1731144240.5702262,875.0816172802591,811.8026009469759,788.8341501350001,851.7781641353674
1731144240.5741272,850.5727812069131,808.4668091736102,795.3935330661686,840.4626006172392
1731144240.5772555,843.307430240301,805.9131884481537,801.7792297269151,829.6396744167915
1731144240.578028,855.2763594232248,805.5100053324063,805.9291540471825,824.210026459959
1731144240.57896,873.0191164673456,807.4772093004318,807.0031646680809,824.9329737662437
1731144240.581929,879.9244073631573,810.7257096403359,805.4550724098765,828.5563373377079
1731144240.5858295,870.4250859291202,813.559892678737,802.5872847020487,831.0949039420296
1731144240.5897305,854.0692610284611,814.7475531329319,800.0097855432874,831.219223967279
1731144240.5936315,846.4715468446059,814.2122615701808,799.0748427851803,830.7865597620575
1731144240.5942552,855.3145168614479,812.9258783407598,800.2516665212622,832.2896732423519
1731144240.59452,873.3481301300708,812.1638542888237,802.6801494797661,835.7789570313097
1731144240.5961175,884.1079463996941,812.6570509759404,804.3844292798749,838.1826493164341
1731144240.5975325,875.5373542173359,814.1336358440351,803.3729302576995,835.7139140719728
1731144240.6014333,850.3382166126357,815.4560738501015,799.1062135146607,827.205877624821
1731144240.605334,824.4365895807703,815.2586875067601,793.2090400638198,815.2508431137383
1731144240.609235,814.4524176288962,812.7766861623336,788.6181446938476,803.9279664207836
1731144240.61008,824.1723690676969,808.4432827364358,787.601493284939,795.1316883423976
1731144240.6131358,841.2237482914949,803.8708157136136,790.1757670085834,787.0199928321667
1731144240.61498,846.978910678139,801.0950143688883,794.21535172897,776.2120067932995
1731144240.6170368,831.734609722573,801.4120738281441,797.094568553686,761.74474908581
1731144240.6209376,802.7073020728344,804.5249601763282,797.4283070548505,746.9973594336278
1731144240.6248384,778.2601995532717,808.6568581288974,795.5734201632562,737.5878432719397
1731144240.62564,773.087703217113,811.6525884942747,792.7961538695994,736.8788328700247
1731144240.6287394,786.3915734640915,812.3111171849364,790.1192437748949,742.8528462482303
1731144240.6291313,802.5275426156578,810.9873607105351,787.8823428732893,749.0473029929366
1731144240.63264,803.5502870226773,809.1013147842433,786.1642547316684,749.0719275987602
1731144240.6338425,783.68935841735,808.0479406128765,785.346440121144,741.4428830772521
1731144240.6365411,754.2454633848529,808.3565289648756,785.9992978335576,731.0018808529718
1731144240.640442,734.7771898172123,809.5903422424758,788.0041869091708,725.45869598591
1731144240.6412,737.2839902513927,810.8393497253203,789.7657773009968,729.2832748391253
1731144240.644343,756.136669988127,811.3128178348618,788.6212864157335,739.6757284504814
1731144240.6482437,772.5307709303137,810.6750198518586,782.6487380958714,748.3272930539307
1731144240.6521444,770.5799405507238,809.1035930127487,772.6299838656989,748.2712508435473
1731144240.6527047,751.9938273751593,807.1910235988153,762.3534945730114,740.5601908599358
1731144240.6560454,736.520319886947,805.6990500901937,756.5872508623834,734.8553979812239
1731144240.65676,746.5756833055035,805.127762557289,758.0599712186323,742.4406711378524
1731144240.6599462,787.7569426480804,805.2898554532337,765.7657878970956,766.4641177515572
1731144240.6638472,841.0986810343738,805.3183247831847,775.8542348339863,797.2022836994257
1731144240.6640067,874.2346158088175,804.3219190256017,784.2496887981499,816.9819009702327
1731144240.667748,863.8201354006403,802.2561065443714,788.9049552116404,812.0679771462818
1731144240.671567,812.4265795874978,800.162249320763,790.2281843842419,782.9187935439937
1731144240.671649,746.9979029378837,799.356284825177,789.9108794694242,744.714608873544
1731144240.67232,700.0036698034356,800.1685000310291,789.4721030165877,717.1953693869988
1731144240.6755495,687.6571579975864,801.427265230205,789.5598864158663,711.2489636618773
1731144240.6794508,701.4623468442592,801.3068366401118,790.0972060198018,722.4302345742921
1731144240.6833515,718.3824415264743,798.870465652086,790.7611530286557,736.0697363745277
1731144240.6872523,720.1545438666376,794.9154733375484,791.3306278055479,739.3180751620173
1731144240.68788,705.9295821466661,791.3404266967068,791.768304784496,730.2544603137651
1731144240.6904292,689.2592128984744,789.6131678354336,792.1397772951565,717.2874683708801
1731144240.6911533,683.8411169333493,789.6860508927912,792.5140880930501,710.3714726352946
1731144240.695054,690.8737235837169,790.2033306708239,792.9186866355711,711.8755107141757
1731144240.6988828,698.2209039625163,789.668110683825,793.3460140931114,714.5122373585863
1731144240.6989553,691.2162034694018,787.5165628130256,793.7781938119552,707.6028944984987
1731144240.7028558,665.6011211351371,784.3238140409514,794.2040860014782,686.2728218178296
1731144240.70344,631.7778189792701,781.2034664443828,794.6224071301596,656.0243195056657
1731144240.7067568,606.8293563013511,779.0344116598375,795.0369114910388,628.9970510789086
1731144240.7092917,600.8084094296095,778.0617430832974,795.4511719370314,614.993270374041
1731144240.7106576,608.6763530657066,777.9678434846783,795.8664496133706,614.5914871253718
1731144240.7145584,614.8483003394024,778.2082548162297,796.2822225155834,619.8812832850151
1731144240.7184594,606.8149958021387,778.4066791190497,796.6975265907563,621.9206075867899
1731144240.719,586.3980476973188,778.6701073505703,797.1118080337022,618.35688318956
1731144240.72236,568.8803631444014,779.6494447243293,797.5250328277211,614.7065703398064
1731144240.7262611,570.4664602365178,782.1788247410854,797.9374085817345,618.5365161980357
1731144240.7281537,594.4919420323257,786.5653734423609,798.349113770338,632.0397603362148
1731144240.730162,627.8615728010706,791.9535917630617,798.7601997875029,649.654168642686
1731144240.7337587,650.6813367140595,796.3149457517815,799.170628750623,662.6848388925578
1731144240.734063,651.4232745738628,797.3113557731772,799.580345475442,666.8243451217029
1731144240.73456,635.7771583723571,793.6817166283395,799.9893174821644,666.1856502334201
1731144240.7379637,622.3988363763198,786.2913088174517,800.3975343945152,670.4482900527877
1731144240.7418647,628.8334975214319,777.9971599434141,800.8049906689298,687.2524586394065
1731144240.7457654,658.38993311266,772.1812444720821,801.2116770554128,715.7594234718715
1731144240.747016,698.0419820958343,770.7988618841287,801.6175897515151,746.5173491223272
1731144240.7496662,728.8874682787889,773.2802130335798,802.0227456731652,767.9623963870558
1731144240.75012,740.7952596263926,777.0796070213744,802.4271787155831,774.6962025858267
1731144240.7535672,739.569089762096,779.4425405491736,802.8308976757647,771.2628049075912
1731144240.757468,741.133792268851,779.0758497381291,803.2338212574023,768.7137409028667
1731144240.761369,757.9098191636895,776.6059329375821,803.6357581601718,776.8499822887682
1731144240.7652698,788.7462765863014,773.7528418069963,804.0365219652907,798.0232300945107
1731144240.76568,820.3789736281308,772.068674596361,804.4361917150276,826.5463326361897
1731144240.7658784,838.582778169812,772.1634429325582,804.835331515647,853.1528228306447
1731144240.7686346,839.4866667901435,773.7252861694942,805.2347950553898,870.6392352825251
1731144240.7691708,831.9818525842461,776.0348153776431,805.6348486672066,877.0137703348248
1731144240.7730715,829.7256705458739,778.5131899514399,806.0339840610119,875.018538276128
1731144240.7769723,839.5961942800037,781.0064180511962,806.42873520163,869.3260941503049
1731144240.7808733,856.202731092722,783.7108886071364,806.8160976178622,863.6759084156276
1731144240.78124,867.0979578700413,786.8240423191335,807.1984853434024,859.7259912982414
1731144240.7847407,864.3690829523948,790.1857647025744,807.5873856691672,857.9290379422994
1731144240.784774,852.5732427761462,793.2266356544341,807.9986708779937,859.0951026204373
1731144240.7886753,845.7360926751154,795.3089394464857,808.435313293305,864.7320690153338
1731144240.7925758,855.5294185432934,796.1875914777595,808.8659154911688,875.5327771513158
1731144240.7964768,880.7284656261047,796.2016496813407,809.2246985940877,889.512516997107
1731144240.7968,907.2920217322068,796.0658884900297,809.4613804483092,902.0947960683413
1731144240.8003776,919.310570658636,796.4717998452744,809.634462521665,908.8256564771654
1731144240.8035104,911.6901679546681,797.7786979716376,809.9694235647727,908.7801759690509
1731144240.8036027,894.0062541631886,799.8953998259674,810.7492118507977,905.6450024087329
1731144240.8042786,882.4484497255949,802.306732563161,811.9692732092622,905.0854074101076
1731144240.8081794,886.6111620634563,804.2179309282152,812.932428560295,910.1067647401868
1731144240.81208,902.0007518824624,804.8276388230121,812.2502231793388,918.1312643884295
1731144240.81236,914.368936301172,803.6649414454575,808.6572112091156,922.5427521034554
1731144240.8159811,912.2181079260102,800.830807129665,802.3012535883114,917.9322430462904
1731144240.819882,896.9547505012514,797.018184177469,795.2971828266413,904.971392283805
1731144240.8224652,881.9911063085086,793.3150753022604,790.6190547578826,890.7388314077205
1731144240.8237827,881.3595252265158,790.8739374489923,790.0017385127641,883.8364679269389
1731144240.8276837,897.3956200968232,790.5257646241125,792.6710000230859,887.9211193717763
1731144240.82792,918.0027294768394,792.4295143340928,796.0268557224921,898.69529310113
1731144240.8315847,926.0130462580973,795.9166652822875,797.642831018066,906.7556176788765
1731144240.8354857,913.0624214440106,799.7011391241757,796.8973608905761,904.1993110098945
1731144240.8383863,886.7212342537988,802.456909976258,795.0343731898661,890.1197509806918
1731144240.8393862,865.1641309202618,803.4859869734283,793.808226685799,871.0813308496777
1731144240.8413274,863.5364517572908,803.0464600579501,793.9048527911239,856.4122666980682
1731144240.8432872,882.4941627696738,802.0756761288744,794.3684433766673,851.8410255572909
1731144240.84348,907.6155598221003,801.464964752598,793.4423628324456,856.0588230845003
1731144240.847188,920.1411631501622,801.4088424162237,790.1682806029247,862.5546127758246
1731144240.851089,910.8934738433495,801.338420669325,785.4777137046997,865.0950432012526
1731144240.8549898,886.6687186678698,800.5058802809453,781.8267533147704,862.409250061128
1731144240.8588908,864.1759985057143,798.7405758478121,781.5347068038132,858.3426446718734
1731144240.85904,856.5703824951261,796.7224346766968,785.0536001801383,857.6465450067363
1731144240.8601897,863.6490036410277,795.5114581876837,790.5002910760618,861.3734556089533
1731144240.8627915,873.5340709134051,795.716495988482,794.8122416273618,866.0404356668857
1731144240.8666923,873.8446577728382,797.0041270985553,795.6648823211216,867.1156379054075
1731144240.8705933,862.509603826541,798.3479918770963,792.7936429168141,863.4298347962242
1731144240.8732622,849.133614683276,798.7848074407717,787.901291894049,858.4441411798833
1731144240.874494,846.1495457161031,798.0539813451279,783.3804235559311,857.2647589981143
1731144240.8746,857.5549577412129,796.6637346381154,780.8202551117414,862.0245187510294
1731144240.8783953,874.8503137538938,795.4322142872385,780.2520580459363,869.6143138848191
1731144240.879052,883.7453308854385,794.9288034771652,780.4947325740934,873.8490792344969
1731144240.8822958,876.298923235923,795.2218249873106,780.25931070261,870.5667763061815
1731144240.8861969,858.4072958228387,796.0257139317365,779.2179402317029,861.5867958426853
1731144240.8900976,845.8657391940833,797.0263696525944,778.2446135736768,854.0044639054397
1731144240.89016,851.4519484877411,798.0807489199395,778.5851794731886,854.9104101002197
1731144240.8939986,873.4037528952176,799.1675024807668,780.576918295604,865.5863697266949
1731144240.8978994,895.3139553524708,800.2268378745156,783.0398582996173,880.0250234947154
1731144240.8979144,898.3693430129426,801.1132457830975,784.0153659401601,889.2092839020514
1731144240.9018004,876.3979891088035,801.7156336649441,782.3727168736758,887.7969531956652
1731144240.9057012,841.49482061078,802.0826675381497,778.9630583741537,877.91701470179
1731144240.90572,815.5679700279745,802.3897612726864,776.2876426885788,867.283211716226
1731144240.9081378,814.4531163017904,802.7910628736454,776.8315870392707,863.3633424840475
1731144240.909602,836.8086088891379,803.342817060585,781.2766860277115,868.0735752521205
1731144240.9135027,865.7749768453268,804.0752479052508,787.9197461748015,876.6248960382001
1731144240.916777,881.4110393371084,805.0686845159006,793.7635068279551,880.9686795985239
1731144240.9174037,874.1338061085833,806.3536031405857,796.5447923610305,875.255453647693
1731144240.92128,849.3985267920009,807.6845149094905,796.2293867205892,859.5966596783319
1731144240.9213047,821.3239674810217,808.4722896795369,794.8029621801978,839.6396117277372
1731144240.9252057,801.7743197100532,808.078909845443,794.4580291300924,822.3252021421167
1731144240.9291065,793.9312423292358,806.3012937177615,795.6391340088672,811.0011524615711
1731144240.9330072,793.7541618590355,803.59831509049,796.6565500492793,803.7029779353015
1731144240.935639,795.4875897347488,800.8048588858583,795.2834525504807,795.9245838387139
1731144240.93684,795.7269435028826,798.5839811341016,790.9379532000866,785.2308465730387
1731144240.936908,794.0303089148173,797.1404079308743,785.4361524713162,773.305917117359
1731144240.940809,791.4484124999249,796.4219068563551,781.5939885757908,763.7803496650627
1731144240.9430137,788.9985381743694,796.4858575035179,780.9914974340039,758.6850305823732
1731144240.9447098,787.0419641488655,797.5371637112295,782.9705891394892,757.2209647557263
1731144240.9486108,785.4303226016407,799.5543110952601,785.5940473430063,757.2018180032733
1731144240.9524,783.8882705685145,801.9402157516225,787.3327773075047,756.92528427884
1731144240.9525115,782.2577374227113,803.6668074775923,787.8733590543328,755.8678800995642
1731144240.9545012,780.5297715950516,803.8908501801332,787.7432566919383,754.3097136845822
1731144240.9564126,778.7650995332501,802.5356174702509,787.5593332778968,752.6914723264877
1731144240.960313,777.0164573858581,800.3403837617731,787.6101540015327,751.2443305184759
1731144240.9642143,775.300204520837,798.3384531751597,787.8689589452223,749.963940052387
1731144240.96796,773.606853269263,797.200377032804,788.1921617558643,748.747113300917
1731144240.968115,771.9217455404819,796.9518602129199,788.4763328752682,747.5125594931862
1731144240.972016,770.2371710900308,797.190570107072,788.7001505147537,746.2391732011496
1731144240.9733634,768.5532351913438,797.4926930731917,788.8909883210251,744.9449110820989
1731144240.9759169,766.8733483968716,797.6538602768786,789.0800822987503,743.6533144583103
1731144240.9778895,765.2002231867772,797.6799776337845,789.2808328924674,742.37563460127
1731144240.9798176,763.5345905407107,797.65982607608,789.490618748546,741.1108318539631
1731144240.98352,761.8758881383083,797.6610960329806,789.7015863732935,739.8532576096254
1731144240.9837186,760.223365832162,797.6997159791686,789.9085571887886,738.5988380889214
1731144240.9876194,758.5766781297023,797.7592835860712,790.1107552392332,737.3467491814627
1731144240.9915204,756.9358834909632,797.8197071655346,790.3097992363987,736.0981056514274
1731144240.9922256,755.3011883104938,797.8718500880634,790.5073434191468,734.8541867385565
1731144240.9954212,753.6727455448604,797.9169892262684,790.7040416897686,733.6155750783238
1731144240.99908,752.0506128668374,797.9600781597627,790.8997284492824,732.3822320497393
1731144240.999322,750.4348144783341,798.0045548025995,791.0940103215468,731.1539305183531
1731144241.0032227,748.8254019224378,798.0510565352852,791.2866648737764,729.9305610233225
1731144241.0071237,747.2224427456207,798.0986175267526,791.477705318041,728.7121694056664
1731144241.0110247,745.6259382651306,798.1461848958706,791.6672573193548,727.4988355142606
1731144241.011088,744.0357527865747,798.1933247069302,791.8554291854899,726.2905751670696
1731144241.0127654,742.4516835607782,798.2401386029005,792.0422640635086,725.0873894113101
1731144241.01464,740.8737410862869,798.2868928861284,792.2277708279491,723.889452040607
1731144241.0149257,739.3024941165428,798.3337551057415,792.41198618726,722.6972604405984
1731144241.0188265,737.7390564385557,798.3807410437893,792.595011065862,721.5114698787454
1731144241.0227273,736.184260993707,798.4277860555177,792.7769737025121,720.3322593901652
1731144241.0266285,734.6371482243936,798.4748277121527,792.9579111004923,719.1585566685329
1731144241.0299504,733.0940591937419,798.5218443730232,793.137644213608,717.9880716315777
1731144241.0302,731.5504543654718,798.5688501514819,793.3158139863979,716.8191589124885
1731144241.030529,730.0064287601435,798.6158669396175,793.4922294886537,715.6542205649187
1731144241.0344298,728.4728084701039,798.6628916202714,793.6674307808514,714.5017411812144
1731144241.0383308,726.9697367568928,798.7098755132454,793.842933034463,713.3721822980631
1731144241.0422316,725.5098422112028,798.7567392777943,794.0203763817533,712.2655599489138
1731144241.04576,724.070004925507,798.8034406488056,794.1993675395978,711.1577328433029
1731144241.0461326,722.5776388496156,798.8500700421476,794.3754159107131,710.0036253934754
1731144241.0476413,720.9506877765859,798.8968782194706,794.5410894546587,708.7751696535704
1731144241.0488126,719.2044464621794,798.9441092099397,794.6929809418983,707.5248816165572
1731144241.050033,717.5585696184003,798.9916232353655,794.8420661460202,706.4167059600645
1731144241.0539343,716.3889668797171,799.0385778775546,795.0168988397129,705.6360252619553
1731144241.057835,715.8887723465498,799.0837070804048,795.2455051439983,705.1498360677833
1731144241.06132,715.5453830536625,799.1265851141734,795.5140697206831,704.4684281180142
1731144241.061736,713.9500190607516,799.1693448980928,795.7317723820187,702.761512693092
1731144241.0656369,709.6584189331624,799.2169557874586,795.7613194566119,699.6440389877814
1731144241.0676749,703.2479165182706,799.2737461032204,795.5587601082078,696.4203811119924
1731144241.0695376,699.1739382444475,799.3362435526716,795.366852371253,696.7174936958883
1731144241.0734386,704.705783377425,799.3878551086971,795.7597475758452,705.1797426283995
1731144241.07688,724.7219853809873,799.4055547810789,797.300886041271,724.3148682388676
1731144241.0773394,755.8754106749359,799.3847693893923,799.8724126721016,751.8358651409106
1731144241.0812404,786.4351964242104,799.3703746342051,802.3023819834899,781.1001597418054
1731144241.0825171,803.893687524558,799.4566890845042,803.0102018357885,804.6572260905108
1731144241.0851412,804.6317422697913,799.7148598668687,801.3768713536546,818.3179736555098
1731144241.0865371,797.0813714234644,800.0553752320603,798.4414111060224,823.0290208295028
1731144241.0890422,795.0905690236337,800.1348779910365,796.0313891728151,823.6301485783198
1731144241.09244,806.6793987216242,799.4872549703963,795.1679968151777,825.5687090332157
1731144241.092943,827.5790311076603,797.9420920545706,795.3924639671262,831.7089548137945
1731144241.0968435,845.1549703376472,796.0457847873224,795.6149414932445,841.1381630753426
1731144241.1007447,849.5303460256803,794.9791710850595,795.467867749659,850.5670384800252
1731144241.1046455,842.3906860452389,795.8257524724999,795.698149309676,857.2175902097352
1731144241.1053994,835.7529553272803,798.7120088155579,797.2214008328897,860.9778564542787
1731144241.108,841.6167875530812,802.5252377084892,799.8717219698071,864.0563104215119
1731144241.1085465,861.4019059901436,805.4593879786688,802.1765905695137,868.434502301831
1731144241.1124473,884.3483465504421,806.0667041997109,802.4526970149653,873.5387323095497
1731144241.1163485,896.3293179457899,804.1584964642661,800.2436514750224,876.5847883960575
1731144241.117393,891.5455165174986,800.9022717183649,796.8099899073819,875.5563787849784
1731144241.120249,877.1372407984086,797.9244392278082,794.2301941875083,871.9955408643145
1731144241.12356,866.8895300469683,796.0205970279453,793.8379050050074,870.6048970833835
1731144241.1241498,869.4945612126576,794.5638283069861,795.2179617858733,875.5426436493979
1731144241.1242616,881.3278328744489,792.247689755829,796.5091305002121,886.5663073090163
1731144241.1280508,889.7860706625446,788.6025155267777,795.7850663456753,898.6443440717223
1731144241.1319516,884.3827932712713,784.8685986931825,792.5373089961587,905.7142387352482
1731144241.1358526,866.3211208424718,783.2481801056923,788.2213410730994,905.5461103958321
1731144241.13912,848.4082603175118,785.0279820018977,785.4408243617888,901.564061660032
1731144241.139753,845.0417413681128,789.2058472460473,786.252870112198,900.0067697178654
1731144241.143124,860.2382218012674,792.9278656263299,790.7201318021569,904.7396433644345
1731144241.1436543,883.5426139573827,793.4937099641617,796.7518685371019,913.9803893192657
1731144241.147555,897.5047673826473,790.3281042171474,801.4187285565454,921.6128108000727
1731144241.151456,891.1239806643555,785.351988058987,802.8294044800134,922.0460620107765
1731144241.152269,868.7140280045722,781.5302372307151,801.1811063590493,914.735786180486
1731144241.15468,847.0486663676605,780.8205168578237,798.2474192859194,904.7311739021583
1731144241.155357,842.7544484049079,783.106339199865,795.8851452706652,898.7518152421894
1731144241.1592577,859.580861511301,786.7643845492083,794.8882504864423,899.8897013999177
1731144241.1619864,885.4085918846337,790.1514680685245,794.9492096429015,905.1988222580269
1731144241.163159,901.401509193828,792.65527895698,795.3546317596499,908.1288144432813
1731144241.1670594,896.2534464660796,794.5321522602468,795.609124842797,903.7714631431247
1731144241.17024,874.4383442522615,795.9733069187818,795.6032227026528,892.5616549491715
1731144241.1709604,852.1234530113062,796.5342084321553,795.4561231077389,879.4585867867635
1731144241.1748612,844.2839878158442,795.5729607498744,795.3090186250654,869.541103099529
1731144241.1787622,853.4922884878019,793.201690332821,795.2237579255961,863.9377121673901
1731144241.1808486,869.1220937441049,790.6595196203725,795.1892659966255,859.5212345618181
1731144241.182663,876.9638020279522,789.5833466764258,795.1699989467644,852.4177251599709
1731144241.1858,870.9689313112303,790.7746765326162,795.1421019973269,842.1212022686339
1731144241.186564,857.6670331674981,793.5797533480456,795.1016606559992,832.5729353485192
1731144241.1871448,850.1322920373744,796.4256734865252,795.0557919327132,829.1866407625654
1731144241.1904647,856.7650585917432,798.0024722565765,795.0119232548202,834.2474060603128
1731144241.1943655,874.0650679292817,798.0680401366037,794.9729903467917,844.5621049776626
1731144241.1982665,889.2257103341419,797.2913125651577,794.9381795060915,853.4941769908459
1731144241.1997108,890.4715556145259,796.4381346903078,794.9055891472774,855.9355150429594
1731144241.20136,876.7372153303693,795.701118809645,794.8740531425495,852.2299837686166
1731144241.2021673,858.624982647236,794.7003016149932,794.8434642679299,847.7097414322368
1731144241.2060685,849.5803241682465,793.0002628866421,794.8142504775129,847.999190259844
1731144241.209969,854.4290298538298,790.5810248956947,794.7868143168184,853.862420653213
1731144241.21387,864.9699848973187,787.8866449663622,794.7613077038236,860.0238959823777
1731144241.21692,866.6865417098643,785.5585659785371,794.7376932570384,859.2402225780565
1731144241.2177708,851.2586257799419,784.1970955780932,794.7158914140358,848.4385892109103
1731144241.218573,824.4085660861371,784.2923597798286,794.6958703719405,831.848145347168
1731144241.2216716,802.2573613671332,786.1538019355877,794.6776490637584,818.4393946676371
1731144241.2220206,798.8380540392141,789.6646579112388,794.6612542510394,815.5740562671481
1731144241.2255726,814.822950577599,794.0035942571318,794.6466866577663,823.7168371291591
1731144241.2294734,836.7427432050594,797.710845968757,794.6339312650389,836.1657731180935
1731144241.23248,847.5463270045332,799.2962089113323,794.6230114050214,843.94289971322
1731144241.2333744,840.0237464830852,798.1055299830102,794.6140419361175,842.1801602502586
1731144241.2372751,822.0963747638576,794.8341570450996,794.6072024129334,833.2590143745782
1731144241.237435,809.6182698549683,791.2388310476147,794.6025730598792,824.3953975290681
1731144241.241176,812.7652014506073,789.1567217770967,794.5998982371741,821.5998182692889
1731144241.245077,827.4482341901379,789.4551020475983,794.598527424643,824.7959757510266
1731144241.24804,838.8468982205567,791.6063714792402,794.5978533561168,827.9893510194645
1731144241.248978,833.9287361683344,794.1538238759491,794.5982675416715,824.3065197596608
1731144241.252879,812.498796358758,795.7168615191363,794.6019293002613,811.7841931175344
1731144241.2562976,787.838288803999,795.828646102831,794.6119830465743,795.2643453030889
1731144241.2567794,776.6028512511057,795.0611441486576,794.6293037924305,783.0041513227986
1731144241.2568965,786.072682217134,794.4386271707932,794.6482235017953,780.8023153512527
1731144241.2606804,808.6104316874483,794.6446259095567,794.6560992970221,788.1540515498002
1731144241.2636,827.4171441205243,795.6141064508388,794.6424482612493,799.0617326924038
1731144241.2645812,829.0527010685765,796.7460417485198,794.6170623955227,806.4725783989849
1731144241.2684822,813.130681216596,797.4830126132061,794.622690149021,806.8325120319539
1731144241.272383,791.8301382730714,797.7584534216556,794.7166651742392,801.6022032256668
1731144241.27516,779.7982412933756,797.9697540430536,794.9070676739943,795.1299059382941
1731144241.276284,782.5892967000307,798.5523671869722,795.0761268213091,790.9056241445203
1731144241.27916,792.8860212395144,799.5681921826856,794.9859674562657,789.1117168195676
1731144241.2801847,797.3355491597039,800.6966809126045,794.4696683319569,787.1690230186201
1731144241.2840855,788.1483487585149,801.6385809009091,793.7821394714168,782.6601860631357
1731144241.2879865,769.847144515651,802.5354928803167,793.8325230939023,776.1708296386342
1731144241.2917724,755.7023605922985,803.9481133721488,795.8628957940618,771.5206032248012
1731144241.2918873,756.8332667980642,806.3079803047239,800.4258422854325,772.799695195214
1731144241.2940223,772.7965900348211,809.2679012463516,806.2690870259661,780.3422520518144
1731144241.29472,791.288971744013,811.5820374619409,810.2764700704854,789.1225972544653
1731144241.2957883,797.4881941744496,811.8060133983752,809.097928142839,791.6136658264493
1731144241.2996893,785.9188937530347,809.4106207292944,801.6469157295927,783.577873440361
1731144241.30359,765.3196986394827,805.4163483443613,790.5290184909618,768.2940253560771
1731144241.3074908,752.085440882152,801.9022623398345,780.9351638999627,755.2020464602684
1731144241.31028,757.0568368033081,800.6426962216038,777.4613636076767,753.1803305288746
1731144241.3113918,776.3384155377184,801.9090967199762,781.119272143147,763.460356576008
1731144241.3128846,793.9825803314473,804.3734743498106,788.8159868296474,778.1646886304901
1731144241.3152926,794.6857457459579,806.1246084579709,795.676676837132,786.1792262383416
1731144241.3191934,776.2655690002995,805.9264430147851,798.366153975631,781.8578416392412
1731144241.3230944,751.786607325302,803.7923535581895,796.9169253132358,769.3714551840244
1731144241.32584,739.5888951821889,800.6582229292696,793.9484996966812,758.9955372569287
1731144241.3266482,749.1031976486015,797.6621997324592,792.2743413907476,758.4384138845606
1731144241.3269951,773.5480750503514,795.6462227471044,792.9507848492298,766.5201974307457
1731144241.330896,795.1685596902244,795.051159881733,795.0974002141363,774.4650588846132
1731144241.3317468,798.9580190989046,795.961832659774,797.1496534341278,773.6032284812803
1731144241.334797,784.1630527980336,798.0743877924574,798.1621942496033,762.9264407919834
1731144241.338698,764.447579505257,800.6491636984626,798.1708721888152,750.1407814272134
1731144241.3414,756.520363177532,802.6568399213178,797.7305535128163,745.3760214187519
1731144241.342599,766.4576548842657,803.1676503372249,797.3307755402267,752.8891583861625
1731144241.3464994,784.9721735438286,801.787248338208,797.147730075881,767.7003518337792
1731144241.3504004,795.4368101119244,798.8677265612373,797.1195264308741,779.7733822556866
1731144241.3506093,787.801069904529,795.355581773874,797.122777165162,781.9407331318324
1731144241.3543012,766.8328845429786,792.347268962857,797.0854526897286,774.9048834738285
1731144241.35696,748.1826324465108,790.5778414593991,797.0028203989826,765.5970616181023
1731144241.3582022,745.877882775293,790.1073377158069,796.9020906919114,760.9451487595493
1731144241.361524,761.4848140404899,790.3770637941851,796.8072112052242,762.5337552568533
1731144241.362103,783.351056851354,790.6120432461036,796.7257565371563,766.2060291886798
1731144241.366004,796.0949859088292,790.3372019992408,796.6535179281086,766.2446520274079
1731144241.3694713,792.5143145034438,789.6809624864636,796.5838366275995,760.3167875944305
1731144241.3699048,778.4539311060272,789.2481406136751,796.5131456508062,751.303620254683
1731144241.37252,767.0263555666011,789.6233399040034,796.4414196455398,744.9072061269485
1731144241.3738058,767.2477741164844,790.849675474802,796.3701552875808,745.1504970674744
1731144241.3777063,776.642409705917,792.2958006358932,796.3005521316608,751.3238654523335
1731144241.3816073,783.930723427989,793.0719500596816,796.2329159397932,758.7303986730478
1731144241.3855083,779.3573708636314,792.7294620491501,796.1669597666373,762.6073285467043
1731144241.38808,763.7531575379963,791.7117942822981,796.1023026789903,762.0354824079351
1731144241.3883336,748.5338610984854,791.1640852787036,796.0387428075131,760.6078617144186
1731144241.3894093,746.4896282151967,792.1732043284557,795.9762649512304,763.3090704066099
1731144241.39331,760.9236341707851,794.9510900524012,795.9149310745321,772.2436224358
1731144241.3964,782.1614846414327,798.5581626238544,795.8547871368374,784.7713047325052
1731144241.3972108,794.5973358756717,801.4160184170214,795.7958278472607,795.5087787956355
1731144241.4011118,788.950470825795,802.3015929857968,795.7379987440665,800.4602942123332
1731144241.40364,769.9862229216625,801.1373998426338,795.6812120767862,799.9670751198464
1731144241.4050126,753.2688648988853,799.0062507825871,795.6253792787577,798.3074936182127
1731144241.407196,753.2152371954664,797.3885828131092,795.5704710368207,800.4250510572485
1731144241.4089134,771.9241939701865,797.2068901034936,795.5165801572923,808.2654186738566
1731144241.4128144,797.8644961494829,798.3653946927785,795.463904870388,819.2893686245984
1731144241.4167151,815.4570335149699,800.0217335903687,795.4125644694261,828.1130730407452
1731144241.4192,817.4778260541784,801.2594507928543,795.3622851106459,830.0852000153412
1731144241.420616,809.9376692491601,801.6358736359307,795.3122369972871,824.2998634895908
1731144241.424517,805.7516881903774,801.3233152857312,795.2614611595903,813.9752438576724
1731144241.4260583,813.1681268148023,800.9081189911958,795.2100495494194,804.1066292504619
1731144241.428418,829.0046681225699,801.0503071465421,795.1603635736399,798.3405973138368
1731144241.4312758,841.9735094265928,802.1381646555247,795.1165708716248,797.3858164247491
1731144241.4323187,842.4916103554855,804.0070364243775,795.0809423059542,799.6958154879628
1731144241.43476,830.2752335282781,805.8469296149008,795.0479936944885,803.2036380385151
1731144241.4362197,813.6738508518188,806.4733847761414,795.0021278598406,806.3979826375682
1731144241.4401205,802.201968100838,804.9749035031525,794.9268437759911,808.2345909957016
1731144241.4440212,799.3353037217963,801.4026090314512,794.827456488422,807.7919502906686
1731144241.4449203,801.6500249794063,796.9676128199106,794.7521815615692,804.6802417170887
1731144241.4479222,804.0733460637033,793.4681853203003,794.7786379541213,800.0039038576085
1731144241.45032,805.3999530133988,792.2588060725294,794.939127782404,796.6078743037284
1731144241.451823,808.5351915411445,793.4814969782462,795.1109032780442,797.7202272990512
1731144241.455724,815.6304318519583,796.1069268346797,794.9808158317941,804.6924716042768
1731144241.4596248,823.624779229188,798.7075004214777,794.2230934234981,815.7123410964177
1731144241.4635258,825.3990114688254,800.3425723630156,792.879730685358,826.7965708417764
1731144241.4637828,816.1298302624824,800.9202895715991,791.6103499379153,834.4510593844334
1731144241.46588,799.0038563817559,800.8832456339491,791.3436922135171,837.8683755914858
1731144241.4661517,784.4338413613661,800.6079794363154,792.3464514789405,838.8391298983792
1731144241.4674263,782.4710434755195,800.0673934556135,793.519934171829,839.4855227381473
1731144241.4713275,794.3877940941579,798.9966936980938,792.8529124939562,839.8730229497426
1731144241.4752283,810.8165660824113,797.331105082786,788.9998650835443,837.8057459604596
1731144241.4791293,818.7381545503392,795.4558794431335,782.7657026507844,831.2412496546954
1731144241.48144,811.9935948540924,794.0076221740889,777.0897639309336,821.2047422885329
1731144241.482645,796.4786273460223,793.4064732810931,775.2665080398551,812.1979896254551
1731144241.48303,785.2744225942486,793.5670217777983,778.6525496776212,809.0700028395848
1731144241.4869308,787.5101748790034,794.044842736527,785.6018630147668,812.6863457536853
1731144241.490832,800.3430380049001,794.4220778275799,792.4027928554706,818.3494116337416
1731144241.4947326,811.027693763159,794.5485330572812,795.4852400957501,818.8913881855121
1731144241.497,807.572508976842,794.5014915296042,793.416572368715,810.2157616963602
1731144241.4986336,789.1959152677566,794.4179031833384,787.6039519992748,794.6305479972807
1731144241.5010276,767.8433016376587,794.3781029400762,781.5128323525887,779.0685832929184
1731144241.5015073,759.2441339425822,794.3889712061895,778.8619068449397,769.8038031638918
1731144241.5025344,770.4522515334532,794.421866452937,781.5912161304745,768.3422297544518
1731144241.5064352,793.8389022393052,794.4508886964234,788.6240763325281,771.6923173866878
1731144241.5103362,812.6490230674519,794.4675362554007,796.3202024713995,775.7754011092339
1731144241.51256,814.0185868842406,794.4761095494979,800.626793267613,778.3098883659676
1731144241.5142367,799.0133044936101,794.4837282086804,799.6158055525251,779.2289816226895
1731144241.518138,781.3212694310361,794.4942759643213,794.5414580249807,779.4911900883731
1731144241.5203698,775.5434290396297,794.5078190041211,788.5671769476395,779.907129962532
1731144241.5220387,784.8938772680634,794.5227409595558,784.2114029833928,780.7207457714213
1731144241.5259397,798.7415965555722,794.5377117393007,781.6657641347708,781.781136508594
1731144241.52812,802.0255600893715,794.5523548138966,779.3795659148718,782.8623934878096
1731144241.5298405,788.4139509810217,794.5669381595649,776.2744677724282,783.8477056940901
1731144241.5337417,766.0182855800388,794.5818387049179,773.4351616692563,784.7402495145923
1731144241.5359037,751.0182717888484,794.5972441023005,773.5432710047488,785.5928741072455
1731144241.5376422,754.7669325616832,794.6131428402086,778.4135474204068,786.4468349636194
1731144241.539232,775.0613736625363,794.6294443485713,786.8804964533309,787.31270338697
1731144241.541543,798.4169170128152,794.6460797324346,795.145733172984,788.1813344426251
1731144241.54368,811.1019619311853,794.6630311480814,799.5289562393283,789.0409022741937
1731144241.545444,809.8317233404972,794.6803124529578,799.3053293951717,789.8858991632917
1731144241.5493448,803.5376536730156,794.6979417749226,797.0887917593174,790.7170571513925
1731144241.5532458,804.9190676566233,794.7159284977756,796.3515418358079,791.5374164327758
1731144241.5571463,818.8204423682914,794.734274183548,798.2651539352514,792.3491941015147
1731144241.5580945,837.1730986909342,794.7529764314306,800.6914758985331,793.1529545187938
1731144241.55924,844.9404929488769,794.7720278590938,800.1969508666214,793.948289448264
1731144241.5610476,832.4477638881018,794.7914124044283,795.2258978590384,794.7347234671008
1731144241.5649483,804.108948195786,794.8111091764866,787.5935276812509,795.512148001868
1731144241.568849,776.2844109980631,794.8311119491092,781.077000406929,796.2807738113838
1731144241.570779,765.5965446906833,794.8514560551404,778.4851631140704,797.0408973648196
1731144241.57275,776.6552492151053,794.8722212927535,779.774618032619,797.7927346520313
1731144241.5748,798.7955263909871,794.8934733791438,782.6330068561255,798.5364109672922
1731144241.5766509,814.5537034568822,794.9151473026805,784.7256646604551,799.2720640271762
1731144241.5769565,813.4426140875192,794.9369654850774,785.5428093627507,799.9999521857546
1731144241.580552,800.2101253699267,794.9585563303862,786.4153990402384,800.7204432814357
1731144241.5844526,790.8232351250235,794.9798668132222,788.9836192753504,801.4338096151332
1731144241.5883536,799.123030177216,795.0016593261612,793.629184539132,802.1399130787513
1731144241.59036,824.8501339523804,795.0254821739401,799.182920586281,802.8380980293834
1731144241.5922544,852.9595154768,795.052458303606,803.9565690741142,803.5277090879111
1731144241.5958188,865.0563254614224,795.0810854212614,807.0277161262044,804.2092962659939
1731144241.5961554,853.7910592649899,795.1059340442462,808.6602530790584,804.8856621369224
1731144241.6000562,828.572881356118,795.1203273012285,809.651402296698,805.5610209726984
1731144241.6039567,808.1005179280538,795.1243888718053,810.3395491107074,806.2369912021964
1731144241.6056552,805.932857289068,795.1338810730028,810.1910779660669,806.9070483000551
1731144241.60592,820.7149889296676,795.1780340937365,808.284045495121,807.5554598569335
1731144241.607858,838.5312134884416,795.2749206107026,804.2220765780665,808.1681964364012
1731144241.6117587,844.9064249692683,795.3903935978151,798.6825210143597,808.755844749705
1731144241.614681,836.3934829207528,795.4184963517117,793.1411378588695,809.3711420808233
1731144241.6156597,822.3971397771861,795.2403713527217,789.0065947493517,810.0885272950567
1731144241.6195605,816.1489153802031,794.8803644741301,786.8581306300929,810.9251106421198
1731144241.62148,822.8183386024284,794.6619468146131,786.3333859099768,811.7404284050059
1731144241.6234615,835.0799732193511,795.1555988709514,786.6319754249798,812.2331513132219
1731144241.6273625,839.943924335447,796.8049102797374,787.1361766436981,812.169945749319
1731144241.631263,830.8125058066464,799.4648023549895,787.6835637355999,811.8272950233119
1731144241.6335433,814.1357633494185,802.317338130729,788.4155119982935,812.3035582397561
1731144241.635164,804.6810076248463,804.3534456940156,789.4360725563155,815.1279500808267
1731144241.63704,813.1550352219083,805.0483965830689,790.5275571026997,820.9367701170625
1731144241.6390648,836.4175245097349,804.6422669476772,791.0491901418688,828.0519573349109
1731144241.6405313,858.5847338343003,803.808646322147,790.1192469056007,832.613943859899
1731144241.6429658,862.6689239817413,803.066437232832,787.1697067714686,831.0160003128309
1731144241.6468666,843.8370084725875,802.4878752470336,782.7037871238165,823.0447395000756
1731144241.6507676,813.6439594722334,801.9058737671572,778.6409382261461,812.8495772871564
1731144241.6524055,791.4351172366034,801.309346752488,777.5616632803265,806.3955036770897
1731144241.6526,789.4716477400066,800.9641205175003,780.9319141236098,807.1281796538765
1731144241.6546683,803.7622112549897,801.1277498640726,787.5592360123121,813.3286355575342
1731144241.658569,818.1465285714648,801.6603665678872,793.8722295882529,819.4482497691536
1731144241.66247,818.1972570530754,801.9367856988806,796.3419880323764,820.5229141079691
1731144241.6663709,803.2427022136928,801.1861046909906,794.3302637548984,816.1597387275235
1731144241.66816,786.4819342704036,799.0267455188214,790.84727474778,810.7834850548168
1731144241.670272,783.3624726128977,795.8214687766678,790.2472068542953,809.845890800007
1731144241.671268,798.2284106762967,792.5995065567935,794.5978892991915,815.1282692183377
1731144241.6741726,820.3937979245788,790.5602677585041,801.8118832314268,823.133534133245
1731144241.6754067,832.7133436388012,790.4358939338987,807.2382551951268,827.9901331254957
1731144241.6780736,825.4696522980377,792.1040915225118,807.4390457826379,826.4219065173951
1731144241.6819744,804.2324537626012,794.7017876942438,802.9465214523385,820.5129116338792
1731144241.68372,785.3396590535694,797.152868842219,797.6572851499685,815.8332100927253
1731144241.6858754,782.7320529475361,798.7460651947525,795.458866651291,816.4779851502398
1731144241.6897762,796.9553858760755,799.412638390541,797.1086147408881,821.308253851685
1731144241.6901302,815.3336204405871,799.6105066270326,800.0797065135688,824.7511686358747
1731144241.6936767,822.9660073487967,799.9630803075302,801.3057470810267,821.6238020846631
1731144241.697578,815.1851972137063,800.867937551523,800.105101558341,811.9110026594587
1731144241.69928,801.1338224869252,802.2519828398047,798.5704212167791,801.3603402756812
1731144241.7014787,795.8242750012702,803.6058991374873,799.2867671941383,797.2750192873066
1731144241.7053795,807.5766206593104,804.3303303486992,802.7743428311616,802.9392364764644
1731144241.7089925,831.0790664225261,804.2019512678536,807.080169026347,815.1732191287971
1731144241.7092805,851.2974457234014,803.5737562918929,809.6542343099504,826.7735301592224
1731144241.7102828,854.8275153235725,803.0499169953389,809.4955785250154,831.6095957393799
1731144241.7131815,839.8887382863654,802.8455775361706,807.5850976827461,828.3469437367149
1731144241.71484,817.5200838239609,802.4290541071581,805.4993062725929,820.3446599338156
1731144241.7170825,803.1761319600677,800.8696584025736,803.7891859946632,812.4996428540514
1731144241.7209833,805.094591485134,797.6560609730597,801.6894428469736,807.915105713719
1731144241.724884,818.420373162246,793.269269866896,798.2857418977063,806.7591048394431
1731144241.7278547,829.8144071040375,789.013844741042,793.8945984526559,807.4000190235281
1731144241.7287848,828.8983309715722,786.2833328431396,790.2786850007423,808.1769071196243
1731144241.7304,817.0437769138562,785.8457744848038,789.4046957057913,808.3446790014348
1731144241.7326858,805.9960529645591,787.5601939347829,791.7548797995884,807.9821030787143
1731144241.7365866,807.4064259126842,790.5259758553334,795.6394517712905,807.4614028453541
1731144241.7404876,822.2534026426812,793.471797435406,798.1773161625374,807.044688077686
1731144241.7443883,839.3576270846606,795.2277612665935,797.2669454280191,806.7818191491201
1731144241.745159,844.4416854657173,795.1579200161136,793.0758066613203,806.5999468133595
1731144241.74596,832.1845186364476,793.398319522296,787.9607286227604,806.4189370009154
1731144241.746717,811.1371408441954,790.7805061737838,784.9102439129455,806.2056202747398
1731144241.748289,797.2242483574048,788.4701501670576,785.6161528228412,805.9677912614237
1731144241.75219,800.9523562252342,787.4940929374852,789.4562428556411,805.7260414977611
1731144241.756091,818.7881954406564,788.3550282899399,794.0084843603614,805.4936581731378
1731144241.759992,836.0082353152818,790.860934389968,796.7141077565456,805.2725478001151
1731144241.76152,838.8824568677696,794.2058742283504,796.576073627255,805.0585941998196
1731144241.763893,826.0346586095263,797.2658480031911,794.7586517033932,804.8477233597201
1731144241.7655792,809.2887178093932,799.0104381389765,793.6817923517643,804.6384821095139
1731144241.7677937,803.2245754119826,798.8805007553723,795.2358696408928,804.4315066897293
1731144241.7716944,812.3934919682066,796.973847724132,799.3652904229906,804.2279868150657
1731144241.7755954,827.1589956171488,793.9472204892024,804.0033608826808,804.0286590758019
1731144241.77708,831.7233464273621,790.6840909952526,806.3769612180517,803.8336588707936
1731144241.7794962,817.5834456449401,787.9283098366537,804.7880593126737,803.6428344772614
1731144241.7800343,791.2192278145053,786.118571410541,799.7518993846866,803.4560598716539
1731144241.7833972,769.6883615450687,785.49801679869,793.8272460299588,803.2733433313634
1731144241.7844417,767.6197481077696,786.3171293103076,790.2021906554727,803.0947734910308
1731144241.787298,785.8988219061722,788.8460047149822,790.7816330318841,802.9204354347684
1731144241.7911987,810.9789048627043,793.1098702592526,794.9425529830702,802.75039402424
1731144241.79264,825.4332277170706,798.5897836197789,799.9185385977808,802.5847539891749
1731144241.7950995,821.465011427221,804.2363465308712,802.7354679185871,802.423721189152
1731144241.7990005,806.5924947184559,808.8785922471633,802.3271278507152,802.2675497088657
1731144241.8029015,796.8899812669549,811.7278294942744,800.1187593510228,802.1163165613384
1731144241.803304,803.2841004312752,812.5854011253718,798.5687231697351,801.969647931726
1731144241.8068025,822.1624399482778,811.6692219979524,798.9641579758006,801.8267438409409
1731144241.8082,838.0319762201747,809.3366133449686,800.4525078869973,801.6870610869425
1731144241.8107033,836.0599705048841,805.9951721790011,801.1246872478617,801.5515291134284
1731144241.814604,814.2783169382618,802.1755851096148,800.0346764938226,801.423233664801
1731144241.8149104,785.5801085192664,798.5100054192027,798.1895210216753,801.3058672101407
1731144241.818505,767.9386907895995,795.506286635239,797.5580501553602,801.1992373168221
1731144241.8221662,770.7254161325745,793.325641567451,799.0344865969313,801.0944610734524
1731144241.8224058,788.0328078199251,791.8349719610625,801.2891814356376,800.9754157153118
1731144241.82376,804.1827465433369,790.9127445887868,801.6506174099372,800.8326361288043
1731144241.8263066,806.7397893326408,790.674631941737,798.3273834982718,800.6859687276676
1731144241.8302076,796.299801512076,791.3268465632447,792.0547852873818,800.5946693238068
1731144241.8341084,785.0799799386799,792.7475381241094,785.7343212135236,800.6236221040942
1731144241.8380094,785.7404066648535,794.2498572199461,782.3728998771569,800.7566181016153
1731144241.83932,800.0521435314546,794.8978964124155,783.0390493554239,800.8126490222895
1731144241.8410285,817.0153712566911,794.2353336447541,786.4217206227579,800.491258457095
1731144241.84191,821.9449537138262,792.8067557616424,790.1618052540761,799.6533269324566
1731144241.8458111,808.9104650291937,791.914476092554,792.7490302347951,798.7448232896514
1731144241.849712,786.2968766512362,792.6971780113126,794.4950243932474,798.9476172372646
1731144241.8497863,770.9159459506312,795.2780604736307,796.9188363734404,801.5428416566829
1731144241.853613,775.1863250866218,798.732199062924,801.0739568482256,806.5741026969521
1731144241.85488,797.2939042270962,801.8843093242202,806.1166933946089,811.9498774136536
1731144241.8575137,822.028394448368,804.1656811519067,809.3320619077302,814.2907841989487
1731144241.8598907,831.9614947510867,805.7406238870307,807.8872504976902,811.35760935961
1731144241.8614144,820.6730203096989,806.8971066677525,801.2296588543217,804.1467016143616
1731144241.8653154,797.7728599772427,807.458038277712,792.2180794765119,796.6677406639678
1731144241.8692162,781.42130106342,806.8917934125569,785.7036965571446,793.2265863208091
1731144241.87044,783.8905205204611,804.9800530635533,785.2646587350894,795.1347553339187
1731144241.8731172,801.6701245962533,802.2556479040287,790.5627892970246,799.3995008732186
1731144241.877018,818.3090850519718,799.6685006852854,797.5302180819986,800.5918949390126
1731144241.8787527,817.8567757128938,797.7886842746369,801.2943790443909,794.7681240828191
1731144241.880919,797.9952973241639,796.3708144851494,799.4854006652005,782.7285257171634
1731144241.8846622,772.1735394291175,794.7451741203453,793.4198853047799,770.1657927534044
1731144241.8848195,759.0250470089894,792.6711326993247,786.5926429123015,764.2892246654592
1731144241.886,767.6373656587996,790.8269994991579,782.0251299721223,769.0863234264827
1731144241.8887205,790.5590904216024,790.431017902481,780.5666017587125,782.6544774925663
1731144241.8926215,810.1576859133519,792.2632601079764,781.1108266092926,798.6763136234063
1731144241.8965223,813.0406291630595,795.8986284359423,782.0972246476831,810.8078367165741
1731144241.8976152,800.5612133126257,799.8122094564976,782.8770266123173,816.3739667458358
1731144241.9004233,786.6885370193315,802.3049486473309,783.9370630279575,816.7504345986491
1731144241.90156,785.2608686076412,802.5246612680762,786.0527567453695,815.0435040100239
1731144241.904324,797.7351908564176,800.8129109484911,789.2742694536688,813.6297791791385
1731144241.9082253,811.9972906281779,798.2231700692662,792.6440049986354,813.2651833930483
1731144241.9121258,813.0696062790536,795.7419880356691,794.834513601014,813.5945289293031
1731144241.9160266,796.3216400987774,793.866915063333,795.142959357786,814.0257588640169
1731144241.9164777,771.9624351308281,792.715980485636,794.0494362724057,814.2410289377218
1731144241.91712,757.2616600993294,792.3249682260912,792.9013151287743,814.2409195635573
1731144241.919538,763.0341403302795,792.7444576300493,792.9009944259776,814.1631351867115
1731144241.9199276,785.2058459808001,793.9117536680293,794.0854180719348,814.1184604518716
1731144241.9238284,808.0431700901929,795.5565282990085,795.1119815874006,814.1369278771994
1731144241.9277294,816.557232423006,797.2982201467408,794.2138385558272,814.1950889555234
1731144241.93163,808.3821180932839,798.8090744331035,790.7695450098898,814.2611366859728
1731144241.93268,795.5084156739346,799.8524783198062,786.2009191163015,814.3195169869272
1731144241.93534,794.1044700327808,800.230649104339,783.2004718253299,814.3713488378171
1731144241.9355311,810.517333440706,799.8390472918597,783.6636982265549,814.4241846954679
1731144241.939432,835.1537881022941,798.8533139317695,787.0260321161194,814.4835878260101
1731144241.943333,849.6602001621238,797.7847054561727,790.5759520370932,814.550754785654
1731144241.9472337,841.6331979527265,797.1769515195534,791.6232922228968,814.6242235059016
1731144241.94824,814.7138889098045,797.1302954535063,789.687039611323,814.7022702493814
1731144241.9511344,785.9194063781764,797.142402089575,786.8194720904721,814.784101157629
1731144241.9542022,772.6832878609426,796.516698199764,785.855822988132,814.8697739613023
1731144241.9544137,780.0619584072359,795.0038280567599,788.1611583096386,814.9596181770089
1731144241.9550354,797.8085120788465,793.060029524559,792.7443650681689,815.0538101427484
1731144241.9589362,809.0432714594698,791.4737047092472,797.2877134005174,815.1523061247129
1731144241.9628372,803.5645393351781,790.7434195182419,799.9747435197731,815.255000921363
1731144241.9638,785.5653440507174,790.793863825592,800.5112843491888,815.3618796503334
1731144241.966738,769.8200487406392,791.1997272728054,799.7700304681916,815.4729937835766
1731144241.970639,769.3532717509373,791.5825549207289,798.7949275558747,815.5882413922739
1731144241.9730644,784.5554834842508,791.8063088724496,798.1381836490465,815.7071287504315
1731144241.9745398,802.7900895092048,791.9198825632177,797.8238673511494,815.8288530518442
1731144241.9784403,808.9363456937808,792.0165535073698,797.6431833151092,815.9529759622599
1731144241.97936,798.070879096339,792.1479525415339,797.420688827846,816.0804559834856
1731144241.9823415,779.6595550906337,792.3147577591794,797.1058650007286,816.2140008793691
1731144241.9862423,769.8492025996637,792.495067815734,796.7337651116359,816.3563304239752
1731144241.9892895,778.3657965225922,792.670880231474,796.354419604841,816.5061125974098
1731144241.9901433,800.7158068770765,792.837093030556,795.9930657382826,816.654400458805
1731144241.991927,821.7651503746383,792.997331736335,795.648522948941,816.7874143196348
1731144241.994044,827.5938829366329,793.1567085878713,795.3089945153262,816.9000404566308
1731144241.99492,816.157512246844,793.3177833875242,794.965491026623,817.0146385979549
1731144241.9979453,798.402263299509,793.4804229671228,794.6158457640154,817.1848631927692
1731144242.0018458,789.0719918469794,793.6434237576691,794.262177659747,817.4590752597654
1731144242.0057468,794.7003924496169,793.8058782093699,793.9071230819977,817.8029629786852
1731144242.0096476,808.6261445406758,793.9675772814521,793.5518930687734,818.0398511524622
1731144242.01048,817.1207474169073,794.1287471076131,793.1963296656006,817.9192586873411
1731144242.010789,811.4435075884543,794.2896640145628,792.8397871865559,817.3851597355884
1731144242.0135484,795.6567704858006,794.4504578126538,792.4818176976083,816.9219439772961
1731144242.0174494,783.5923940229803,794.6111189289134,792.1223425782605,817.5876128072568
1731144242.02135,787.4001941383652,794.7715886871465,791.7614925745027,820.2999371645595
1731144242.0241654,807.0717519622591,794.9318288715052,791.3994022928317,824.5111409190978
1731144242.0252512,829.5904680315805,795.0918388610868,791.0361158216385,827.4598204728677
1731144242.02604,838.6377938528146,795.2516395146084,790.6716103917335,825.4271323069592
1731144242.029152,827.2991498619709,795.4112529505364,790.3058717900561,816.6782543432289
1731144242.0296514,803.6572146617874,795.5706934330055,789.9389481821507,803.5527102528661
1731144242.0330527,784.6321982492861,795.7299688897467,789.5709304034787,791.441457263531
1731144242.0369537,782.8255698577517,795.8890858041465,789.2018479576926,785.2292894062995
1731144242.0408545,796.9963025472348,796.0480516516792,788.8315432559606,786.1235031701394
1731144242.0416,814.0290742105541,796.2068737380021,788.4596716995158,791.3771043967776
1731144242.0447557,820.6771968585639,796.3655572751464,788.0859793367316,796.8998748174376
1731144242.0485137,814.96404256056,796.5241068105877,787.7108132509953,800.466066708672
1731144242.0486562,807.3631907389939,796.6825327032035,787.3354303368872,802.9721922989537
1731144242.0525572,810.7777014827917,796.8408583752899,786.9613912923929,806.9313868640828
1731144242.056458,828.1706754512314,796.9991178631464,786.5887102917261,813.5857911071199
1731144242.05716,848.8390708626031,797.1573342415265,786.2138006232539,821.0405530511356
1731144242.0590413,856.9033101285789,797.3154852294394,785.8299317993557,825.0299665908002
1731144242.060359,844.9829398560419,797.4734892683274,785.4328650378251,821.900603893597
1731144242.0642598,821.274945332839,797.6312595652046,785.03034576317,811.5515094616293
1731144242.067376,803.5090849174624,797.7888376408158,784.646776889493,797.8835943455495
1731144242.0681608,804.3713163204469,797.9465176181881,784.3099067813716,786.2392853515794
1731144242.0720615,820.6288070718383,798.1047682345124,784.0150874354536,779.9442961821735
1731144242.07272,835.4734019521859,798.2637976098343,783.689497254045,778.8121847639857
1731144242.0759623,832.413794268116,798.4229195836195,783.208876826262,780.4000741695803
1731144242.0798633,809.0625394127671,798.5803795647441,782.5139130414132,782.2795308808035
1731144242.083764,779.3070261765657,798.7345026530792,781.794820688986,783.32883349907
1731144242.086238,762.3837512956658,798.8862491690533,781.5833335811462,783.6182781156903
1731144242.087665,768.1583681732207,799.0413299835118,782.5480690001777,783.6636370821009
1731144242.08828,790.2593585282398,799.2082238432549,784.9974710814645,783.842392956381
1731144242.0915658,811.6116080975569,799.389546388731,788.4514376941114,784.234256746541
1731144242.0939171,817.224073213083,799.5705096638291,791.7231613045916,784.7403106510762
1731144242.0954669,804.4266738336258,799.7174233725538,793.5632989736326,785.2463633694688
1731144242.0993676,783.580055652531,799.8018434067096,793.4359653205945,785.702880954912
1731144242.1032686,769.5452070936278,799.8496114519355,791.8670067288763,786.1189999421533
1731144242.10384,770.6120252730542,799.9775200422082,790.0976213841067,786.5233138829462
1731144242.1051004,783.032515137397,800.3509768237569,789.2888087796285,786.9348678963279
1731144242.1071694,794.9824338289148,801.0309935564986,789.9005678182607,787.3566606517369
1731144242.1110702,796.6753951126486,801.8072347188237,791.7364999879206,787.7828798058481
1731144242.1149712,788.5877611464869,802.2198023104881,794.5096969663364,788.207519194326
1731144242.118872,781.1077012955584,801.8485721850914,798.23618564076,788.6282050127012
1731144242.1194,785.7069974039822,800.6396713257393,802.9254298727092,789.0455707529409
1731144242.1227727,804.7302807300271,798.9304389051797,807.8343899044394,789.461108396463
1731144242.1239626,828.3122772434914,797.1380337376412,811.1772631967036,789.8757081765391
1731144242.1266737,841.372013669971,795.4559569737913,810.9191589901767,790.2894108003006
1731144242.128793,835.4392394643677,793.886121664473,806.2676531103994,790.7018413171877
1731144242.1305747,815.8130862903996,792.5335337438912,798.6389924019933,791.1126660390165
1731144242.1344757,797.8612844339846,791.7821287935207,791.0924453107187,791.521762855034
1731144242.13496,794.9341468403744,792.1021768383258,786.4578870729083,791.9291386478916
1731144242.1383762,807.6134506295592,793.6377580024252,785.5839546184926,792.3347716450425
1731144242.1422772,823.4816824425194,795.9513608904728,787.1530240861774,792.7385405813333
1731144242.142825,827.978256381628,798.1732006267513,789.2090640288649,793.1403157818279
1731144242.146178,817.20847257632,799.4863073932133,791.0304678207387,793.5401655645453
1731144242.150079,801.5010014675007,799.6266976925035,793.6282812663982,793.9384885536474
1731144242.15052,796.3723547372526,799.0324929127951,798.3561139652453,794.3358026527568
1731144242.1539798,808.5903324334845,798.4867640435168,804.8883823789768,794.7320774123423
1731144242.1578808,829.4176370518745,798.4875737171456,810.562369342399,795.1259939548555
1731144242.1616874,841.0337233355472,798.857640429655,811.9900747207902,795.5151125496376
1731144242.1617815,831.0211279092682,798.9634200940852,807.7839268917887,795.897900235374
1731144242.1636689,803.1201774787038,798.3886371027088,800.076279557542,796.277131747364
1731144242.1656826,775.4460809734288,797.4575256189542,793.3907799457534,796.6615396743978
1731144242.16608,767.2840935321076,797.0820734262642,791.6149278129967,797.0609937830069
1731144242.169583,784.5701431215776,797.9964238811767,795.3938499566159,797.4736350209821
1731144242.173484,815.3543127995147,800.0262935117275,801.8853591869224,797.8729948234553
1731144242.177385,838.9178962944198,802.0668783836477,806.9090870060816,798.2138012741351
1731144242.1805496,841.4705482990979,802.8428657417501,807.7556838543362,798.4728093793917
1731144242.181286,825.9948713383792,801.829681688951,804.6641213966521,798.7117283103602
1731144242.18164,808.4770443206858,799.5745686218107,800.1959895483284,799.0999801509063
1731144242.1851869,803.9230360792378,797.1977238420502,797.2734922202953,799.8106108746025
1731144242.1890876,813.934834605396,795.5569280078494,797.3733979980055,800.771444893942
1731144242.1929886,826.0765312779511,794.778744499904,799.9999939163255,801.4382679424444
1731144242.1968894,825.1706353838659,794.4434646239256,803.5493891019414,800.9399504775811
1731144242.1972,806.7397259507328,794.1041277028687,806.7140979857791,798.850154398379
1731144242.1985447,781.3435967397925,793.604381338775,809.2630751467854,796.2095100739376
1731144242.199412,766.3736049749384,792.994061913324,811.6225430322255,795.5933882094957
1731144242.2007902,772.1813947259019,792.3197618509785,813.7806256445222,799.3315967266809
1731144242.2046912,793.9192505570545,791.6514659584201,814.710655709307,807.0747583662705
1731144242.208592,815.7131053472024,791.3152682727218,813.0591411891992,815.4241393419471
1731144242.2124927,823.5925909925421,791.9248394037563,808.5868269500811,820.5714640995167
1731144242.21276,816.2937819168626,793.9463690030539,802.9554492254184,821.4840280813947
1731144242.2163937,804.9565559695618,797.0947275108606,798.8699887483122,820.3598858510746
1731144242.218274,802.4032073031584,800.2002094225369,798.0592402060275,819.8863543630246
1731144242.2202947,811.6179902095681,801.845368642546,799.7711218212838,820.1030803431033
1731144242.2241957,823.3842643126969,801.3359435570771,801.1838161810412,818.0499151640413
1731144242.2280965,824.7994517428352,799.1970333638011,799.528590533284,810.6685749759777
1731144242.22832,811.0992061129557,796.7830681715374,794.2120971814321,798.3288213927028
1731144242.2319973,790.7264622158489,795.3656012077339,787.2114273040994,785.6716825400263
1731144242.2334206,779.3983277802205,795.452357286299,781.5054157515241,778.6967563756541
1731144242.235898,787.8214127067688,796.7678105996969,778.920819071853,780.2253849378571
1731144242.2371364,812.6827120786751,798.6906880786742,779.1081166042281,787.4136150770925
1731144242.239799,838.1344492572268,800.6378706863525,780.2827266576503,793.5642518493883
1731144242.2436998,847.1109270527475,802.1289500303882,780.9400283817455,793.1053265662966
1731144242.24388,834.1138402623425,802.7103129767286,781.1182924966078,785.928264379789
1731144242.2476008,809.4268906415814,802.0535270637769,782.2574053743244,777.5947407839432
1731144242.2515016,791.0051929146298,800.2391599249488,785.7908243970681,775.1309226105772
1731144242.2554026,790.1894828260246,797.8835776503978,791.5546182509614,781.6533631780179
1731144242.2559986,802.7938943106707,795.84048775812,797.3067766519316,793.9953043166828
1731144242.259303,812.9644098047542,794.674154538529,799.9221216670054,805.092458126544
1731144242.25944,806.6699465798089,794.3817092129995,797.5476955056265,809.1740975301751
1731144242.263204,783.7346240271594,794.5684751617816,791.0988747419826,805.7738291876454
1731144242.267105,758.6335386165331,794.8224402081287,783.8090668467606,799.6869045585387
1731144242.2682965,749.4768964967578,794.9432355009933,779.0412267182719,797.1699101391714
1731144242.271006,763.9650378881979,794.9341944315535,778.0413733119219,801.3678555908481
1731144242.2748609,793.3051106056948,794.8800722267881,779.4333269488942,810.2662222722886
1731144242.2749069,818.7934852386402,794.8463464897575,780.8229640666743,818.4336517489244
1731144242.275,825.9775384445757,794.8488682864444,781.0959384675958,821.0679205145088
1731144242.2788076,815.379493193578,794.8721145815099,781.3956616699318,817.2958372701839
1731144242.2827086,801.3024828249099,794.896730962711,783.9002899256348,810.3411468490302
1731144242.2866094,799.6562628193603,794.9137945842823,789.4570353601214,804.6214480735592
1731144242.2905104,814.7363201264699,794.9244365942136,796.2253134693618,802.2575469650665
1731144242.29056,835.8159069396203,794.9334009354748,800.7059822801443,801.8782883083204
1731144242.293723,846.1746027095817,794.944019334429,800.4581560156176,800.5707372329487
1731144242.2944112,836.8514478145389,794.9569340693928,796.2199319984063,797.1240751716878
1731144242.298312,813.8445065639871,794.9712294581166,791.5289327681727,793.6861554610695
1731144242.302213,793.2701399771454,794.98589165155,790.0453268105967,794.3368601368232
1731144242.3031723,788.7411515525591,795.000497460492,792.7766623328097,801.5868166078652
1731144242.3061135,800.9773591487917,795.0151414189863,797.4866379863951,813.4938246472723
1731144242.30612,817.4925596498337,795.0300808832801,800.6672327978963,823.8370714120949
1731144242.3100147,822.3858568627958,795.0454814224688,800.3157932290958,825.7537832667397
1731144242.3125856,808.7202769320888,795.0613641660179,797.264395349031,816.6276369178413
1731144242.3139155,784.0000150699213,795.0776730287819,794.2106190090617,800.6259556789128
1731144242.3178165,764.3571055230062,795.0943523373649,793.4865322088226,786.5218408705665
1731144242.32168,761.8305531041239,795.1113816693716,795.4004053203818,781.8993700637807
1731144242.3217173,774.9486640404596,795.1287708195844,798.2839677871657,787.9367099041854
1731144242.325618,790.5227349671973,795.1465384113421,799.9757996567522,798.8548441747597
1731144242.329519,795.2928760564414,795.164691752073,799.4891708242288,806.5429449506763
1731144242.3314478,787.4769056339835,795.1832157703506,797.6451376714565,806.7364257849227
1731144242.3334198,778.1240677649396,795.202077044031,796.3108013764786,801.9188801797357
1731144242.33724,780.9551622571527,795.2212492024563,796.8882821524818,798.7672273425269
1731144242.3373208,799.4660543188729,795.2407542910809,799.1854772196826,802.240727460587
1731144242.3380482,822.6294494112814,795.2606870717769,801.4903221154133,811.0323050528482
1731144242.3412216,833.3065755216988,795.2811677090398,801.7885194746887,818.129138548051
1731144242.3451226,822.5867446145027,795.3021968178335,799.2075280737437,816.2902999244972
1731144242.349023,797.9139092651944,795.3234927550786,794.5869636864685,804.1856944197943
1731144242.35031,777.7397823114708,795.3445229837016,789.777802798809,788.0689733050591
1731144242.3528,776.7393990667359,795.364940997023,786.3159552755787,777.3171283375336
1731144242.3529243,793.8557632104965,795.385331831235,784.5726149488803,777.3803466472273
1731144242.356825,813.3603538283794,795.4075920657459,783.9433368704779,786.0600748414113
1731144242.360726,818.16781917623,795.4339071541034,783.6654972604614,796.1545241778996
1731144242.364627,804.1273064039277,795.4639518848903,783.4073128330895,801.8193645499806
1731144242.36836,783.1809040096948,795.4920260243094,783.2050138385164,802.8098222489102
1731144242.3685277,772.9569377513465,795.5082015748868,783.0790723053913,803.1245861162147
1731144242.3691723,781.951376395523,795.5071310666938,782.9143145068064,806.0426087750548
1731144242.372429,802.8047720047449,795.5018615942669,782.7346909984878,810.710675586031
1731144242.372924,818.877578073607,795.5291724353651,782.9362976114187,813.4318518305745
1731144242.3763294,818.1965070610213,795.6273063215987,784.0605707153771,811.9755213783662
1731144242.3802304,803.1935900910674,795.7814566114635,786.2685044867703,808.3946357748353
1731144242.38392,788.5140578123004,795.8722860769916,789.093183605651,807.4775962148577
1731144242.3841312,788.9316001993991,795.7026565155996,791.7761717004743,812.2421920879268
1731144242.3880322,807.2713332556991,795.1566538676665,793.862523029014,820.7330557634556
1731144242.3880346,832.0903863643296,794.4209981106408,795.4896630061285,827.2521956260542
1731144242.391933,846.8800262408607,794.0582316425516,797.1834262600547,827.1205576483047
1731144242.3958335,843.2220590452167,794.75884799624,799.4536265346927,820.8227718194057
1731144242.39948,827.2944734662861,796.8639704437976,802.5220862741703,813.8847382055801
1731144242.3997347,814.7194714526598,800.0007352045984,806.2060165413496,812.5818389624993
1731144242.4036355,818.1113511996919,803.1425750581352,809.8186461037885,819.1130330548813
1731144242.4068973,837.162184009691,805.1073456197109,812.1489384459225,830.100470495383
1731144242.4075365,858.7531043771498,805.1856291399744,811.8054989257753,839.2985885659369
1731144242.4078,866.8086026799201,803.4939099687207,808.0253064877724,842.0943816394897
1731144242.4114373,854.4609884936204,800.8368248033264,801.5113979504745,838.4083338094576
1731144242.41504,829.5002351016187,798.1955715113204,794.5363248910634,832.2179493493155
1731144242.4153385,808.9490812863448,796.1979027772398,789.9184402714752,828.4380730368275
1731144242.419239,806.5965336335521,794.9089544458767,789.3803852662692,829.5120345042728
1731144242.4231398,822.8107982691602,794.0338115826519,792.4574515087879,834.014352559363
1731144242.4257593,844.5481272100143,793.3235600698962,796.8555854286618,838.0801300443816
1731144242.4270408,855.693559530043,792.8443659642755,800.0771808941812,838.505898681931
1731144242.4306,849.6046147576039,792.9048994954527,801.1118631524741,835.1880028932558
1731144242.4309416,833.8550739998011,793.7347399743871,800.9063069902749,831.0662224365998
1731144242.4348426,823.515755717544,795.2147210957796,801.2948677246005,829.647544279155
1731144242.4387434,828.6592710384239,796.8952428519984,803.3180418744698,832.0718533700867
1731144242.4426444,846.2772299281913,798.2678181599639,806.3271561784484,836.0469100417012
1731144242.4426758,862.835987924878,799.0460296569553,808.5491299157015,837.516382493595
1731144242.4446216,864.9099102984844,799.2544987820497,808.5133824380766,833.7789203725448
1731144242.44616,849.0980795143934,799.1304328591971,806.0768216310028,825.6029568681686
1731144242.4465451,823.5711250252726,798.9747794951368,802.2678126885455,816.6248183232079
1731144242.450446,800.879807744599,799.0511361815752,798.2620517135753,810.5517807056964
1731144242.454347,788.8706036074524,799.5298678085129,794.485726644905,808.6277610791656
1731144242.4582477,787.1764202737543,800.437934780415,790.586649533061,809.4532893510404
1731144242.46172,790.4825097549548,801.6082424650865,786.160023818545,810.7938747301137
1731144242.462149,793.7851733857161,802.6738982607334,781.4669742467163,811.3050352376442
1731144242.4634838,795.0529910375795,803.1796806899134,777.4769911002318,810.8897877611563
1731144242.4660494,794.7215757377472,802.8339646385745,775.2283476269522,810.0733615261455
1731144242.4699504,793.9887722985028,801.7821204029615,775.092891063738,809.3284853366393
1731144242.4738512,793.6231293449324,800.664310275905,776.5754816562313,808.8126012489843
1731144242.47728,793.7256795843598,800.3074855859081,778.8115240318784,808.4500985604323
1731144242.4775517,794.0464819066717,801.1940169746538,781.3459431271561,808.1126879454537
1731144242.4777522,794.3405794641028,803.0914795001539,784.5133239097978,807.7296531302966
1731144242.481653,794.5180798600084,805.1574415070851,789.0150951680038,807.2992029112992
1731144242.482346,794.6118371848619,806.4723878249732,794.9559235551231,806.85026273603
1731144242.4855535,794.6868853228822,806.6069853118125,801.1449764397644,806.4068515881489
1731144242.4894547,794.7814097754546,805.8039510520433,805.3826296313201,805.9758330594246
1731144242.49284,794.8981542352667,804.6829332023337,805.7311341827062,805.5523682347243
1731144242.4933555,795.0228739609533,803.7743276433904,801.9563707703967,805.1295706357408
1731144242.4972565,795.1428839637961,803.2878681807588,796.0611398272109,804.7039347960146
1731144242.5011573,795.2540569621563,803.2239159400159,791.3410783106124,804.2755563641683
1731144242.5012083,795.3584813361454,803.5514272188741,790.3961679544781,803.8459759607778
1731144242.5050583,795.4595657571157,804.1472969073794,793.3832639023271,803.4163489077326
1731144242.5084,795.5591077949769,804.578010526539,797.8255000080824,802.9868987473128
1731144242.5089593,795.6570483911584,804.139091585407,800.2875132560531,802.5572642835052
1731144242.5124276,795.752546908934,802.3666383994042,798.7949835078288,802.1270141452245
1731144242.51286,795.8449525261248,799.6354218936127,794.1805141075669,801.6959118839916
1731144242.5167608,795.9340954559292,797.1553275078849,789.304441340719,801.2639076471806
1731144242.5200706,796.020049193187,796.1379977779275,786.8129315078091,800.83101645524
1731144242.5206616,796.1027783369659,796.7552889141332,787.290215556545,800.3972231501924
1731144242.52396,796.1820178113055,797.8611713830331,789.2494859711276,799.9624595638394
1731144242.5245626,796.2575232959149,797.841165357718,790.7708618267169,799.5266311207221
1731144242.5284634,796.3295515828045,795.9132233017142,791.24321745499,799.0896526923084
1731144242.5323644,796.3991078713736,792.7559740973893,791.754547071492,798.6514651558404
1731144242.5362651,796.4673512018459,789.9468898474738,793.9575444429044,798.2120209938738
1731144242.538933,796.5339837844751,788.7526282360378,798.4834922840369,797.7712446023849
1731144242.53952,796.5956550239038,789.3040646802174,804.2193523982664,797.3289959604987
1731144242.540166,796.6467162351338,790.7302194300021,808.9969820148851,796.8850875345323
1731144242.544067,796.6843283550947,791.968379633475,811.1486259299895,796.4393926325072
1731144242.5473034,796.7162583825123,792.504446753641,810.7135752915648,795.9920059495898
1731144242.5479677,796.7635947046914,792.5132986532872,809.2998731223475,795.5432931186183
1731144242.551869,796.8476971022128,792.4498001523033,808.6427030211979,795.0936121468683
1731144242.55508,796.9594420683311,792.5672719685386,809.023031381424,794.642677805444
1731144242.5557694,797.0319842555613,792.7952957932436,808.9291617313706,794.1890195571464
1731144242.5577953,796.9612852404096,792.9891964329867,806.3415331034834,793.7304447661153
1731144242.5596704,796.7079024958566,793.1947744128643,800.6126821416073,793.2661670345814
1731144242.5635712,796.439774508026,793.6145561555401,793.3581842742808,792.799714490742
1731144242.5674722,796.5625485120186,794.334798859296,787.5716703837364,792.3394250064175
1731144242.57064,797.4433531932712,795.1451649173691,785.6243163841204,791.8926075174446
1731144242.571373,798.8203507386146,795.6691967695551,787.691947751001,791.4534548014035
1731144242.575274,799.3316990306523,795.6828063027108,791.795032910713,790.9939890782525
1731144242.5766575,796.982843871175,795.3085609022309,795.3642366219266,790.475223130181
1731144242.5791748,791.0430411750083,794.908102247997,797.0507388175876,789.8891200890723
1731144242.5821793,784.2808009912786,794.7834508718015,797.3188246806156,789.311184250506
1731144242.5830755,782.5672721833638,794.9524526873097,797.3915179832959,788.9012529187721
1731144242.5862,790.0011677176356,795.167815943991,797.5929175556173,788.7823742361605
1731144242.5869763,803.1230967330898,795.1303449030949,796.7581476805425,788.811350574372
1731144242.5908773,811.2856068370012,794.7102019269137,793.4452609673427,788.4284232863868
1731144242.5947783,805.0960802678231,794.0206512195966,787.8780840212333,786.9022903677339
1731144242.5955198,785.6884199343883,793.3196260432652,782.591905520243,784.1162284070771
1731144242.5986793,765.4687960847439,792.8336868277753,780.7814074102121,781.4012051203481
1731144242.60176,758.6874567103059,792.6359515717552,783.5797056045412,781.2428728854351
1731144242.60258,769.7247321735432,792.6498187452003,788.7571638329522,785.2351189913635
1731144242.6064808,789.2169720198125,792.7436283673807,792.2213699406042,791.7797462329985
1731144242.6103816,801.3873183818455,792.8227422414892,791.1709636365589,796.2801539671286
1731144242.6142826,796.5241840489809,792.8592421566992,786.2296063679916,794.5298797216093
1731144242.614382,778.5377016783864,792.8686253935006,780.7972150708182,786.5449539180521
1731144242.6170552,761.7655756468,792.8744873828557,778.265811976454,777.2329997585233
1731144242.61732,759.7209909953319,792.8888755871762,779.4441538906349,772.9588165813065
1731144242.6181834,774.5671080403121,792.9112540447301,782.1915755088254,776.6488758806807
1731144242.6220844,795.4818285064607,792.9359839519892,783.3876366572563,785.4891672526944
1731144242.6259851,807.3085347339185,792.9587481997193,781.5475308840012,793.3110207747632
1731144242.6298862,802.7996796574906,792.9784939784497,777.9839525548241,795.8596650504555
1731144242.63288,788.5596255986009,792.9962306580234,775.656580031839,794.490097411882
1731144242.6332445,779.5475504120784,793.0132256362906,776.7360982690185,794.9307108870084
1731144242.633787,786.3902892837647,793.030068221902,780.902046744546,801.966430065091
1731144242.637688,806.0234634542013,793.0466914008238,785.6834915465744,814.5990450796381
1731144242.6415887,823.7057616156318,793.0627917526631,788.405739638632,826.0109184501001
1731144242.6454897,825.0288765681111,793.0781582108858,788.0666404598608,828.5694628257166
1731144242.64844,808.1304387962862,793.0927562261242,785.7289666774791,819.8071666506623
1731144242.6493905,786.0755428760727,793.1066539831411,783.384251416231,804.5747142864606
1731144242.651931,777.3647950626454,793.1199263886657,782.4241529944663,791.8043341112368
1731144242.6521063,791.9487379991136,793.1326091854602,782.9197634547361,788.5056835758666
1731144242.6532912,823.5153074257317,793.1447037249012,784.0445030625947,795.3902319756486
1731144242.6571922,853.937717723838,793.156202077642,785.0763157959839,806.9789707303974
1731144242.661093,866.5394901231512,793.1671070575738,786.1361411332458,815.764759430473
1731144242.664,858.062866358679,793.1774374313076,788.147772167557,817.3126074452576
1731144242.664994,840.0954539244217,793.1872189492088,792.0649858517899,812.7482516585094
1731144242.6688948,828.9669631856831,793.1964666173265,797.8924694896364,807.1336578386778
1731144242.670969,832.4684687272276,793.2051693856782,804.2295079119007,805.3070103045894
1731144242.6727958,844.3235237661005,793.2132955019457,808.8245523342264,808.5383292924413
1731144242.6766963,850.6991403091841,793.2208336225733,809.9601789910248,814.4188861377884
1731144242.67956,842.8189341071779,793.2278567882285,807.7834642856014,819.5991145217912
1731144242.6805973,824.7951245987181,793.2345480786781,804.5360195947807,822.718431374247
1731144242.6844983,810.2279654128968,793.2411012444892,803.2744941352381,824.9934108510447
1731144242.686807,810.7742941761695,793.2474754144338,805.7428856133408,828.1979641401446
1731144242.6883993,826.4067035095401,793.2531666568489,810.8222500781964,832.1372830467682
1731144242.6898313,845.3046021643818,793.2573504193738,814.833644591627,834.146110924689
1731144242.6923,853.2055171760469,793.2596795138879,813.8275234533875,831.2759713604404
1731144242.69512,844.4170508719382,793.2614471744282,806.470313594871,823.2687506049562
1731144242.6962008,825.5467490889196,793.2659087678869,795.3680372595878,813.4335095872059
1731144242.700102,809.1269245124347,793.2761783665861,785.5589015355661,806.2505869861455
1731144242.7040026,802.7666051576749,793.2905406033178,781.111770545907,803.6420649765867
1731144242.7079034,803.2371640649512,793.2985633051642,782.485526959921,803.4439166460995
1731144242.7086935,800.5699693496547,793.284721483123,786.7808480193643,801.7909395475659
1731144242.71068,788.3681065502999,793.244220327594,790.5157173125881,797.3094887018513
1731144242.7118044,770.9447493448191,793.2041725493596,792.3951228690102,792.9943425997657
1731144242.7157052,760.6509562656965,793.2263697498223,793.7580820815489,793.6907454998944
1731144242.7196062,767.4004833014382,793.3629640417038,796.6266086205554,801.3339007423849
1731144242.7216828,789.2927165261971,793.5662841958093,801.3446412248596,812.3299546361977
1731144242.7235067,812.4821076807116,793.6207831706975,805.920791031947,819.5614553989125
1731144242.72624,820.8873784409337,793.2184479989554,807.5442025724599,817.4389118426822
1731144242.727408,808.353934274278,792.2369628745208,804.8986569029264,805.982097872144
1731144242.7275558,783.7833480714445,791.0568249013619,799.3201524603929,790.9266676366199
1731144242.7313087,764.9935812459963,790.5660400646735,793.8478831618532,779.9694433432218
1731144242.7352097,765.6778512610072,791.6763905798532,790.9442488090182,777.8738728708967
1731144242.7391105,785.3283304012106,794.6571939991708,790.7495244452729,783.667952517372
1731144242.7418,809.9718735230023,798.8464940529544,791.3104099657722,791.6390561325327
1731144242.7430112,823.2080107061345,802.9982975837742,790.5774256401356,795.3533233556554
1731144242.746418,818.8156782427876,805.9822643447192,788.4388071054605,791.9592009847499
1731144242.7469122,804.9068672426772,807.306284252288,786.9683885680483,783.830725388743
1731144242.750813,796.4891435371425,807.1580095189771,788.5639825304061,776.4562734969325
1731144242.754714,802.7120590162519,806.0800557565183,793.5154393749233,774.2141965316329
1731144242.756559,819.2562100470994,804.6148390331183,799.1621988578452,777.2630987468791
1731144242.75736,831.9733356111126,803.1446197275615,801.5728346405148,781.8811586420152
1731144242.7586148,828.7189788113698,801.9006486804892,798.562279817253,783.8291436394339
1731144242.7625158,809.7417245888741,800.9983528580347,791.6196260509436,781.8833624909452
1731144242.7652802,788.1281007380534,800.4457301939885,785.059624573002,778.589812050623
1731144242.7664163,779.7168713978587,800.1896329614437,782.9214246409059,777.6569533836232
1731144242.7703173,790.4267316322062,800.2203991321744,786.0186235786132,780.3187012608901
1731144242.77292,811.2770441478694,800.606643561081,791.4745989251321,783.9943832304068
1731144242.7742183,825.3753610900746,801.3257197085885,795.0605931150875,784.6599834066018
1731144242.778119,821.4121878810059,801.9944252788155,794.3999017784918,781.0063994798005
1731144242.78202,802.7354673034457,801.8442553941431,790.5198094606147,776.6042962554128
1731144242.7841425,784.5784686011486,800.1694373645702,786.7214064875801,777.7569302290626
1731144242.7859209,781.6746750746688,796.9985113064577,785.9080363343803,788.4284139477787
1731144242.78848,796.2808561525418,793.3680936865054,788.5464426272029,806.3609868662368
1731144242.789822,816.1959208772754,790.7887645615626,792.6638264824468,823.765477666323
1731144242.7914343,824.2715414293217,790.2015426538248,795.5695690382414,832.3404078278669
1731144242.7937226,811.7983652239031,791.2721529360911,795.7815717294305,828.896315786368
1731144242.7976236,785.1869020660656,792.671883543675,793.756462676751,817.3693843628268
1731144242.8015244,760.775020823941,793.1604194178418,791.15922015094,805.8059635149248
1731144242.803005,752.090853005957,792.5695248625453,789.5268088841565,800.6814449497645
1731144242.80404,759.9025364813008,791.8611235549088,789.421047224918,802.7594248441078
1731144242.8054252,772.9716118126686,792.2392161448605,790.5153269199033,807.3544766133701
1731144242.8093262,778.4892136782648,794.0995441284945,792.2416264200291,808.5235611523901
1731144242.8132267,773.1134030752972,796.6976623415817,794.3300191585007,803.8706006536883
1731144242.817128,765.175300883544,798.7617274748768,796.8627319534593,796.292609099911
1731144242.8196,766.3549758145471,799.4829828463578,799.9212927868335,791.3692564746774
1731144242.8210287,780.3054782640039,799.0654592134292,803.1800737365706,792.5191325965361
1731144242.8218672,798.3541789212433,798.4614160414025,805.8294648394156,797.9155992633669
1731144242.8249297,806.285258942447,798.6092194691482,807.0168679196711,801.8587780728275
1731144242.8263104,796.6448941461475,799.8248082034185,806.5794865723328,799.6740494017431
1731144242.8288305,776.0996273160274,801.7574491943515,805.4248085340714,792.1114887486464
1731144242.8327312,761.2005844915486,803.7982101690916,804.9753807982904,785.3277352943178
1731144242.83516,765.4520425091555,805.5056106309717,805.8703318583547,786.0492164475145
1731144242.8366325,788.1274451240146,806.7199597125325,807.0330904750857,795.7159254831527
1731144242.840533,814.3481668208614,807.4000534010562,806.2224834913933,808.6316069076613
1731144242.8407297,826.811469195698,807.4619397489197,801.9418131161838,816.0089364242168
1731144242.844434,819.6666230267714,806.8239733839125,795.1340998049236,812.7737671485818
1731144242.8483348,803.0064757868365,805.5950583799502,788.9800429639486,801.5042644982111
1731144242.85072,794.2768786490306,804.1801190857698,786.6907868658022,790.2481384727168
1731144242.8522358,803.8602668905611,803.1638434834925,789.0601402035112,786.1230123232275
1731144242.8561366,826.6917083144643,803.0378202059609,793.8859015652005,790.0131811600723
1731144242.8595915,846.4050741234172,803.9360701090286,797.7630280935191,796.5051286237054
1731144242.8600376,848.2468912550162,805.4928804476704,798.642842000157,798.7344798633961
1731144242.8611865,830.4134439397717,806.8700613477365,796.9500251157775,793.9554711130713
1731144242.8639383,805.2470208706939,807.0018083815617,794.5718019009522,785.4043494998919
1731144242.86628,789.7412532079278,805.0754614605613,793.0647733724842,779.2635880655037
1731144242.867839,792.790572658622,801.0925973493675,792.7708635111419,779.4623206827232
1731144242.87174,808.9069280721328,796.1429976889062,793.167471833428,784.6153105320567
1731144242.8756409,823.1514870489941,792.0507721533187,793.6271655560483,789.5191628118415
1731144242.878454,823.3409524763745,790.4430347381812,793.8500622035631,789.8543686109638
1731144242.879542,809.7712894101104,791.7930736990139,793.8581291223365,786.101886321931
1731144242.88184,794.5999986445174,795.1334555766883,793.7958943864087,783.3350573920906
1731144242.8834426,791.445132141729,798.6904395396726,793.7695934878394,787.011743578539
1731144242.8873436,803.8585057721028,800.9729864276713,793.8024076176735,798.2949098550754
1731144242.8912444,822.2564603994832,801.499757035001,793.8672654193831,812.8446715195022
1731144242.8951452,831.8269932150786,800.7152145952299,793.9323889815951,824.0623077233033
1731144242.896062,824.8772436329247,799.3781967426223,793.9838269021029,828.0267036215811
1731144242.8973162,807.535537472772,798.0747014927558,794.0240060042709,826.0937425230478
1731144242.8974,795.3197648914287,797.1871846934717,794.0608767786271,823.2628498738106
1731144242.8990462,800.9298312881564,797.0692671915839,794.0997968975361,823.9155064556774
1731144242.9029467,823.8467246318809,797.9950288060513,794.1416627396944,828.4619470577168
1731144242.906848,850.1590689556217,799.8344015800199,794.1848940471616,833.4440294537401
1731144242.9107487,863.0934522905291,801.8570415205818,794.2278349749956,834.7520225975995
1731144242.91296,855.957524547935,803.0314878101377,794.2698339856802,831.1735653128973
1731144242.9146495,836.9186642667092,802.6828239740436,794.3110805994647,825.3841006626926
1731144242.9161787,821.6672642713966,800.9608205069977,794.3520085355615,821.7012730598207
1731144242.9185505,820.1998338273426,798.7082517930003,794.3928842516015,822.5722251683796
1731144242.9224515,828.8776623077179,796.8571394611841,794.4337330774524,826.6649636584302
1731144242.9263525,834.2917462952819,795.8693910208287,794.4744608489038,829.981344760764
1731144242.92852,825.4181161769425,795.6347176396978,794.5149896370947,828.9574303875307
1731144242.930253,803.7122606537961,795.8030297379707,794.555316239798,823.0734935974914
1731144242.930938,782.7020551927882,796.1780531509013,794.595489659655,815.0483145090192
1731144242.934154,777.3743244203988,796.8047563899057,794.6355432312101,808.631731111864
1731144242.935041,791.9635862181482,797.7001329627057,794.6754298165785,805.8157995170407
1731144242.9380548,816.0902670748716,798.5282712724567,794.7150188938786,805.6594133013284
1731144242.9419558,832.5673741563405,798.599886298101,794.7542058698345,805.6041522430679
1731144242.94408,830.7543726788081,797.285649939437,794.7931115690654,804.1161031831767
1731144242.9458566,814.6489314037625,794.5198219361504,794.8322073498804,802.3348746195654
1731144242.9497576,799.0963897422573,790.9503657870456,794.8720951735788,803.2084173743407
1731144242.9536583,797.3828119959414,787.6104065781508,794.9128100777789,808.800754477858
1731144242.9539032,810.6604484862944,785.414237357947,794.9530256614504,818.1645986073876
1731144242.957559,827.8439164748039,784.866183453962,794.9901867044919,827.7577905334721
1731144242.95964,835.5411773130653,786.0663544190595,795.0226041686932,834.1624948831662
1731144242.96146,829.330452422709,788.7969441213363,795.0530696903396,836.8410272734111
1731144242.9653609,817.1219792101546,792.506996707692,795.090751063056,838.5862339094023
1731144242.965814,812.281918619819,796.2755888627216,795.1463329065923,843.1649349335947
1731144242.969262,822.457741005007,798.9703050265434,795.2185045152344,851.8884009680945
1731144242.9727654,843.1456727062139,799.6678067713037,795.2799536737139,861.8365399232948
1731144242.973163,861.0648497946812,798.1322960083447,795.2825547994759,867.468314235836
1731144242.9752,864.6964342534656,795.0217486243562,795.1996193474573,864.8495612796428
1731144242.9770637,853.6823799944275,791.6256895953982,795.0927938668545,855.366096287683
1731144242.9809644,839.4327228526722,789.2413987377447,795.1385607244449,845.6141957391903
1731144242.9848654,836.0718391501168,788.5543836808596,795.520716447197,842.9124754034814
1731144242.9887662,848.7440406716875,789.3994886607815,796.1626922951126,849.6613737879287
1731144242.99076,868.8255247399591,791.0085713436041,796.4620699525655,861.1824483722562
1731144242.9916277,880.270242280287,792.5127922212419,795.3720960408453,869.055111032885
1731144242.992667,872.2872501292501,793.3490542237203,792.0624664857163,867.4387868901082
1731144242.996568,848.2576922530636,793.3877958148214,786.8333056637532,857.4232667172186
1731144243.0004687,823.6523210770144,792.8441942376336,781.4105293391424,846.1401050788006
1731144243.0006895,814.4400867774341,792.1305195228186,778.0427134086957,841.5454621354394
1731144243.0043695,825.0898687233739,791.7374810098878,777.9619068464036,846.921136601024
1731144243.00632,845.6407621920143,792.1301077013921,780.5643381509377,858.9803350916517
1731144243.0082705,860.0809228727649,793.6079857549751,784.095178078869,870.5480838661789
1731144243.01049,859.1747516720009,796.1222720548743,787.1774429815392,875.5090948735694
1731144243.0121715,847.2742153257818,799.1359357062366,789.6897642796929,872.3537528962066
1731144243.0160725,837.6281799962152,801.6908622755719,792.15599067046,863.9926972202169
1731144243.0199733,840.3440738733249,802.7866447816646,794.3491411591623,854.5098158795474
1731144243.02188,853.3855113718273,801.936021657705,794.7011191606111,845.8860378990914
1731144243.023874,864.3356766320171,799.5217634452478,791.3949475165116,837.4854608982891
1731144243.0277748,861.3286254953977,796.63326366929,784.3180474808429,828.4243688867865
1731144243.0293522,843.6978546476669,794.4556629224061,776.01807654185,820.2520139847024
1731144243.0316758,823.2282245269904,793.6679982702941,770.4914407153849,817.0892233039704
1731144243.0355654,814.847032219709,794.2743419647812,770.4902280282977,822.6671150556051
1731144243.0355766,824.3168501633087,795.865781239124,775.4200372381277,836.5396910948512
1731144243.03744,842.9969970972547,797.9472295092085,781.5987734160968,852.7796642093215
1731144243.0394776,854.1984655345104,800.0332224153454,784.8513142642385,862.8202555675462
1731144243.0433784,846.3820224808572,801.584528081596,783.5305174115997,860.8638955198705
1731144243.0472794,822.6727433255929,802.0642409361781,779.6123316016826,847.9017504053094
1731144243.048215,798.7538977496338,801.215646024706,776.9805952311544,831.0418969665192
1731144243.05118,790.5251925766358,799.3479536271454,778.2954062218688,818.3996871802576
1731144243.053,801.4614654144841,797.3253686862721,783.0111152702631,813.4497539854642
1731144243.055081,820.0311448391141,796.1637061721829,788.1009545887058,813.2565342074759
1731144243.058982,829.2234709173583,796.439840722902,790.7110824829161,811.800021908107
1731144243.062883,820.2011072440121,797.8922206061995,790.3903047069489,805.4205753839424
1731144243.0667837,798.8913686672034,799.5266195911635,789.0886434742947,795.81417224293
1731144243.0670767,780.481413696318,800.2380170928523,789.1703088850197,788.2595667948037
1731144243.06856,776.7505357675459,799.572735942187,791.3185413730745,786.764864167696
1731144243.0704412,786.6161943830632,798.0850921016564,794.067271512777,790.2178657770833
1731144243.0706844,797.2665105193563,796.9914139327948,795.1457778497856,792.6956966287731
1731144243.0745854,794.7597723645122,797.3446436927886,793.3598018280867,787.825123599862
1731144243.0784862,775.6121015973014,799.3297008890538,789.4991504753671,773.9707816069692
1731144243.0823872,750.0699146574236,802.1911755333068,785.7156720903697,756.2402835498052
1731144243.08412,734.2399045235509,804.8095678076228,784.0296585553795,743.4760570070914
1731144243.0859392,737.291488588401,806.4398845200793,785.1459335078994,742.1577389303991
1731144243.086288,754.2048476962773,807.0293190831704,788.3142665049905,751.6726677468387
1731144243.0901887,770.0194641103809,806.9186898351645,792.0692352410978,764.565216186356
1731144243.0940895,771.7807395787869,806.2775854662556,795.1351761668625,771.6202491485636
1731144243.0979905,757.9591865186709,804.8540256783584,796.9357822209956,767.9549545033175
1731144243.09968,737.8758239377048,802.3173965004675,797.6457210659447,755.6983506978182
1731144243.1018915,722.9354766083552,798.8855018042678,797.9807527276434,741.7012479918554
1731144243.1048014,718.2795978955991,795.5848840209432,798.8175593381412,732.4908189966877
1731144243.105317,721.4501584449058,793.7494459217908,800.6524830558194,730.3150423504023
1731144243.1057923,726.9411604264828,794.0406103883051,803.1300857433283,732.7244462165861
1731144243.1096933,730.9407119858256,795.7848917230683,805.1030839330639,735.2923114673563
1731144243.113594,732.714851342228,797.2729518231869,805.4128401163113,735.0269845085238
1731144243.11524,733.3287975401522,796.9065343360819,803.8579229003145,731.9946962723384
1731144243.1174948,733.9612659446049,794.3420623855976,801.4203572644384,728.3876473109018
1731144243.1213958,735.1051509396137,790.729664465932,799.3907756307203,726.3340707367008
1731144243.1236637,736.6512327156562,787.8624494778237,798.1699624099905,726.4506180470444
1731144243.1252966,738.2999724923799,786.9153593313945,797.0016141884372,727.9924499618967
1731144243.1291976,739.8573002551291,787.7245508974153,795.0193720212129,729.87777221177
1731144243.1308,741.2958114985056,789.0588093861419,792.566659565673,731.4677642561813
1731144243.1330984,742.676922574195,789.5603703415322,791.319347070186,732.684547800348
1731144243.1369994,744.0619120465916,788.6311150221891,792.8790794536841,733.730748584429
1731144243.140193,745.4737723079572,786.7319455575654,797.0940626051438,734.7999824561534
1731144243.1409,746.9047380145794,785.0530004453768,801.7776203383343,735.9600934906975
1731144243.142526,748.3387438403432,784.86584531362,804.2860463192716,737.1822219023029
1731144243.1448011,749.7662669857851,786.9089033611525,803.7074720889449,738.4139420358183
1731144243.14636,751.1866224150453,791.0224522582582,801.7634318102918,739.6254979908084
1731144243.148702,752.6034308249166,796.1396688861273,801.532985344383,740.8155390830634
1731144243.152603,754.0199838332326,800.6742713594522,804.9349768959261,741.9958482701467
1731144243.1565037,755.4374609623703,803.206542189909,810.9979547498053,743.1765784112725
1731144243.1604044,756.8554864719371,803.1576824088744,816.3723076181835,744.3609300136186
1731144243.1613882,758.273343941612,801.058432746957,817.7687933645582,745.5472120841295
1731144243.16192,759.6907145271166,798.2239629313497,814.4787983640781,746.7327884772624
1731144243.1643054,761.1077489766732,796.026907265226,809.0221786465358,747.9163687504616
1731144243.1682062,762.5248081017062,795.216968641432,805.3473960343408,749.0981560443686
1731144243.1721072,763.9422229702309,795.6813017078061,805.8824929251126,750.2789815543007
1731144243.1750689,765.3602138567857,796.7291156066196,809.7071997845984,751.4595442935923
1731144243.176008,766.778928623741,797.6362710103597,813.3265142511939,752.640170937334
1731144243.17748,768.1985083349421,798.0495642960572,813.4610176880101,753.8209486227121
1731144243.1799088,769.6191219310657,798.0290896131734,809.605448108025,755.0019342050667
1731144243.1802506,771.040962990634,797.8252162594695,804.311586842921,756.1832653551784
1731144243.1838098,772.464230366145,797.6429569686669,801.0711171954345,757.3651614214135
1731144243.1877103,773.88911721785,797.5510003067096,801.6349421498855,758.5478794149906
1731144243.1916115,775.315820692789,797.520180917179,804.940067574218,759.7316805429698
1731144243.19304,776.7445658075393,797.4986838537212,808.3147986272547,760.9168192967369
1731144243.1955123,778.17561793979,797.4577175685092,809.676876507968,762.1035380165463
1731144243.199113,779.6092511314403,797.3964983847222,808.7585257607101,763.2920530551951
1731144243.1994133,781.0456640169077,797.3268080296946,806.5109071471387,764.4825449375713
1731144243.203314,782.4848992051882,797.2584774757152,803.6032861461075,765.6751871400705
1731144243.2072153,783.9268882909438,797.1943577303373,799.6520397550033,766.870233267304
1731144243.2086,785.3717224838831,797.1325168109091,793.9140104013105,768.0681150243381
1731144243.2099447,786.8200533442166,797.0701719333243,786.6457480436351,769.2694195052007
1731144243.2111158,788.273212842993,797.0059112267642,779.6468054028509,770.4746150280364
1731144243.2150166,789.7325055857256,796.9397922727624,775.272520847535,771.6835887160042
1731144243.2179751,791.1976037999824,796.872466566375,774.693385282732,772.8954181821691
1731144243.2189176,792.6651878420804,796.8044323720153,777.0025240124082,774.1090201442267
1731144243.2228184,794.1301338210454,796.7358095556119,780.0768077697742,775.3248964296963
1731144243.22416,795.5909002704873,796.6664793845904,782.4391384508184,776.5468945411618
1731144243.2267194,797.0568529960833,796.5962938245276,784.364878709006,777.7814421351154
1731144243.23062,798.549450585607,796.525184082739,787.2147616331415,779.0320167164766
1731144243.2345212,800.0874226109089,796.4531583631998,791.752783332691,780.2905689488832
1731144243.2368374,801.656251772144,796.3802536886548,797.1690466561517,781.5343266221051
1731144243.238422,803.1855004438604,796.3064978260901,801.6972678181781,782.7397649302621
1731144243.23972,804.5773431154564,796.2318982032754,804.058523450037,783.9162133351451
1731144243.2423227,805.8127403595464,796.1564478105321,804.2809791098468,785.1363163575319
1731144243.2448206,807.083864032774,796.0801344845422,803.3313388199924,786.5149655804873
1731144243.2462237,808.794968946345,796.0029489981424,802.2163674810506,788.0991950956574
1731144243.2501245,811.2555582827687,795.9248940241913,801.4265529606962,789.7116681944997
1731144243.2540257,814.1025495087971,795.8459926024899,800.9550551583009,790.9158066707909
1731144243.25528,815.9283957649244,795.7662849693573,800.5956273078306,791.3210534290897
1731144243.2556996,814.9180519814547,795.6857998777848,800.1884487881723,791.2555100157458
1731144243.2579262,810.8735219935587,795.6045050240168,799.6945655827619,792.3763922158677
1731144243.2618272,807.4202964042536,795.5222796301837,799.1516449663179,797.435801053569
1731144243.265728,811.46988678648,795.4389787740738,798.6068482537763,808.8013954411554
1731144243.269629,828.1316449210044,795.3546184892245,798.081969645128,826.4579779028549
1731144243.27084,854.3178633316229,795.269573283536,797.5742775615355,847.012667592921
1731144243.2735298,877.917864066478,795.1845154783833,797.0721927845349,864.7601968273262
1731144243.274562,885.4744541858463,795.099841891513,796.5675530396945,874.4949487633493
1731144243.2774303,872.8748029085729,795.0147410758684,796.0587488085129,874.5059802050649
1731144243.2796965,849.887173997492,794.9267802250228,795.5479765837273,867.8425310055798
1731144243.2813315,834.1579675811884,794.8333017616384,795.0376801054954,860.8125553297037
1731144243.2852323,838.8041747440042,794.7350004436264,794.5288663085154,859.409235970537
1731144243.2864,862.848562086285,794.6393747576608,794.0212794284522,865.8652497404786
1731144243.2891333,891.7400848009758,794.5588723633192,793.514265095207,877.6418642703303
1731144243.293034,907.7563645655185,794.499398689105,793.0073910494108,889.5429036717677
1731144243.293424,902.6742303858179,794.4431459844701,792.5005751517072,897.3299529579997
1731144243.296935,883.2303783948587,794.3432806023395,791.9939212604742,900.0456694255266
1731144243.3008358,865.2354613984745,794.1542821699477,791.4875320119731,899.369523196808
1731144243.30196,860.980217378861,793.9021709814292,790.9814293804477,896.9340368761711
1731144243.3047369,869.9505778071388,793.7486677138794,790.475572769818,892.3309622287084
1731144243.3086376,880.2619282367576,793.9578739872702,789.9699089868849,883.8259931707629
1731144243.3122866,879.456619841533,794.7150746727987,789.4644034289884,871.1640741465752
1731144243.3125384,865.5562387382831,795.9105832113107,788.9590384178051,857.6978009741971
1731144243.3145723,849.0515842225619,797.1175013840439,788.4537914983082,849.4086708590955
1731144243.3164394,844.0778571555888,797.8402330033194,787.9486179891538,851.0072505211107
1731144243.31752,856.0963131794553,797.8415645841703,787.4434611533453,862.0078858172058
1731144243.3203402,876.487005921367,797.3196126250882,786.9382974063092,876.1486733472045
1731144243.3242412,888.9039635322307,796.858897449566,786.4331889943419,885.168417545549
1731144243.328142,882.4430018963901,797.1532413050634,785.9282769884802,884.4639841480761
1731144243.3311489,860.7270507695316,798.537366187671,785.4236488022752,876.3639964930995
1731144243.3320427,839.165578469573,800.5483599186351,784.9191091649327,868.3490771301908
1731144243.33308,832.5258462588911,801.9190607022049,784.414060294398,867.44779036463
1731144243.3359437,843.177807936294,801.2349633851723,783.9078098330474,875.0941700511863
1731144243.3398445,859.761966306147,797.9432499328831,783.4004255782189,886.3714002561762
1731144243.3437457,867.1107397726871,792.9655897428561,782.8936194304606,894.0441809637819
1731144243.3476462,858.8489094574643,788.3422820138886,782.3904143399238,894.0094721205903
1731144243.34864,842.2281976860494,786.0606837252651,781.892464218339,887.8611329454299
1731144243.3494482,831.5730558704574,786.8684013180867,781.3958096498648,880.8203024768063
1731144243.350011,836.0580371950127,789.8832845262377,780.8891646471795,877.0742897438154
1731144243.3515472,851.8221264411181,793.2220884650062,780.360583355035,876.472861840942
1731144243.355448,864.7497503538422,795.1799649324005,779.813934353885,875.1708707538249
1731144243.359349,861.7692542379583,795.1798022056347,779.2842525717961,869.4560203489895
1731144243.3632498,841.6673160997716,793.91946800424,778.8281891259938,859.3988445593538
1731144243.3642,816.5514698553162,792.7021865244196,778.4704892533356,849.1720939439654
1731144243.3671508,802.517361253614,792.4793723628442,778.126220764098,843.7192086789056
1731144243.3688734,807.0410109241031,793.2975729950799,777.5804042255917,844.5728213607221
1731144243.3710515,823.4943664812652,794.4874852821292,776.6331489875486,848.415596932088
1731144243.3749523,837.2353209331579,795.3258148072136,775.4260820586752,849.7190572933456
1731144243.378853,837.9456342393773,795.5583745666272,774.7382480710532,845.3313456904853
1731144243.37976,827.7255887674476,795.4082868715896,775.8491738180018,837.1405743354499
1731144243.382754,818.2842080289471,795.2298436279482,779.7398264205715,830.4830954064383
1731144243.384324,819.9445528134165,795.2161140208295,786.0237922020026,829.5796152605826
1731144243.386655,832.066175389191,795.357489516921,792.5473795954903,833.8982073898479
1731144243.3877356,843.1904913420794,795.5562395189207,796.3538940872389,838.6512594886451
1731144243.390556,840.951392798791,795.7355513892984,795.6466669923598,839.1048176848357
1731144243.3944569,823.3965626023443,795.8748689813694,791.345464286993,834.9624606476318
1731144243.39532,801.8229314790176,795.9904319573856,786.8112704174825,830.8202071744549
1731144243.3983576,792.1407404005146,796.1040827120622,785.5946992412579,832.0477608880966
1731144243.4022584,801.6500004542211,796.2264109777349,788.7630013432722,839.612130022025
1731144243.4061594,822.4236978111836,796.3565571749106,793.9675599098309,848.4885898379363
1731144243.406598,837.1464728909299,796.4892873466171,797.1697539385101,851.2240398972776
1731144243.4100602,832.747288946186,796.6207691646958,795.7764926817923,843.7412834436519
1731144243.41088,810.7009593327332,796.750179349361,790.7330254617451,828.6556247213371
1731144243.4139612,785.8625759246953,796.8785145424457,785.940455754804,813.5827734349836
1731144243.417862,775.1141532962399,797.0069430152839,785.4767790155017,805.9086739698548
1731144243.4192,784.8940243809252,797.1359888849535,790.7400739699998,807.9565140130568
1731144243.4217627,806.998259994643,797.2655839147293,799.57705008688,815.871894125148
1731144243.4254603,825.3895070472773,797.3954598990877,807.9097440790864,822.7328552031188
1731144243.4256637,828.516485327833,797.5254422512231,812.5780197355572,823.5037395063015
1731144243.42644,817.7179168592266,797.6555175358001,813.3296892146499,818.3305914510946
1731144243.4295647,805.3185774976854,797.785761385179,812.5706362301447,811.9281362892413
1731144243.4334655,803.9826730828574,797.9162512930834,813.1347593990806,809.5978261756713
1731144243.4373662,815.9779915536965,798.047027695996,815.8200195045914,812.8884952542578
1731144243.4412673,831.3497137341262,798.1781010287584,818.6547181836802,818.2426156716338
1731144243.442,836.6744330745446,798.309475114654,818.5301912744877,819.7327989927293
1731144243.4443226,826.9340152447996,798.4411626927457,813.9148840093261,813.7753944265818
1731144243.445168,810.1833636164403,798.5731850639953,806.4070711725575,802.0656688437149
1731144243.449069,800.8276074860352,798.7055605038727,799.7467118635628,790.3246520309165
1731144243.4529698,807.1305970583923,798.838292921455,796.9649793312465,783.7880148820033
1731144243.4540758,823.545343042042,798.9713744139322,797.9579049441528,783.0449921489328
1731144243.4568708,834.4924613869183,799.1048097798447,799.5622399737802,783.6450386349939
1731144243.45756,826.7989799705313,799.2386524784268,798.2253594806087,779.887462488768
1731144243.4607716,800.8482098900621,799.3730145716748,793.1360716986552,769.7666915779402
1731144243.4631848,771.2365721554703,799.5080030974714,787.1231054021235,757.0002116520609
1731144243.4646723,755.9040472930346,799.6435790670283,784.3882456595732,748.3829659084649
1731144243.468573,762.1179631649666,799.7794418441227,786.8810486832558,748.5731698257813
1731144243.472474,780.7642888411201,799.9151404330241,792.4573319859664,756.5848504943009
1731144243.47312,794.0075085548824,800.0505505317525,796.5491926495333,766.8178942786108
1731144243.476375,790.2300230069628,800.186508850551,796.0101707762484,773.610481190989
1731144243.480276,773.7457514636903,800.324891175502,791.8148174956987,775.4274878604809
1731144243.482047,761.0456062975074,800.4672828146302,788.2316487607553,775.3310396218576
1731144243.4841769,766.7518489472993,800.6123067974266,789.1366821615511,777.6276912848
1731144243.4880776,791.047231246129,800.7537126636454,794.5925715784314,783.6505189071831
1731144243.48868,818.881519445451,800.8830111730803,800.5933741889233,790.1417631296268
1731144243.4889517,831.4644167376317,800.9988492833098,802.2330102082459,791.5471375743755
1731144243.4919786,820.7803519941174,801.1184201114747,797.7177092365779,784.4941928491825
1731144243.4958794,795.694469003938,801.276965003237,789.9086538467969,771.00103724171
1731144243.4997802,774.9519591371135,801.500123758744,784.0740545784146,757.8052718767661
1731144243.500909,772.6781859184213,801.7527816581454,783.6939245823709,752.0969819845502
1731144243.5036812,787.9067928242933,801.9059725226078,787.8528300716433,756.7326088195599
1731144243.50424,806.395620398053,801.7814718705284,792.40083277027,768.4473605507923
1731144243.507582,812.9368796131699,801.2704958904386,793.7361614146864,780.2794727627358
1731144243.511483,803.763366898319,800.4147078879652,791.7664294791268,786.2599151162185
1731144243.5153835,788.8248816137516,799.3515509274907,789.4924806072216,784.9128465269941
1731144243.5192847,782.4956504790836,798.1947054955727,789.8569851992681,779.2804257189453
1731144243.5197716,790.9752654850336,797.0140676119752,792.9239854839732,773.9216499360792
1731144243.5198,806.9909811339568,795.9521717453597,795.9041298471637,771.4708181584557
1731144243.5231855,815.8999141133575,795.3309923915948,795.7853108342232,771.3582208051382
1731144243.5238276,807.9049342086762,795.5803420572524,792.0764959294588,771.3542678648414
1731144243.5270865,786.455367080369,796.9674086148649,787.3098392090709,770.2793946310984
1731144243.5309873,766.1388352118444,799.287381807888,785.026407086583,769.3323937802678
1731144243.534888,761.5825637834753,801.7549811705001,787.0311022112197,770.7644329269667
1731144243.53536,775.8645411558957,803.2586393087391,792.1150629116204,775.0930366455647
1731144243.5386338,797.5249126025908,802.9184054103144,797.1034048168326,779.6019778996688
1731144243.538789,808.8680524731448,800.6306276432674,799.2357892730408,779.9595443513856
1731144243.5426898,799.472112987427,797.197131852357,797.9886852747179,773.9808153934433
1731144243.5465908,774.4432514075145,793.8919039125053,795.0723395823749,764.324917906026
1731144243.5504916,750.7609014721188,791.7725787978723,792.8507249546415,757.436248570352
1731144243.55092,744.4152375795892,791.2572218613594,792.5822618616058,759.0633703573851
1731144243.5543926,758.4293934813072,792.1963539812854,793.79302919505,769.6645130431468
1731144243.5574963,781.1094504844189,794.183655635377,795.0007864656641,783.3870070937056
1731144243.558293,795.6221946863038,796.7258893368772,794.975498423825,791.7369366041979
1731144243.5587034,793.1065678061469,799.2388607033482,793.5781376557838,789.4924872367653
1731144243.562194,779.0120923872952,801.1548511399671,791.7954309426091,778.5207119801846
1731144243.566095,767.9147382140908,802.2613184471049,791.1369549841714,766.4685024971011
1731144243.56648,771.206997996386,802.9371849027301,792.7231356127274,761.1140787232544
1731144243.569996,787.696345792881,803.8508865369881,796.4297905818364,764.698113633439
1731144243.573897,804.7666795118448,805.2050631380685,800.58579812097,772.7872846442339
1731144243.5763586,809.0578841698785,806.2311221329311,802.6577449015829,778.5916782473092
1731144243.5777977,797.6289497140272,805.5769672753981,800.7688306461223,779.0333112871996
1731144243.581699,780.1213918575925,802.4128071686924,795.113624800968,777.3038996207625
1731144243.58204,770.1442331359732,797.3099527733965,788.1538887980561,779.6830720482105
1731144243.5855994,773.4078019742341,792.0539010485246,783.2739722498521,789.4318751524282
1731144243.5895004,782.9012267837813,788.4701840890741,782.7482004707886,803.1660450962194
1731144243.5934012,785.2253864077566,787.2022942255098,786.4355727976181,812.948661124058
1731144243.5935793,772.5689046968413,787.4206145547327,792.0926906013951,812.3901292183566
1731144243.5952208,750.0994865751989,787.6675122759532,796.988691862034,801.6863100005082
1731144243.597302,732.5075742427251,787.1199422287125,799.5510746919942,787.5347553543712
1731144243.5976,732.4439987825742,786.2164584159091,799.8407458211235,778.1220526814511
1731144243.601203,750.2149104692955,786.1334492462763,798.7325806527349,777.2303154892272
1731144243.6051035,773.177873446742,787.5985066958882,796.8414716652899,782.0152289472496
1731144243.6090047,785.5699419551588,790.1325576935203,794.3588844736157,785.9832105271663
1731144243.6129055,780.9853554340308,792.4149040217072,791.8566200943652,784.5781227745755
1731144243.61316,767.3067826807469,793.3965073512336,790.8963703445045,778.7996949073961
1731144243.6140833,759.8827388744518,793.1016076718938,793.3363714460409,774.0154457520983
1731144243.6168065,768.4527478304317,792.4488213734346,799.6366887960068,775.1793912746822
