timestamps,eeg_1,eeg_2,eeg_3,eeg_4
1731142764.9033985,802.2289576313119,800.9846398944203,804.914765262447,808.9089039141836
1731142764.9223008,795.1351631178909,802.3589801937086,806.1661555958372,804.6998066758638
1731142764.9412034,799.4066237555276,802.8309473344466,807.002418296356,805.5763156370905
1731142764.944929,817.2056067427224,801.864077860172,806.8668952166225,813.0425516296799
1731142764.9517002,838.9543464411402,799.5876065539054,805.2494950118556,823.7462695152461
1731142764.9555995,849.940990969961,796.8083144267407,802.1056421108742,831.6920066793407
1731142764.959499,841.9047675491263,794.5613551537762,798.0320826804347,832.8354661715498
1731142764.960106,820.6110539733351,793.4271369452541,793.8834683056297,828.6512295937164
1731142764.9604824,802.3014219869833,793.1914097671909,790.0826477666014,825.2787699871637
1731142764.9633982,800.7177210451142,793.2120660404777,786.266987438533,828.1919639083677
1731142764.9672976,815.3279328678784,793.15888340319,781.6961505227495,836.6508695752173
1731142764.971197,831.6117213602997,793.3447672034467,776.2019591129355,843.2398071299598
1731142764.975096,834.0327437824949,794.2519065182414,770.9391751887498,839.7514382450547
1731142764.9760356,820.3523163033777,795.7423199796049,768.2123512714613,824.7458853439273
1731142764.978995,803.9566257531625,796.8605340066221,770.2426382300339,805.9715106315421
1731142764.979009,801.6519824786236,796.5691861375118,777.5612353579087,794.9765550630218
1731142764.982895,818.0512182911942,794.76615733243,788.1827318662918,798.158755529002
1731142764.986794,841.0942323037933,792.5613482355405,798.3396035166286,811.8566643882226
1731142764.990693,853.0088486571196,791.4529715076882,804.4722188900823,825.7105002122562
1731142764.9915893,846.6821980338973,792.0952096778515,805.170899476352,831.3394503930823
1731142764.994593,832.2694415931342,793.7657699065423,801.7153625763974,828.77648777809
1731142764.9979112,827.6778464573762,795.0190334063016,796.8736753142168,825.2271043668404
1731142764.998492,841.4166305071687,794.9305463903115,792.9262642945176,827.7095393291471
1731142765.002391,863.696630383766,793.8090790314717,790.4202384339849,836.5898621899727
1731142765.006291,874.5218938511467,792.7667367710405,788.4989241208656,845.8351911010143
1731142765.0071423,861.9000753932726,792.609678563835,786.3453433579095,849.1649965564886
1731142765.0101898,833.5298092971548,793.1246949373638,784.3995708348839,845.7437023595327
1731142765.014089,810.8878223453986,793.4159445541893,784.2390761346594,840.0359793382939
1731142765.0168138,810.7479308973899,792.9199967426541,787.1260361596525,836.6343339852764
1731142765.0179884,830.8039862248378,792.0923550923021,792.3753975216637,835.7459987141536
1731142765.0218878,852.3037810478363,792.094321286605,797.0327761042963,833.827914156049
1731142765.022696,857.0223385832264,793.7511158287642,797.5120117358697,828.2950873005975
1731142765.025787,843.0112561749745,796.7044430064456,792.2625832413094,821.1561775090001
1731142765.0296865,825.0738553148859,799.4888347426287,783.416887851714,817.6965867387561
1731142765.0335858,820.1608144657629,800.4734949748818,775.8646866121995,821.3627395773665
1731142765.0357163,831.6414000933124,798.9600181357181,774.1895663185813,829.8435170714992
1731142765.0374851,847.0857045830472,795.6938014387257,779.7223805714116,836.3956986240889
1731142765.0382493,851.2714496871808,792.5087459788025,789.9035161576543,835.5768892894189
1731142765.0413845,841.6557056529687,791.3448683182802,800.206956723321,828.2028499763171
1731142765.0452838,831.1546754446282,793.1845314445159,806.8596772208286,820.7068759047794
1731142765.049183,835.2336552548439,797.5082914052566,808.2957285315939,819.162601902575
1731142765.0530822,855.6275842669123,802.6368675296305,804.7945903484822,823.4699958725151
1731142765.0538027,876.7036418769962,806.7758024970086,797.4460915188965,827.4089917278369
1731142765.0546193,878.7283418672587,809.0245749906727,787.8086846578436,824.8220861653438
1731142765.0569816,856.2534690605014,809.6297416418154,778.3367836573211,816.1736130038009
1731142765.060881,824.7235321162657,809.4501512806074,772.3854087516212,809.1158230861463
1731142765.0647802,808.8647432215344,809.2412719677441,772.8387431702578,812.22422753363
1731142765.0686796,822.5637598849825,809.311827961099,779.9886227057856,827.4081806912791
1731142765.0693562,857.2398941253399,809.6088837605417,790.5308476006351,847.6341071854489
1731142765.072579,888.26200010088,809.9646928401995,799.0098450687133,861.7703621256853
1731142765.0735216,893.9204675889299,810.2694334347494,801.0525838330175,862.3894130734375
1731142765.0744252,871.6358871440958,810.5076022280977,796.0967094455959,850.4311223079388
1731142765.0764782,838.8493644945695,810.71418461305,787.5694475708275,833.6487673503991
1731142765.0803776,818.4564929886135,810.9240931820883,780.4514094054493,820.6214253510668
1731142765.084277,820.838535294415,811.1504235013751,778.1733572584604,815.1040804838458
1731142765.0849094,837.0645896700013,811.3887211499156,781.1224228573531,814.7984765908993
1731142765.088176,848.4663983986925,811.629775240734,787.4615309294103,814.9539217665709
1731142765.092075,843.9063726059761,811.8680869664046,795.0052282020102,813.2805836685025
1731142765.0924242,829.5152183967698,812.1031890443592,802.3432640242704,811.6950163317167
1731142765.0959747,822.4836301649431,812.3370685197542,808.5713863524386,813.4506911920383
1731142765.099874,834.7028608529935,812.5715255865703,812.5135117473206,818.6140211444961
1731142765.100463,860.8783525056398,812.8071555373981,812.7028652674967,822.4715953017578
1731142765.1037734,881.5298771272776,813.0436640143014,808.4400810339465,818.72834425701
1731142765.1076727,878.3156585589576,813.2805567694487,800.9964286554723,804.9196787533912
1731142765.1093333,848.9064844676574,813.5175575266948,793.6322036626945,785.4088792094094
1731142765.1113267,809.3634511370552,813.75464805343,789.9360586343316,769.2808286244041
1731142765.111572,782.224946325471,813.9919255163727,791.4652425173489,764.4729924134203
1731142765.1154714,779.7168588853698,814.2294788323195,796.5550965455204,772.3680080038127
1731142765.1160164,795.1446938165707,814.4673552246912,801.4865942492498,786.7984981698784
1731142765.1193707,809.0718493851012,814.7055758507485,803.254882053655,798.2438432199814
1731142765.12327,805.270775549697,814.9441317798012,801.6634852864962,800.151241875616
1731142765.1271691,783.6513518026987,815.182940681765,798.9742214399017,792.7004629459543
1731142765.1302292,759.7990694176365,815.4218232872058,797.5610785003091,781.4572066666209
1731142765.1310685,751.6706825863282,815.6605986374742,797.8085710737271,772.6110516341948
1731142765.13157,764.4779808195792,815.8993275699909,798.0964329853774,769.0104963872233
1731142765.1349678,786.146696315061,816.1385388709054,796.6235104032279,769.6890659864624
1731142765.1388671,796.9584140656066,816.3790752732322,793.2042427390886,772.041071555816
1731142765.1427665,785.461631881638,816.6212735319166,789.4918597795848,774.0694244359436
1731142765.144241,757.8626715136423,816.863787592056,787.714951552047,775.1699366895242
1731142765.1466658,733.5260741127923,817.1032948444553,789.1798995265143,775.6767232728554
1731142765.147123,730.2257321716024,817.3366859011248,793.5732273629457,776.1060808326955
1731142765.149132,750.6411003605932,817.5658495121221,799.1768968515967,776.7259646423419
1731142765.1505651,780.5079144418144,817.8015387287405,803.6051866372443,777.528813165262
1731142765.1544645,799.8682577074361,818.0594782284586,804.7703095614238,778.392898651341
1731142765.1583638,798.64315691375,818.3440772102506,801.8645442299547,779.223301346647
1731142765.1622632,784.0075911382436,818.626977300661,795.9188613566191,779.9958477204004
1731142765.1626766,773.3170671013368,818.8447520388947,789.4069961868603,780.7318236795983
1731142765.1661625,778.3819635589738,818.9444556722121,784.8430922054932,781.4587127828196
1731142765.1680346,794.7571008737154,818.9741214516046,783.1269216166759,782.1894530492001
1731142765.1700616,805.9225725676082,819.1457885729573,782.8365050968719,782.9226126054808
1731142765.1739607,799.2432859562247,819.7414832242,781.2415810098174,783.6514469066876
1731142765.1778605,779.5615601647817,820.7858532643658,776.5828522395935,784.3711146624621
1731142765.17823,767.3553376463669,821.6375031220613,769.934960478624,785.0805934306699
1731142765.1791494,781.4513761431648,820.9412634855947,764.927444913006,785.781118432968
1731142765.1817596,820.4572429749553,817.3542395226032,765.200261669536,786.4740996729929
1731142765.1856587,859.7566016102298,810.7752925602929,771.5621439785998,787.1601149221722
1731142765.186937,868.7168080838248,802.971446911889,781.3615502244949,787.8389983328968
1731142765.1895585,835.2666985150966,796.706602879034,790.7393896371801,788.5103552449898
1731142765.1934576,777.4069619939722,793.8731839497707,797.7715610617979,789.1739492227438
1731142765.1937835,731.0830754010318,794.1756618333529,803.6372561067438,789.8297877025551
1731142765.1973567,723.4664274383005,795.4465331602282,810.8356071057395,790.4779910189287
1731142765.2012565,753.1030733012212,795.2745784039251,820.3060622627158,791.1185981293215
1731142765.2051554,792.6683158781035,792.6383940726919,830.2726087006317,791.7514471938416
1731142765.2058396,811.330280372042,788.394438903371,837.8168926830841,792.3762478272213
1731142765.2090547,798.2080328982798,784.4657113547389,841.4993729344504,792.992894545029
1731142765.2093368,768.694920583355,782.5044521336367,842.4717744648711,793.601872546954
1731142765.212954,750.0888167091131,782.978127644953,843.1613429905881,794.2043207235077
1731142765.2140574,759.2278257921365,785.1181143361265,844.9538270512721,794.801237242619
1731142765.2168534,789.9569629415076,787.5391649859667,847.0715668455365,795.3918567657956
1731142765.2207527,819.3278589349837,789.0314668198187,847.5117487742109,795.9724552080187
1731142765.224652,826.3993105176651,789.0886493366029,844.9703526545782,796.5378782829955
1731142765.2247424,808.2463728825542,787.9823956071568,839.9648163665637,797.0871800147137
1731142765.2248902,780.9727391741299,786.4573624245091,834.3260444527142,797.6306260916974
1731142765.2285514,765.8977010868408,785.2862437151728,829.7413526620757,798.189693363206
1731142765.2324507,772.554944031805,784.9319455708203,826.7009639526261,798.7807760325719
1731142765.23635,791.9446154739028,785.4452572798947,824.6190062803139,799.3846687468858
1731142765.2402494,804.8181733517584,786.5869282537412,822.7602044805612,799.9273122130406
1731142765.2404437,797.8539879352793,788.0664287541695,820.9621407973539,800.3147036973322
1731142765.243645,774.6667081487496,789.7368796129562,819.5521610363537,800.5429906937528
1731142765.2441485,752.9502335842093,791.6080026176568,818.8016652733319,800.8231803978698
1731142765.2480478,750.059473989489,793.6866978928579,818.6202896759339,801.5577705773728
1731142765.2489655,768.5078430272454,795.8431431362862,818.6935177178169,803.0044009763267
1731142765.2519472,793.1472708969984,797.9042126291167,818.7538058868761,804.6927852682312
1731142765.2558465,802.7394649296523,799.9101308501829,818.7036919048954,805.092141621065
1731142765.2559967,787.0233381027267,802.2020931779697,818.5741132603775,802.2738012697592
1731142765.2597458,755.5691960616848,805.1119871335873,818.4300574929307,795.707271503037
1731142765.2625475,731.0386052505559,808.4760780731601,818.3099650924537,787.7935114755853
1731142765.2636452,732.0549262964257,811.4815628150936,818.2166702643153,783.0371944147287
1731142765.2675445,759.2477212525772,813.069342066473,818.1358836838601,784.7805861908706
1731142765.2714438,795.1675684052973,812.5401024802734,818.0548768319468,792.2857091085668
1731142765.2715504,817.4066944232923,809.8412542352486,817.9695497654455,800.808815937295
1731142765.2753432,814.208121626966,805.4508929093214,817.8820802827958,804.4083472458951
1731142765.2792425,791.0221678677461,800.2160768790848,817.7959905545298,799.2147322889923
1731142765.28145,764.3977726314964,795.3532126100462,817.71318530609,785.236707361193
1731142765.2831416,749.0795328397405,792.3369487588197,817.6336879285434,766.0787866027703
1731142765.2838736,748.2288444739489,792.3413659054103,817.5567012616805,746.9889627822504
1731142765.2870407,753.447082704724,795.4406800953738,817.4815749535344,732.4009429567994
1731142765.287104,753.7941654027793,800.2740876785822,817.4081277148882,724.4801661862919
1731142765.2909403,746.3456337278463,804.6621281383866,817.3364899009755,723.5150464380187
1731142765.2948396,739.5210412108014,806.856304574533,817.2668375239748,729.3725207040306
1731142765.298739,745.9617920188705,806.500440993594,817.1992468074574,742.1436869960148
1731142765.3003526,770.5971517319341,804.599032750251,817.1336950980183,761.010737463712
1731142765.3026383,804.3872099110696,802.6287818189193,817.0701286558481,782.6104270035768
1731142765.3026574,830.0066142885805,801.5843195986328,817.0085168359556,801.2403374036539
1731142765.3065376,835.3633370582364,801.6340428342162,816.9488560368608,811.6618598740992
1731142765.310437,823.5649832267758,802.4035102415559,816.8911299016402,812.5164637624307
1731142765.3143363,810.6200056192713,803.4204246957589,816.8352632412718,807.4212575482042
1731142765.3182106,812.5007103949706,804.3443878154239,816.7811247846278,802.6609656917044
1731142765.3182354,832.0404080194621,804.9946549700619,816.7286205328555,803.1565125173048
1731142765.3187816,856.1817213146554,805.372378259191,816.6778484814662,809.5816567826573
1731142765.3192554,865.8931593440219,805.7092351232712,816.6291683700132,818.4884710868415
1731142765.3221347,851.3411817418386,806.3724241263312,816.5829760190196,825.2142615567641
1731142765.326034,820.6674639627407,807.5444172759002,816.5391226525594,827.5203805356869
1731142765.3299334,794.9926391251857,808.9069021832206,816.4963542786463,827.2905330067155
1731142765.333764,792.5762714904479,809.6937321197162,816.4526124627581,828.8190818619812
1731142765.3338327,814.1855190901568,809.1874780778415,816.4069009832334,834.9021231972432
1731142765.337732,841.8668239191537,807.2724984792269,816.3620814054574,844.0757082573917
1731142765.338158,852.9579280610026,804.5444645529046,816.3257658163769,851.615820973925
1731142765.3416314,838.2647794294164,801.8827895473869,816.3054848003829,853.5347056109607
1731142765.3455307,809.3288510156378,799.8997064647688,816.2975602533071,849.9674627753644
1731142765.3493176,788.7750339031618,798.7482447146734,816.2775051329446,844.9501604270495
1731142765.34943,792.048211742862,798.3529866407737,816.2079227376427,843.0019444369312
1731142765.3533294,815.7432256282418,798.6941965306,816.0756089075448,845.6950829391936
1731142765.3536897,841.5516022869278,799.7797980483995,815.9425767877314,851.0398508251681
1731142765.3570604,851.6365353364081,801.344943252789,815.9550405199739,855.7758242228499
1731142765.3572285,842.3785212117297,802.6744252726446,816.2407353368535,858.2386095323632
1731142765.361128,825.58843302151,802.8644754882132,816.6932703888646,859.2692102800553
1731142765.3648708,816.9475286494581,801.401921699169,816.7996278624552,860.5093213697772
1731142765.3650272,821.8854013938865,798.5929344289444,815.7956838391428,861.7745568953264
1731142765.3689263,831.0938790832362,795.476619404396,813.2876696538065,860.1698136122496
1731142765.372826,829.6452563050811,793.2951996653313,809.9487834493326,852.2676712102352
1731142765.375963,811.8006999095666,792.9181283544974,807.4823877044457,837.8479749613189
1731142765.3767252,788.2317475222368,794.5541612079518,807.4868951686076,821.7832987391931
1731142765.3804245,778.609875833339,797.7870408218645,809.9599164908716,811.7155431503047
1731142765.3806243,795.2614125842955,801.7776632868047,812.770361891865,812.7302921321515
1731142765.384524,831.6992167566979,805.5140446323508,812.8212206702998,823.2153693025854
1731142765.3884232,866.1038634578433,808.0977177568286,808.2639483654478,835.5424951633743
1731142765.3885975,877.4288833274943,809.0486238146985,800.0827831090089,841.3507859231446
1731142765.3923223,861.3644552422594,808.511460960738,791.6489389523531,837.4115229559646
1731142765.3948655,833.4979640225924,807.2148043294126,786.4504634277747,827.6125843840184
1731142765.3959775,817.1822641142471,806.1520890981844,785.7763647046269,819.6984753240116
1731142765.3962216,825.5322185823397,806.1320627004498,788.1674463214672,819.330099410156
1731142765.400121,851.5045331721542,807.4341878674242,790.8953166031341,825.867519027993
1731142765.4040203,873.8313146011373,809.7410768560546,792.0797858433841,832.9707755173088
1731142765.4079196,874.230725316541,812.3660468589098,791.763430774554,833.6556211216795
1731142765.4115312,852.2698987489114,814.6415462293407,791.3642172047246,826.0989350449372
1731142765.411819,825.9269445907262,816.2397523921591,792.2294680322628,815.6503631284676
1731142765.4137683,817.2854077183739,817.2102246811121,794.4567153685705,811.1200167758632
1731142765.4157183,834.7498669329477,817.6957207327782,796.7045092339991,817.8586361865049
1731142765.4196177,866.0056404109606,817.5689603203328,797.0184774902411,833.0113704511829
1731142765.4235058,887.452988748451,816.3746609280829,794.1700929202219,847.0211911336024
1731142765.423517,882.7852307411172,813.7330101327582,788.6978482242403,850.6161711767716
1731142765.4270844,855.9763592370384,809.884627489019,782.8652888110803,841.8937538701446
1731142765.4274163,828.14410174965,805.8055633847193,779.3469817094727,827.7033103986004
1731142765.4313157,820.5940762018873,802.6459094648409,779.4443923782859,818.0424189249943
1731142765.4326708,837.7467855994189,800.918815301016,782.1984640278455,818.0580252548727
1731142765.4352148,864.0492011884487,800.2071168686637,785.1857416780263,824.4041377804378
1731142765.439114,877.4932562958269,799.7203047235914,786.3923300341988,829.0248988637753
1731142765.442638,868.3372314525578,799.1826895942269,785.6129636483167,826.9156839967894
1731142765.4430134,847.1375325290585,799.1525898495712,784.259877916243,820.83467591247
1731142765.4469128,835.3844891084426,800.4263882293898,783.897519792936,818.657631634738
1731142765.450812,846.9440224411525,803.1169450151831,784.8896745200205,825.7601465283502
1731142765.4515734,876.075045513577,806.3138408628803,786.2935320377724,839.3865112157148
1731142765.4547114,901.771706496349,808.6292902585776,786.9064615889674,850.2167452958712
1731142765.4581914,904.4302384174265,809.1065831284782,786.3790661302485,849.9059742251341
1731142765.4584138,881.1918296113151,807.7414296525975,785.394725659537,838.08443784955
1731142765.4586108,847.9976578979664,805.310250516709,784.8488225406401,822.7729191046569
1731142765.46251,827.1388996537365,802.7625752533036,784.8443589402405,813.8160926857043
1731142765.4664094,830.2869834705684,800.6621695498474,784.4606797449234,814.8487395565875
1731142765.4703088,850.3239240285785,799.0223081685579,782.6030044927127,820.518852869935
1731142765.470476,868.2670177003818,797.5689881693223,779.3024860176698,821.2570909285025
1731142765.4737449,869.4915379026257,796.1781485762873,776.3180823075365,811.5987963822785
1731142765.474208,855.8964187615481,795.1255274247259,776.2779681266975,795.1893942456414
1731142765.4781072,843.9502732461918,794.9357779716357,780.7264779109448,782.3839442484964
1731142765.4820063,850.1697277623658,795.9303617581181,788.4704771093452,782.3332131650088
1731142765.485906,876.0048269013981,797.8264089716438,795.6469848150489,795.7808642166693
1731142765.489298,904.7801968823512,799.7393343565825,797.8118368819609,814.1725308781129
1731142765.4893785,913.740173664664,800.6732148943071,792.852093296814,825.7414666843475
1731142765.4898052,892.0892378005908,800.2118141873261,782.7375996037485,823.8925142965369
1731142765.4933217,850.7702296508421,798.908621827364,772.6816113622484,811.5445727395428
1731142765.4937046,815.6806746248475,798.016641146403,767.970916532274,798.3014254395208
1731142765.497604,808.8412066034708,798.6681063460667,770.5093439778892,792.8748713239329
1731142765.5015032,831.956727454584,801.0822926603967,777.5914258423908,796.7637210821638
1731142765.5048516,865.5433874485026,804.4170649272662,783.9163312764871,803.987215628198
1731142765.5054026,884.4880225105442,807.3697087910041,785.3611856803267,806.6817186392491
1731142765.5082812,877.3326076947787,808.9958501813568,781.646147035159,801.6968842494158
1731142765.509302,853.5005267011372,809.074356668569,775.9952972900873,792.7737449660682
1731142765.513201,833.1536089147492,807.8567225329367,772.3676506250736,786.7748904354708
1731142765.5171003,829.2809055389339,805.6544642941872,772.6414680951464,787.4290362424389
1731142765.5204053,837.7013906100786,802.7690082755036,775.8426143652102,791.9917841394248
1731142765.5209997,842.7621033205032,799.7423273039715,779.5966667444089,793.5815643654291
1731142765.524899,832.316798675629,797.4590825696578,782.2412329345154,787.0823639239712
1731142765.5271838,808.0911016178386,796.7908144427529,783.8468555895903,773.5955680305304
1731142765.5282297,782.9421276901362,798.0224458173518,785.6123178905692,759.8204329045351
1731142765.5287983,769.0440554083232,800.5864077207668,788.4553798837669,753.0485365460714
1731142765.5326977,768.7245992951589,803.3510603512834,792.0546327699658,755.9684406156045
1731142765.5359583,775.4006681276904,805.2149392752013,795.0401935752568,765.3528587917262
1731142765.536597,781.1567311569167,805.5674153659328,796.0962318147099,775.1911432072251
1731142765.5404963,782.4602359661395,804.4041015280081,795.0834791227684,781.1180303421211
1731142765.5443957,780.2653630894254,802.2045381505066,793.2946920199371,782.4857110310335
1731142765.5460863,777.0671022572764,799.7581563265629,792.6239012925331,781.2514670655687
1731142765.548295,774.5315242168998,797.9735537910261,794.3023897425303,779.656545093869
1731142765.5515118,772.9493980649926,797.5930575077248,798.2090492705604,778.8184105421991
1731142765.552194,771.8458050146836,798.8371413916341,803.2383375268721,778.7235701209299
1731142765.5560937,770.7157594405573,801.2053252016927,808.2632136183371,778.897253132054
1731142765.5599928,769.3576145420178,803.6805889083396,812.773273431434,778.9684613368763
1731142765.5631378,767.8263245596405,805.3019206078611,816.7302711881885,778.8444208969017
1731142765.563892,766.2528604880742,805.7133177393121,820.0367032180432,778.610560151762
1731142765.5649889,764.7190424682692,805.2593016147806,822.3347613022419,778.3757947311993
1731142765.5670652,763.2344369272081,804.5888693395502,823.341613049995,778.1912307198903
1731142765.5677917,761.7715709925418,804.1643541752579,823.240061412605,778.0513045666148
1731142765.5716908,760.3042139638902,804.0721800030805,822.6179995449788,777.9296710177458
1731142765.57559,758.8230589702333,804.1594754740806,822.0459528243105,777.8076114201423
1731142765.5794897,757.3318928126407,804.2542658639505,821.7639897723567,777.6814795244907
1731142765.5826187,755.8377726179141,804.2800054523912,821.7072359876995,777.5564856428964
1731142765.5833888,754.344764585119,804.2477641782059,821.7109582732336,777.4384928472799
1731142765.5838914,752.8531261832248,804.1989644951495,821.6674122033617,777.3300847716572
1731142765.587288,751.36133919128,804.1620762223117,821.5596993034312,777.2309264229312
1731142765.5911872,749.8680978666636,804.1421849557355,821.4202221739314,777.1397447650074
1731142765.5950866,748.3730355485422,804.1311483773936,821.2822390420251,777.0557679572931
1731142765.5980458,746.8764549449239,804.120236257801,821.1585763861829,776.9790325891526
1731142765.598172,745.3787987207737,804.10593378907,821.0452682363705,776.9100123380796
1731142765.598986,743.8803395271902,804.0891781780056,820.9336201135407,776.8491869395399
1731142765.6027942,742.3811585903031,804.072249020766,820.8183510746446,776.7968547773964
1731142765.6028852,740.8812621946855,804.056592984504,820.6989609394716,776.7531672429095
1731142765.6067846,739.3806843235076,804.0424092061877,820.5773306693305,776.7182368941584
1731142765.610684,737.8795175083018,804.0292505146659,820.4552028065823,776.6922096811536
1731142765.6137254,736.3778911471945,804.0166855993724,820.3331845772052,776.6752764936327
1731142765.6145833,734.8759402854523,804.0045736205643,820.2110283337892,776.6676512986317
1731142765.6184826,733.3737944340413,803.9930006435643,820.0882857855896,776.6695485051108
1731142765.6216967,731.8715918188632,803.9821104266014,819.9647140631206,776.6811741636027
1731142765.622382,730.3695032622743,803.9719955205454,819.8403212839394,776.7027287135714
1731142765.6262813,728.8677366018384,803.962682328709,819.7152285452567,776.7344129955119
1731142765.629279,727.3664959632513,803.9541658803314,819.5895391713229,776.776431580788
1731142765.6301804,725.865903474761,803.9464442369681,819.4632929546206,776.8289920796116
1731142765.632954,724.3659511390906,803.9395312353178,819.3364859865295,776.8923023047195
1731142765.6340797,722.8665921625804,803.933451948918,819.2091067177901,776.9665683884676
1731142765.637979,721.3680216885475,803.9282335502638,819.0811561555503,777.051996502461
1731142765.6405993,719.8709883772963,803.9238998982181,818.9526470247748,777.1487984323862
1731142765.6418784,718.3767242391659,803.9204711013338,818.8235921158157,777.2571968065221
1731142765.644832,716.8860883998649,803.9179654855973,818.6939946640462,777.3774216457542
1731142765.6457777,715.3981268475867,803.9164013590151,818.5638498180414,777.5096918656844
1731142765.649677,713.9093669328762,803.9157975792584,818.4331592178341,777.6541886991837
1731142765.6535764,712.4158464249736,803.9161732451712,818.3019496572671,777.811048747925
1731142765.6574757,710.9185544292125,803.9175471975433,818.1702744464282,777.9804124247764
1731142765.6595018,709.4289001560257,803.9199377430022,818.0381750547502,778.1625304323148
1731142765.6603856,707.9662961053714,803.9233626395686,817.905607988711,778.3578501035794
1731142765.661375,706.5409081192553,803.9278391970238,817.772397529008,778.5669290450107
1731142765.665274,705.126971730326,803.9333843573048,817.6383168955474,778.7900722048278
1731142765.667862,703.6529514856696,803.9400147095519,817.5033496830519,779.0268527334446
1731142765.6691737,702.0451955458661,803.9477464612127,817.3679904336285,779.2760586428088
1731142765.6730728,700.332602707881,803.9565954019417,817.2331993931847,779.5367072639705
1731142765.675939,698.7411283842661,803.9665768806682,817.0996186604574,779.8100688748717
1731142765.6769722,697.6274084397241,803.9777057964442,816.9662095557951,780.101096066894
1731142765.6784043,697.1350098066188,803.9899965948118,816.8295243453364,780.4163922752841
1731142765.6808715,696.706405703639,804.0034632627758,816.6855125125783,780.7570812624915
1731142765.6847708,694.9728413978642,804.0181193203699,816.5345979495543,781.1101786022467
1731142765.6886702,690.6961339438951,804.0339778101754,816.3869852549032,781.4490206255946
1731142765.6914926,684.8276841711063,804.0510512867451,816.2607848682879,781.754141316409
1731142765.6925695,682.293342421106,804.0693518069315,816.166154910507,782.0513713126163
1731142765.6964688,690.9143392218389,804.0888909210827,816.0799583731928,782.4346147797071
1731142765.697307,716.1152009939999,804.1096796646493,815.9351792535554,783.0198516858915
1731142765.7003682,754.4717178156807,804.1317285498575,815.6600141396236,783.8059502096608
1731142765.70277,792.7278386948403,804.1550475573665,815.2755621690491,784.5208529456853
1731142765.7042673,815.7932036548427,804.1796461280003,814.9873852932291,784.6568635746214
1731142765.7070458,818.4811411787285,804.2055331546592,815.1283238221621,783.8931436765498
1731142765.7081666,810.5794102550672,804.2327169744705,815.8341254677354,782.7868582852991
1731142765.712066,809.7316213662144,804.2612053611742,816.5559002904971,783.0655306434628
1731142765.7159653,827.3580022793948,804.2910055177272,815.8614129045355,786.7626848242455
1731142765.7162097,859.3854537416471,804.3221240691137,812.0733303643983,794.5034087285909
1731142765.7198646,889.8086289505135,804.3545670553673,804.6895018979818,804.6258042194816
1731142765.7225993,904.1990607754874,804.388339924819,795.5054133734307,814.5103616008192
1731142765.723764,901.7135505200382,804.4234475275886,788.1331283927092,823.1971763404109
1731142765.7276633,895.4399520220172,804.4598941093302,785.8588711451714,832.5560272662649
1731142765.7315626,900.915768454851,804.4976833052339,789.369932875229,845.2918113858178
1731142765.7351122,922.6332152983964,804.5368181342772,796.1357895707753,861.2570411271219
1731142765.735462,949.8419223280913,804.5773009937254,801.9315126405029,875.733604560728
1731142765.737678,965.1016023092994,804.6191336539027,803.4091844695254,882.0789260351279
1731142765.7381527,958.6740091302088,804.6623172532906,800.013361439534,877.2220929244589
1731142765.7393613,937.1976376836574,804.7068522940236,794.1057791470417,865.4061460120885
1731142765.7432604,919.4238798121793,804.7527386377951,789.3024020394462,856.3303115118958
1731142765.7471595,921.7867475291207,804.7999755020442,788.0725503510638,858.3003492570044
1731142765.7510593,944.8879085907324,804.8485614561836,790.1430680732198,871.5956229190682
1731142765.753706,971.9925790320642,804.8984944177157,792.828140735518,887.7700546584815
1731142765.7540147,981.5362462771528,804.9497716485366,793.1058115884256,895.9949312174767
1731142765.7549584,964.1661363545975,805.0023897523635,789.9131110998669,891.5269542687186
1731142765.7588575,930.5768006122307,805.0563446743467,784.8926828520995,879.34634740465
1731142765.7627573,903.5135273919773,805.1116317027079,781.0461544660532,869.9767495233665
1731142765.7666564,900.241327197382,805.1682454696418,780.4488126069677,871.0489048680158
1731142765.7692597,919.5816513111253,805.226179946715,782.8699620172962,881.5596096608762
1731142765.7705555,943.6721749856218,805.2854284322565,786.2575241373055,893.2295764100177
1731142765.772586,952.5155161646782,805.3459835371793,788.473044789427,897.4163619478911
1731142765.7729173,939.4156205664254,805.4078371871266,788.8165668429381,891.8431233835912
1731142765.7744553,915.2722636362811,805.470980659499,788.3128185879817,882.0326630484627
1731142765.7783544,898.819448612026,805.5354046485095,788.7928447237166,876.7114805246082
1731142765.7822535,900.9389698764277,805.6010993022678,791.5468473550698,880.9799927377771
1731142765.7848127,915.8333742206797,805.6680541430039,796.4036200751933,892.5132210615128
1731142765.7861528,926.3806526577586,805.7362578342377,801.7443081600601,903.5655243002082
1731142765.7900522,919.2882791782122,805.8056979339508,805.4364138647937,907.0150548828703
1731142765.79182,897.1370359595737,805.8763609784157,806.1123903692875,901.6051226452373
1731142765.7939515,876.6881768080054,805.9482332186683,803.914062360573,892.3792565964986
1731142765.7978508,874.5593319797678,806.0213018108268,800.157078126135,886.3181003886233
1731142765.8003664,892.5187959336839,806.0955553388533,796.2335878842053,886.964534117686
1731142765.8017502,915.2264699494804,806.1709820320779,792.7282692630588,892.2936481818944
1731142765.8056495,922.5947531088157,806.2475652193857,789.5083416987,897.118252204299
1731142765.8074942,906.4285585318781,806.3252789722533,786.6162743188597,897.6100565006094
1731142765.8095489,877.4570234147644,806.4040905314299,784.9885563162119,894.0867059262284
1731142765.8107226,856.9808196285231,806.483974999924,786.0912494330777,889.9716988984201
1731142765.8134482,859.9412396062811,806.5649372274543,790.5310399274649,888.1157217291399
1731142765.8159196,882.9878602315347,806.6470186264363,796.8242648439524,887.807582804799
1731142765.8173475,907.0434051650393,806.730259037003,801.7289360305303,885.1806048140625
1731142765.8212466,912.3729317329472,806.8146094644144,802.3576269594313,876.8254254791883
1731142765.825146,894.1689355646174,806.8998573893572,798.503781900535,863.5018884689179
1731142765.8290453,866.0836564228141,806.9856899235152,793.0117201309957,850.4067678016335
1731142765.8296251,848.7936771270263,807.0719858774765,789.5790758836887,843.2313974879153
1731142765.831473,852.9477785515008,807.1592158449473,789.8168490225729,843.1089871005065
1731142765.8329446,870.49013964791,807.2485120145926,792.1935643519055,844.983944868079
1731142765.836844,881.3996951071795,807.3408681361379,793.7114354022787,841.3016447910998
1731142765.8407433,870.2348939689211,807.4354788080353,792.6151227522217,828.3233414238803
1731142765.8424022,839.0231390175528,807.5284906184723,789.6720090955104,809.878322532305
1731142765.8446426,806.1560654044556,807.6145271444241,787.1347419553811,795.2376898967364
1731142765.8470266,792.1853260501714,807.6924511350569,786.6344288708311,792.483407622229
1731142765.8485277,803.7300004784777,807.7726099593896,787.9607592057106,802.3837832207139
1731142765.848542,828.2069361141748,807.8770046063595,789.6153849588675,817.5123100817227
1731142765.8524413,843.7357633995153,808.0227657950029,790.4016114191772,827.4415948371943
1731142765.8563406,836.6121059209231,808.1908644995193,790.5487046761258,826.2538668874485
1731142765.8602395,812.3724274772919,808.3061098831378,791.4345451445475,816.7430243815918
1731142765.86258,791.2129161692261,808.2729606255863,794.25488001696,808.0572877208019
1731142765.8641393,791.2594072258572,808.0905935337918,798.8901259021532,808.5351256390408
1731142765.8674304,813.5218344274554,807.9895967344586,803.9894335430574,819.2827672815014
1731142765.8680384,841.1419041583111,808.434119668983,808.1376727311141,833.4865252379681
1731142765.8719378,853.4565344743605,809.8505049348369,810.9605017717585,841.8573663112725
1731142765.875837,842.8788014002383,812.1818268265454,813.1366473400998,839.6987424282692
1731142765.8773105,820.4612786786854,814.6431013638033,815.4120581335726,829.9353099725997
1731142765.8781333,805.8394661781795,815.9869150605366,817.6870357492032,819.9336180234736
1731142765.8797364,810.3772983819097,815.1797096680533,819.0849440493458,815.063556911564
1731142765.8836358,827.727049377887,812.0542065943043,818.8616444442218,814.4448422997417
1731142765.886333,839.5454368784916,807.4977693876396,817.2260667956617,812.3055093069374
1731142765.887535,831.4008566467704,803.0089779271109,815.3384255686661,803.6460918522687
1731142765.8914344,805.4169498036753,799.8747687971662,814.5544129127193,789.3064858277758
1731142765.8936868,778.9143430336328,798.5316481766243,815.5443721859269,775.9967363086256
1731142765.8953338,770.116648268991,798.5627737693761,817.874330095517,771.0932946326028
1731142765.8992329,782.9983568781702,799.2597407202837,820.2447323665154,776.5342938319101
1731142765.9031322,804.0453693119974,800.1990145970078,821.1900738129912,787.0194461666955
1731142765.9052355,813.4532195385564,801.3229081155087,819.8022669551445,794.0679768000317
1731142765.9070315,801.1793314270526,802.5497171812794,816.0466826014723,792.516160881278
1731142765.9092402,774.6972588023035,803.4313082813567,810.5495645181054,784.1118922297845
1731142765.9109309,752.6497841902487,803.3202388397347,804.1555381848408,775.4935930727326
1731142765.9122183,749.993089713523,801.9489501344985,797.6859079180434,772.5184763008245
1731142765.9148302,766.471800071432,799.833392342838,792.0183479909899,775.6559383972401
1731142765.9187295,787.2154474971752,798.0204147219823,788.1983642362177,779.9827169792366
1731142765.9226289,794.7904884462943,797.3277340049284,787.2410644981883,779.485259736345
1731142765.924138,783.2161329468818,797.7432103881575,789.620377581504,772.0452872406917
1731142765.9247935,762.7423961739241,798.515492809706,794.7876198576023,761.1294840826007
1731142765.9265282,751.2425867769562,798.8153112547467,801.0989235704122,752.9027214839116
1731142765.9304276,758.9274311652682,798.3412669266141,806.2947087400116,751.096533960395
1731142765.934327,779.0703140991455,797.3716435448994,808.3657024583939,753.7880844960213
1731142765.938226,792.9951758808368,796.346974536735,806.4123420239933,754.8826517758026
1731142765.940347,785.7615973083898,795.4939403805204,801.0599007708473,749.4237992622074
1731142765.942125,759.6468124757282,794.8603945718797,794.1840397172248,738.5690940993532
1731142765.9430406,733.8473599136332,794.6124983753446,788.0513521810641,729.8627924807148
1731142765.946025,729.9160108615463,795.1268263111386,784.2945724992386,731.8811232145065
1731142765.9471264,754.2355575364288,796.6589858875466,783.2573724785777,747.0390251246258
1731142765.949924,791.7933177398863,798.9258026779606,784.0856481892101,768.4829896369667
1731142765.953823,817.0634138860629,801.1507321785838,785.5258283990162,784.2928479025303
1731142765.9559004,814.0808742874483,802.6694460728229,786.8957593059199,786.308437373784
1731142765.957723,789.5495441964591,803.518662666625,788.4952390340374,776.5821689105003
1731142765.961622,767.5304262534033,804.3279343282304,791.1143984216325,765.8348930183132
1731142765.9619434,769.2550590619843,805.5261314538538,795.0737529279874,764.7804417680487
1731142765.965521,794.7008418620392,806.6612080317807,799.7051645364859,775.3906697006886
1731142765.969421,821.838617354719,806.6100011716175,803.8302129700645,789.4540403366358
1731142765.971454,824.6557814999725,804.5671705456531,806.8566218336791,795.5946513886682
1731142765.97332,794.8992293982559,800.8734242731416,809.457431753903,788.6711597209897
1731142765.977219,749.3264642388534,796.8734921555728,813.0760987474072,773.6337386876969
1731142765.980846,716.6977376987653,793.947392801278,818.5191228057439,760.9572123734368
1731142765.9811184,715.5386733357398,792.6196730235406,824.7842355385562,757.9418416499364
1731142765.9820344,740.60301213599,792.4682414993677,829.2424117977057,763.2182855566865
1731142765.9850178,768.1824733531389,792.723576783298,829.2958173021638,768.6154333400882
1731142765.9870071,775.2850634679528,792.8834334993729,824.3993828514433,766.4040906179463
1731142765.988917,757.2888972590994,792.855130270176,816.8514564387787,755.8926126603233
1731142765.9928164,730.4281643679808,792.7176938238541,810.546535232461,744.1961938839698
1731142765.9967158,717.6472915921604,792.5096168521652,808.4661549475674,740.6915210357109
1731142765.9997485,729.5952046203026,792.2684512633901,810.7854951977878,749.5539590764204
1731142766.0006151,756.343628464894,792.1947427776745,815.0492948023208,766.2171521835976
1731142766.0025606,776.4223308463172,792.6826837011686,818.1916885665747,780.539006912079
1731142766.0045145,775.2373962003846,794.1217775924794,818.7160232884696,784.257378686258
1731142766.0084138,757.2126829133344,796.6068571888408,817.3880404538463,776.9925627471135
1731142766.012313,741.6731792748362,799.7808942049038,816.1661112012307,766.2014485710712
1731142766.0162122,746.4007593284949,802.9375190648093,816.4695626968365,761.2339905422738
1731142766.0169425,772.7792620345734,805.3311905133168,818.163943022208,766.2319526672281
1731142766.018114,804.4650094383862,806.5147538637191,819.8574065613067,777.3864964990537
1731142766.018651,820.2065648691287,806.5193656125265,820.0895121016356,786.4977499872084
1731142766.0201116,810.4617444776777,805.7901386583272,818.462567108709,787.800192869063
1731142766.024011,784.8862863479101,804.9206726361147,815.8909310089,782.531317555364
1731142766.0279102,764.8533791185243,804.3354260076599,813.7785513329954,777.5881532029903
1731142766.0318096,766.6595296104439,804.1124856715568,812.7658102912826,779.412482406924
1731142766.033667,788.6167584876777,804.0682676608484,812.1424999638233,788.2360317084137
1731142766.035709,812.6146922773,804.0343836517316,810.5502933329285,797.6418973447874
1731142766.0375535,819.2181314012747,804.0827685084037,807.404283047839,799.9548118371691
1731142766.0396082,804.011503940125,804.4912398156977,803.6762052351107,792.923217662496
1731142766.0435076,781.5129845279524,805.4883166062322,801.2272050218915,781.9316640734639
1731142766.047407,773.2060975989879,807.0195959915171,801.2818517672579,775.7474887941382
1731142766.0492208,789.554517631214,808.7177272351355,803.4449559686527,779.3082279168918
1731142766.051306,820.9024654194716,810.0333906184901,806.1011075799561,789.5429374732491
1731142766.0518506,844.7453530898138,810.3898697595735,807.784983007045,797.6637530526856
1731142766.055205,843.4456639718832,809.3488748126077,808.3652459752026,796.0777828950861
1731142766.0564563,818.1386630246857,806.8751914557477,809.1161836847202,784.4428322739838
1731142766.0591047,787.7212019541989,803.628288216043,811.5838448425822,770.1443820076687
1731142766.063004,773.6911862593608,800.9484316048316,816.004823866771,762.7896664742731
1731142766.0647745,782.9504194429294,800.2645035470147,820.4681406318467,766.8774051920168
1731142766.0669034,802.5664795748804,802.1560063702256,821.7068995613711,778.2802509151546
1731142766.0708027,810.9767896072425,805.7904200616434,817.3231905746794,787.4078676080429
1731142766.074702,796.4777183302267,809.3237885598527,807.9655239457311,786.7641025150241
1731142766.0753589,767.4614815826158,811.0825072506464,797.5892604167915,776.9646180550227
1731142766.0786014,745.6120058881752,810.6331902418642,791.1387945064429,766.2853945770155
1731142766.0803275,747.7059335800714,808.8975137514491,791.1158890252907,764.0099452711581
1731142766.0825007,771.3801636230119,807.2577555996904,795.7090046643409,773.0312801588186
1731142766.0864,796.8505812546649,806.4203736905498,800.1281551396695,787.8239680655363
1731142766.0867586,803.1005385624659,805.9611415384502,800.2058097080613,799.3294262835274
1731142766.0902991,785.005788000439,804.8723944339675,795.44407406324,802.4199506875449
1731142766.0941985,757.2393898076875,802.5995915393711,789.1894724379687,799.5361612649972
1731142766.0942614,741.8782083486851,799.6744443540416,785.9767255082985,797.5767793310064
1731142766.095881,750.0718708665404,797.4157988441732,788.1983345685793,801.0315636680666
1731142766.0980978,772.9174165533947,796.9541704990063,794.5078670860298,807.5221252316726
1731142766.1019971,789.046134102491,798.3829206973796,800.88561565061,809.6960060609847
1731142766.1058965,782.6760156284749,800.7077084910311,803.4312650080151,801.858460482806
1731142766.1097958,757.2250511196587,802.5953888097188,800.9425834632326,785.6448460168428
1731142766.1114345,733.1533925727608,803.2964838378832,795.6223219058055,769.8281702762263
1731142766.113164,731.6467556313918,803.0387453896788,791.5158942452858,764.2069846719538
1731142766.1136951,757.382688848104,802.6637741255482,791.7627063284162,772.3240865649017
1731142766.1175945,794.3462157841568,802.8581251000907,796.5413085542282,788.6957512871172
1731142766.1214938,818.0282703717847,803.5729179454521,803.1078903246078,802.7096097135106
1731142766.121667,814.183261674209,804.038473247514,807.7995306136412,806.2253682431358
1731142766.1253932,789.2798817854756,803.3658623573986,808.4179032087857,799.1408218101094
1731142766.126988,764.6913462776346,801.3411463209095,805.2416697839111,788.8610358546634
1731142766.1292922,759.7147756410601,798.8491236900313,800.1888546811311,784.3686302870638
1731142766.1320665,777.143243160137,797.534411992984,795.1731294519117,789.6571431658201
1731142766.1331916,802.6082480237977,798.8025972948609,791.0851427676782,801.4908883539406
1731142766.1370907,817.5362583402225,802.7996802861466,787.9249035423253,812.7868680104034
1731142766.1409905,814.615357851589,808.1310338846421,785.5242928288643,818.4572293803806
1731142766.1425414,803.0348955021824,812.5850171222455,784.046738003031,818.8969934714185
1731142766.1448896,799.6443926876578,814.370029957398,783.9339736896878,818.612018132979
1731142766.1487887,813.9534496277673,813.0166109684966,785.4636882814082,821.6137328602375
1731142766.1509693,839.6575633229435,809.4340208020116,788.2758885157497,827.6775230190788
1731142766.1526885,859.5432967189242,805.2706876973081,791.2766160654563,832.5422402674022
1731142766.1565747,859.5530538442866,802.0982779130379,793.2033546871573,831.7342329312534
1731142766.1565876,840.5239312109131,800.8180375041409,793.625606330155,824.7322719228318
1731142766.1580946,818.0388955635326,801.3960191008586,793.5423621548966,815.8963330553929
1731142766.1604867,810.2359046532281,802.9272860747631,794.804714389503,811.1878171804965
1731142766.1643865,823.1687640610835,804.0666755952301,798.5954591089686,813.2595192075182
1731142766.1682854,845.7101599927893,803.7567385382047,804.2451808414366,819.0723296849573
1731142766.1698718,858.55700027271,801.8904004681734,809.5519491981785,822.2318128594784
1731142766.1721847,850.2142030909863,799.41469562331,812.4285890794994,818.2347298409657
1731142766.173648,826.7235538539773,797.7104753084735,812.435986658746,808.2967172532311
1731142766.176084,806.9367745460372,797.6632578120998,810.8845758168187,798.6260931215221
1731142766.1799834,807.21120194038,799.1161541574987,809.5671245963609,795.7517636076266
1731142766.1838827,828.1772423347771,801.0766834921407,809.3957465620208,801.5754942940616
1731142766.187782,854.2970407869253,802.438517523123,810.08229023781,811.9048229753032
1731142766.1887743,866.2761636103241,802.6407610454298,810.8279704036731,819.5690122866112
1731142766.1892016,856.1660672744787,801.8647844953414,811.120043215657,819.9011690417907
1731142766.1914828,833.2985295237108,800.7970594999424,810.962014123962,814.612792986176
1731142766.1916814,816.6761011516472,800.2393328885224,810.6210866287499,811.0178405766399
1731142766.1955807,819.8953219011732,800.7802223664452,810.3233076334182,816.7463009004327
1731142766.19948,840.36624620848,802.562038540331,810.1384214046049,833.5927466858831
1731142766.2033794,861.3971076305023,805.133853677121,810.0262622194016,855.3140530551095
1731142766.2047548,865.7303456787364,807.480823858927,809.9247923719952,871.5369572713577
1731142766.2072785,849.7939517136789,808.3578159665685,809.8014213762225,875.0742153580794
1731142766.207677,826.987035167651,806.8947746128489,809.6566034241426,866.9402114575463
1731142766.2111778,817.0644536278065,803.1825878956986,809.5047162824276,855.0810917944568
1731142766.2150772,830.1011662700683,798.4356181400743,809.3571360696393,847.967894889449
1731142766.2189765,858.0110665532926,794.5159779283454,809.2168356543883,848.3148104737696
1731142766.2203083,880.4444368338575,793.0123001965553,809.0813127094195,851.8490655740246
1731142766.2228758,880.3568344544883,794.4089574573554,808.9472689851783,851.7629981220343
1731142766.2263908,857.0268957272798,797.8784600818813,808.813118663628,844.8939480860014
1731142766.2265794,826.4498915020564,801.8358594553013,808.6789962515888,834.4562360481815
1731142766.2267752,808.8302624472735,804.8760413746506,808.5456846686808,827.13897210688
1731142766.2306745,812.9007833305757,806.464126879612,808.4137489473255,827.1503960861764
1731142766.2345738,829.5330650308209,806.9688968826555,808.283299841934,832.4611561355255
1731142766.2358618,840.0444693353139,807.1467761458883,808.1541764079561,836.6869926131149
1731142766.2384732,832.575398926444,807.5672380974255,808.026194987206,835.0251187668667
1731142766.2423725,812.6422678373049,808.402787033345,807.8992707176487,828.8003072021202
1731142766.2454822,798.4379141274926,809.5964633927753,807.7734065525291,824.2792124550868
1731142766.2462716,804.641656829144,811.0893885488116,807.6486299007164,826.7416252378738
1731142766.2501707,828.8506571945935,812.8292008371261,807.5249461794853,835.3169601142772
1731142766.2514153,852.6403995577803,814.5769416722657,807.4023336867947,843.3817472513516
1731142766.2540703,856.4757087204473,815.7676044833913,807.280769236063,844.1256712207111
1731142766.2579696,835.7838940731579,815.6672579799969,807.1602576507248,836.2928596580922
1731142766.261299,804.8336826896162,813.8361969405502,807.0408341592379,825.2370830180184
1731142766.261869,785.5895030036205,810.6137324830843,806.9225188222597,818.7090307716794
1731142766.2643847,790.9380110808299,807.2076742424285,806.8052376362159,821.089417611015
1731142766.2657683,815.6384965726523,805.172027729521,806.6887825087183,830.5908235894226
1731142766.2669685,841.6025562563817,805.5140826826405,806.5729160680781,841.1713509604219
1731142766.2696676,852.6449475515785,808.0261650924695,806.4576572991921,847.2022363567271
1731142766.273567,846.6846859403807,811.345082597997,806.3435712493987,847.1701058264254
1731142766.2774663,835.8391816389548,813.7395360839051,806.2316475638155,843.8615187379838
1731142766.2813656,834.835485852188,814.1156332067036,806.1224000109719,841.3499091312467
1731142766.282522,847.6462862799385,812.6030626233744,806.0144632495883,841.4169256223164
1731142766.2832873,863.5511575876283,810.3905172669188,805.9040598670537,842.2036141234694
1731142766.2852647,865.9341872265304,808.9588154006757,805.7872667559963,840.0270214271703
1731142766.289164,846.6110423558254,809.1983809394073,805.6654996248885,832.8876588523539
1731142766.2930634,813.871769836274,810.9225472031806,805.5505122892622,822.8696244204158
1731142766.2962067,787.3502406746887,813.0215105410322,805.461001302787,815.2875488549378
1731142766.2969627,783.3545933293211,814.1196782386255,805.4046209481224,814.8090367793155
1731142766.2980754,802.1326693768551,813.329944657502,805.352214808255,821.3767253938938
1731142766.300862,827.42646732304,810.6831434439695,805.2314449262877,829.433814699193
1731142766.3021898,839.1564656544829,807.0276620805928,804.9749546224726,831.6251877632628
1731142766.3047614,829.3793940907684,803.5055060191037,804.625832449589,824.2919613737894
1731142766.3086607,808.4493564262013,800.950660701421,804.424432622859,810.151359911494
1731142766.31256,795.904643907435,799.5817056441957,804.7297807568139,795.8581662883913
1731142766.313629,803.4338657536674,799.1309980342013,805.6832179169312,786.8618330962466
1731142766.3164594,824.4576287196156,799.2178017402184,806.8007784853002,784.22606459983
1731142766.3203588,839.5289309864187,799.614297073825,807.0151695411469,785.4785961054291
1731142766.3210924,833.073809376589,800.2184980804241,805.4874660632524,787.5192155563215
1731142766.324258,807.0494691279223,800.8665528940887,802.5671028728669,788.6505196599917
1731142766.3281572,779.7723499289516,801.2685059202382,799.7356463743378,788.7527548390927
1731142766.329182,770.9471923421257,801.2027780201046,798.3428139059984,788.4312225945963
1731142766.3311148,785.5432697095628,800.818809003843,798.4147665658979,788.2156356316024
1731142766.3320563,809.8896119230035,800.7395614494166,798.8318279739088,788.2693417461338
1731142766.335956,823.0483327322836,801.7586207569648,798.6540904970449,788.4952493313004
1731142766.3398552,813.9742091301904,804.2272530908201,798.1263083380998,788.7447339991068
1731142766.3399951,790.3712050003636,807.5335848398572,798.287683220925,788.9398401693497
1731142766.3437543,772.0860767220297,810.1585900514315,799.6255024651376,789.0817171699571
1731142766.3447356,774.6057603191883,810.4920835548841,801.1986012308822,789.2048388998702
1731142766.347654,796.2805242204195,807.9912797334077,801.1674177136175,789.336510095679
1731142766.3515532,819.6547779739628,803.8036024412137,798.3057695733733,789.4839420286671
1731142766.3554523,825.5950090626785,800.1938643243096,793.1895065616418,789.6412523505783
1731142766.3588977,808.5980417104919,799.046933300144,788.0817787673618,789.8006545458
1731142766.3593516,781.0660505644046,800.5937950592539,785.612629466871,789.9584560087146
1731142766.360289,763.425139801345,803.4068693637084,787.1941944146907,790.1150761476603
1731142766.363251,768.0717971175188,805.6071554179583,792.1703260187529,790.2724825844195
1731142766.3660228,789.6924455877086,806.1751442293628,798.1556419274337,790.4321208927906
1731142766.3671503,809.4625434050286,805.3016012668327,802.3416512725478,790.5943532100409
1731142766.3710496,809.9656307838865,803.7428074403911,803.0441268776169,790.7588990002118
1731142766.374949,789.2539074238409,802.0402084922443,800.6062258941673,790.9254291322693
1731142766.3758423,762.7792396030409,800.3572516107341,797.0971272699252,791.0938443235276
1731142766.3778002,751.2474804887191,798.8562782576993,794.9818906294337,791.264229354038
1731142766.3788483,763.8783700996822,797.9727171312122,795.6373053652094,791.4366933062726
1731142766.3827477,790.7436005067387,798.1816057527404,798.712238307582,791.6112885703864
1731142766.386647,810.7730569586761,799.4981096953269,802.7252714853524,791.7880741565292
1731142766.3905463,809.0597536423409,801.2737713339375,806.3557520762388,791.9672486029496
1731142766.3913958,789.1540047667277,802.5681537958101,809.3280650149829,792.1491788200767
1731142766.3944457,770.1162588648117,802.8275564287349,812.1404368076968,792.3341611747942
1731142766.3967028,770.8026551538563,802.308272215398,814.9639400846515,792.5219513412021
1731142766.3983448,794.3401675429113,801.8863466528397,816.8862442569553,792.7114684041123
1731142766.400931,825.401978221253,802.4060562533066,816.3899504720985,792.9013386022822
1731142766.402244,842.4123920612536,804.0805040612062,812.7028865386562,793.0915930290456
1731142766.4061434,834.827625016906,806.3606044549554,806.6936914514915,793.2855730833533
1731142766.4069493,811.5522890549223,808.2747305760433,800.3809624902118,793.489545956484
1731142766.4100428,793.6011350588044,808.9389684019201,795.5189825827546,793.7075526163613
1731142766.413942,796.9323519966212,807.9675419561505,792.6276207198042,793.9326560023562
1731142766.4156053,819.6367077282914,805.679431083488,791.2794847266864,794.1425384170713
1731142766.4178414,844.185851954317,803.0407203268356,791.1060834965365,794.3116187501781
1731142766.4217408,852.7426696344171,801.2634944610637,792.3339762018879,794.443991852857
1731142766.4225025,842.3820111357483,801.1370671393188,795.317543811938,794.6069377462379
1731142766.42564,827.2241844364489,802.4686314947056,799.6541276928108,794.917076947939
1731142766.4295394,825.8288909112309,804.1042105421351,803.8668864537501,795.4365818121555
1731142766.4334388,844.7537123338403,804.6416138771361,806.0524684335155,796.011316170089
1731142766.434508,872.1861235354506,803.3696046103787,805.016444689659,796.2101153529616
1731142766.4358387,886.9224757897069,800.7137340258554,801.0628523769888,795.5905659979418
1731142766.437338,875.3661899315813,797.8376857735659,795.947104356255,794.3470347427351
1731142766.438056,842.8506700585356,795.7518285306007,792.107449592426,793.9336588265556
1731142766.4412372,810.1160048772331,794.6824274025611,791.6361669783142,796.8086052776262
1731142766.4451363,797.50470246388,794.177312452521,795.4080594640357,804.7222593408271
1731142766.449036,809.3482013350756,793.7332086100197,802.6087519961964,816.3715162121819
1731142766.4529352,831.111943212462,793.2998483526434,810.8406131589201,826.690519420252
1731142766.4534106,841.6373632654481,793.2474635013328,816.9444064124683,829.4502516882003
1731142766.4536097,830.4619345353196,793.9773522773382,818.400691998546,821.9022936151613
1731142766.4568346,806.1124207119753,795.6495486791503,814.6806870614515,807.702001791407
1731142766.460734,788.8763819115674,798.2329131068994,807.6573849229218,795.1612820137024
1731142766.4646332,794.2717685493811,801.6468346259499,800.6270048579628,791.6357419596072
1731142766.4685326,820.6168642993865,805.687559302617,796.4741004169671,798.2541098324341
1731142766.4691627,850.2663861817222,809.7627589096961,796.2277694125016,809.1708492831361
1731142766.470747,863.0507377606855,812.7841187336143,798.9729736875747,815.9994322798302
1731142766.4723132,851.3066598278649,813.5197066310002,802.9615887052865,814.0351581229601
1731142766.472432,825.1685579980132,811.3093650784033,806.8208717143153,805.566760192926
1731142766.476331,804.3033357092564,806.6525715117608,809.8814784245046,797.8667123584817
1731142766.4802303,802.4640092195962,801.1621292554457,811.6909821744381,797.4915506857872
1731142766.4841297,816.9547213988583,796.8056749315862,811.6348001337245,805.3213088228272
1731142766.4847162,831.646127902375,794.8963492347891,809.3447641660779,816.1774523474322
1731142766.488029,831.2764810899549,795.4879359855267,805.5349704945864,823.2013707334927
1731142766.4912157,814.9739463326567,797.5243539736995,802.23991924539,823.3348928473289
1731142766.4919283,797.1631728105618,799.5571554554554,801.8678202985075,819.437895043798
1731142766.4958277,794.8174528752639,800.4974024372794,805.5709274406179,817.4624291751376
1731142766.499727,812.0623426594805,799.9488433595018,812.1508192284314,821.1844201632073
1731142766.5002697,835.6186804350509,798.0807454240515,818.4668054527208,828.9084478540123
1731142766.5036263,845.2666048289859,795.3622184358093,821.282906316416,834.8548652754091
1731142766.5056553,830.6401530485075,792.4431075737904,819.3758463889186,834.0430115040047
1731142766.5075257,800.2595957297933,790.1050877841489,814.3550704873298,826.5374544822665
1731142766.5101185,775.124292542273,789.0090210909062,809.4538974601097,817.4247049270277
1731142766.511425,771.9474720764329,789.2461863683767,807.1006780833379,812.6031602351251
1731142766.515324,789.76750614367,790.1366263882637,807.1532052296627,814.2149345018393
1731142766.5158231,811.0778099030084,790.6846669274694,807.2434067901869,819.7076603474064
1731142766.5192237,816.6303081202498,790.4761180230932,804.947910339574,824.7877707339047
1731142766.5231228,801.5016804624274,790.2093507829373,799.9415745137086,826.9028033005682
1731142766.527022,778.8730356329644,791.2152441684907,794.3304881874674,826.241258003793
1731142766.529021,768.5412130803311,794.2259195110942,790.9775169599134,824.3991404767855
1731142766.5309217,780.2511839002763,798.4688692791361,791.3326840276544,822.7304711071989
1731142766.5313766,805.9641003533019,802.028669791446,794.5491031724896,821.6880723399324
1731142766.5348208,826.9185760897079,803.3281495010491,798.4059268205478,821.0703516085268
1731142766.53872,828.5987089090879,802.4969798403981,801.0447297020905,820.5255566466377
1731142766.540563,810.7789917023407,801.3824321840419,802.0596522722068,819.8588569146368
1731142766.5426197,785.3204667289265,802.1091225198289,802.2614661294893,819.0651519061212
1731142766.5465188,765.5853809272628,805.36882153798,802.6159117094417,818.2242549345733
1731142766.5469298,757.5509996152534,809.8442979725121,803.420628903089,817.4026635941041
1731142766.5479236,758.8506598674129,813.1886222323059,804.3307981573419,816.6196190630588
1731142766.550418,763.6750943989235,813.7274842549149,804.9195869964836,815.862031782568
1731142766.5543172,767.6910213538509,811.5739133731985,805.0767245357353,815.1110935673777
1731142766.5582166,769.6610726343423,808.4092034844612,804.9736577827895,814.3572875039384
1731142766.562116,770.3717371255929,806.2292308895983,804.8299095055727,813.601033183153
1731142766.5624833,770.9619828251334,806.05694799298,804.7595889527237,812.846754796487
1731142766.5660152,772.0021682387162,807.5067304251879,804.7637997077924,812.0978287715286
1731142766.566826,773.459126871185,809.3414842567092,804.7955531047386,811.3550663778084
1731142766.5699146,775.0601161184062,810.4438868353029,804.8169284025123,810.6176638882891
1731142766.573814,776.5995490927158,810.462991258624,804.8177187162338,809.8846196818724
1731142766.5754712,778.0290704646249,809.7891394566359,804.8060455487564,809.1554666119418
1731142766.5777133,779.3980938610816,809.0555008198643,804.7928455036587,808.4302524651367
1731142766.5780368,780.7671752294746,808.6531007226632,804.7834346500017,807.7092094547843
1731142766.5816126,782.1638236235486,808.5975016088556,804.777391847273,806.9924965849358
1731142766.585512,783.584158997702,808.7008897430389,804.7720926021428,806.2801343455451
1731142766.5857286,785.0132389245531,808.7905274567418,804.7656045838311,805.5720629168171
1731142766.5894113,786.4407084009688,808.8032607614305,804.7574997721341,804.8682171156688
1731142766.5933104,787.8646605410084,808.7609303479612,804.7482637401437,804.1685616947105
1731142766.59359,789.2880173079944,808.7077550337106,804.7384710560693,803.4730874900011
1731142766.5972097,790.7139563752672,808.6697794217572,804.7283753606641,802.781793108011
1731142766.601109,792.14378590503,808.6489111083183,804.7179337869643,802.0946719176401
1731142766.6046314,793.5772008165737,808.6354754369313,804.7070028527797,801.4117097157257
1731142766.6050084,795.0134040804295,808.6208603365168,804.6954858061479,800.7328887810847
1731142766.6089077,796.4518987737009,808.6022909792106,804.6833672314942,800.0581921908322
1731142766.6091435,797.8926393461145,808.5812356812919,804.670677594764,799.3876048746174
1731142766.6103792,799.335805729382,808.5600695542958,804.6574494212028,798.7211112483805
1731142766.612807,800.781553120808,808.5400736744042,804.6436964557785,798.058691910968
1731142766.6167064,802.2299181242217,808.5212583755952,804.6294151732553,797.4003234174423
1731142766.6206057,803.6808781381451,808.5030809616684,804.6145957942475,796.745984388584
1731142766.623534,805.1344664238692,808.4850993791208,804.5992333694829,796.0956663782995
1731142766.624505,806.5908258542515,808.46718991094,804.5833353796106,795.4493796389762
1731142766.624697,808.0501150530506,808.4494414701779,804.5669228193624,794.8071388256686
1731142766.6284044,809.5122765776847,808.4319769954451,804.5500193684308,794.1689231377233
1731142766.6323037,810.9768451972374,808.414855174483,804.532627044362,793.5346351262116
1731142766.6362028,812.4431178278172,808.398068078536,804.5147024913841,792.9041163063292
1731142766.640102,813.9108991448056,808.3815813053824,804.4961672266461,792.2772721795676
1731142766.6402504,815.3814919866259,808.3653669962258,804.4769818216782,791.654270009128
1731142766.6424365,816.8578169574122,808.3494130200538,804.4572617190727,791.0356183411054
1731142766.6440015,818.342336293003,808.3337166455726,804.4373222193349,790.4218558156361
1731142766.6452873,819.8328908227913,808.3182767047258,804.4174935160986,789.812783363849
1731142766.6479008,821.3197344732932,808.303091169273,804.3976695331686,789.2067502264506
1731142766.6518002,822.7896650782818,808.2881579484456,804.3768931303077,788.6011030855137
1731142766.6556995,824.2406589338342,808.2734727051393,804.3536288179125,787.9946882925657
1731142766.6558037,825.6996677126612,808.2590209584091,804.327238541077,787.3914931834261
1731142766.6595988,827.2219006800117,808.2447708120508,804.3001111262782,786.8016440923966
1731142766.661339,828.848073157844,808.2306805189606,804.278216868079,786.2348036736363
1731142766.6634982,830.5260027068293,808.2167307858089,804.2671916222916,785.6854828031355
1731142766.6673975,832.0632123627535,808.2029674599901,804.2637115885717,785.1208922589693
1731142766.6712966,833.2205060377182,808.1895056290793,804.2484467898697,784.492359594683
1731142766.6713572,833.9972840780322,808.1764375352936,804.192920603737,783.7849635866373
1731142766.675196,834.9475525730585,808.1636505215937,804.0887187796926,783.0838961333146
1731142766.6790953,837.1060088594136,808.1507004761525,803.9861366007162,782.5831675235518
1731142766.680195,841.1083960987183,808.1369985360641,803.9983023516227,782.4471976958731
1731142766.6802416,845.6975466419337,808.1224552670678,804.2180607642596,782.5303640898028
1731142766.6829946,846.9150974006751,808.1082527358816,804.5498692519428,782.17075284065
1731142766.686894,839.8885030385486,808.0967917311955,804.5795836835606,780.447081258794
1731142766.6869106,823.5201614173421,808.0897965746052,803.6947504315642,777.1111456839111
1731142766.6907933,804.3524108617845,808.0848882589904,801.5299768111704,773.6485131206089
1731142766.6946926,793.914712581826,808.0735748377076,798.393060318594,773.06877166829
1731142766.698592,799.3247406582024,808.0454577056416,795.1151311087215,777.628598490104
1731142766.6991444,815.5659612981121,808.0007761787562,792.3300273159329,786.1935273153222
1731142766.702464,828.2241482520213,807.9640890746764,789.973185879207,794.3443790742369
1731142766.7024913,825.4541946956003,807.980631563325,787.6063259793599,797.8400996509711
1731142766.7063904,808.5439209814666,808.0774116509757,785.1332044015495,796.2642191170578
1731142766.7102897,791.4051971994396,808.1980574124458,782.9503449091418,793.3385446661231
1731142766.7141893,789.1837944455474,808.1689420924183,781.2618763732927,793.7330434038213
1731142766.7151034,805.576802105202,807.7800479616022,779.3853234161235,799.3816642066456
1731142766.718017,829.3773631596803,806.992845439031,776.1048231171056,808.367883627733
1731142766.718047,843.0607523761686,806.1106549839311,771.0866245867384,816.8597046151962
1731142766.7180884,836.5981065796248,805.6601138251015,766.0364192249605,822.0248606234865
1731142766.7219875,815.582978938992,805.9686538239121,764.135395554145,823.5054335677354
1731142766.7258873,797.0512445179081,806.8015875052844,767.7698397939106,822.7789102818643
1731142766.7297864,795.9299066234682,807.4459556988696,776.3621712505762,821.5843239308258
1731142766.7335708,812.7631895757842,807.19919388422,786.3547923980151,820.8683369161804
1731142766.7336855,832.8942711600063,805.8231805377022,793.6509056257198,820.709828500287
1731142766.7369494,838.3085810428427,803.5964187840539,796.6318120567743,820.7862840525642
1731142766.7375853,822.7767039871954,801.0259163200852,797.2553316587263,820.8109509569155
1731142766.7414844,797.6900250144356,798.5724577531756,799.2601911322097,820.6938053914259
1731142766.7453835,783.2905508149536,796.604164516928,804.8948938366776,820.4863254289068
1731142766.7491243,792.1310217850148,795.4551301250933,812.8842678527815,820.268852897867
1731142766.7492828,818.3592546924873,795.3667271288541,819.3990693409141,820.0839855829781
1731142766.7500114,841.880862926973,796.3173302673381,821.2780845698853,819.9314793933399
1731142766.7531822,844.2707700138609,797.9620301285305,818.7873946408891,819.7928088149185
1731142766.755852,823.5816571333963,799.8087633936631,815.5646480283026,819.6531401804622
1731142766.7570815,795.9312227817054,801.476128909219,815.8095607273597,819.508466759555
1731142766.7609808,782.4193511892647,802.7783234857012,821.0876951567336,819.3619087910421
1731142766.7646775,792.0157397079876,803.5971437046294,829.2938999796111,819.2176685864205
1731142766.7648802,814.6307568376192,803.7673473377193,836.365012412115,819.0777552965784
1731142766.7687795,830.263374434915,803.1876909379142,839.1268382591522,818.9419473529852
1731142766.7726789,826.4954005552011,802.0702517334872,837.0836901655524,818.8091703294366
1731142766.7747543,809.305672126056,800.993848387766,832.1625403979712,818.6786211583227
1731142766.7765782,797.7987266690026,800.5531116857478,827.0313702022333,818.5500780424625
1731142766.780231,807.2788501507026,800.8279876346342,823.3342362930892,818.4236639067632
1731142766.7804775,835.147669633652,801.1986818888098,820.8916690246962,818.2995240554064
1731142766.7843766,861.74930794928,800.810343284469,818.1984466658805,818.1776772564876
1731142766.7849195,865.7107513278861,799.3723774181915,813.8410631869962,818.0580480400989
1731142766.788276,841.2361945962124,797.5603759209025,807.9058486434049,817.940561484225
1731142766.7921753,803.1957401844172,796.5645744610562,802.3296964251226,817.8251828490984
1731142766.7936573,775.823791641961,797.1107090444069,799.7666249064005,817.7118549128472
1731142766.7957845,774.0936061950973,798.8171099382582,801.6687419792448,817.6003826546124
1731142766.7960746,792.628307466459,800.4804964109615,807.032860289946,817.4904029709593
1731142766.799974,810.84375607316,801.032571471091,812.8878627568677,817.3815878219997
1731142766.8038733,809.9818427238082,800.3066961212958,816.2653636787886,817.2740711897783
1731142766.8077726,788.2520371317632,798.9875956475072,816.1675313744915,817.1687603891955
1731142766.811338,762.0122989969686,797.9243443748404,813.9957673026162,817.066923418851
1731142766.811672,752.330996045701,797.516007606798,812.1579051212767,816.9686966920792
1731142766.8125598,767.9879113134552,797.6332990358778,812.0862575864139,816.8712551867645
1731142766.8155713,798.5121803716216,797.9336357044846,813.3209629640477,816.7688591019584
1731142766.8194706,822.5283250134158,798.1685314117069,814.2640944174536,816.6571978773421
1731142766.8198276,824.5205624713741,798.2760126183771,813.7052992815469,816.5414161755753
1731142766.8233695,806.7064637903185,798.3100062297942,811.6789240051891,816.4410385235266
1731142766.8268912,786.7505040181649,798.3395875451793,809.0481908579297,816.3805212749076
1731142766.8272693,783.2611076757431,798.3968653874491,806.479023155953,816.3601060704218
1731142766.8311684,800.7233416059297,798.4778932556015,803.8995121966354,816.3232304416408
1731142766.8314624,826.0429783625871,798.5656591922238,800.8472433388321,816.1633527841029
1731142766.8350675,839.5423542807457,798.6481540510637,797.1635233659728,815.8127061657534
1731142766.838967,831.4054705788112,798.7230195077785,793.2998617137387,815.3931072857147
1731142766.842445,809.9957128469885,798.7935185553627,790.0830164807012,815.2933417774053
1731142766.8428664,795.1359075021896,798.863292366403,788.3149896301088,815.9676404448767
1731142766.8467658,801.8518733819209,798.9338710964031,788.5118829831312,817.3917783000398
1731142766.8503647,827.8712472105642,799.0049235886778,790.751586014806,818.555002809346
1731142766.850665,854.9993574491261,799.0755282348408,794.5725936746622,817.7866536216101
1731142766.8545644,863.2296050920178,799.1450885666841,799.0673893262344,814.2692002640225
1731142766.8547356,846.3368069914085,799.2135238984212,803.2558419358727,809.5667919458223
1731142766.857998,816.6496765109355,799.2810291822327,806.4825764615036,807.13968275467
1731142766.8584638,795.2971549161556,799.3477999750162,808.4726958590236,809.4292030008547
1731142766.8623629,795.7020410210058,799.4139148253216,809.0478374482923,814.8976944672897
1731142766.8662622,813.5022888626219,799.4793593464925,807.9282732043905,818.1507437672399
1731142766.8692677,830.9852997045178,799.5440958253596,805.0025683060379,813.8153577640821
1731142766.8701615,832.316140381661,799.6081070533562,800.9341245430143,801.3885922716904
1731142766.8735514,816.8719583568447,799.6713989577634,797.4668966191362,786.9720499852456
1731142766.8740609,799.5304376818248,799.7339830710598,796.8093978220204,779.9516669512744
1731142766.8779602,797.7638152287215,799.7958661209252,800.1887113099327,786.6597381040185
1731142766.8818595,816.5330467713045,799.8570601083142,806.603737038637,805.6683991770186
1731142766.8857589,843.6740782724007,799.9176040955598,813.0140344719081,828.3542963150471
1731142766.8881702,859.461394761731,799.9775692201393,816.1698398890713,844.38921267632
1731142766.8891048,852.3268529764987,800.0370166002705,814.7959193057882,848.092978774006
1731142766.8896437,828.0378077098386,800.0959114866702,810.3692538538171,841.1867358319749
1731142766.8896582,805.1662190540175,800.154064487305,805.8607597132417,830.4819976249362
1731142766.8935575,800.4901618258507,800.2112224801991,803.5182110728042,822.7167476904224
1731142766.897457,815.8303645941951,800.2673748688885,803.4773726971318,820.359217943328
1731142766.901356,836.9323053579858,800.3231144723532,804.1439982327076,821.0596714254673
1731142766.9046583,845.6123705149819,800.3796002653233,803.7741246281198,820.6952054401776
1731142766.9052553,835.3478195445587,800.437647940801,801.8568183849395,817.4260392277318
1731142766.9070728,817.0386460515485,800.4961135802603,799.3346545594466,813.4783450017458
1731142766.909155,809.5943869663249,800.5509824993974,797.76420795589,813.1416509890713
1731142766.913054,823.1027073400836,800.5974231516069,798.2145084796958,818.6191598603979
1731142766.916953,849.1101612025441,800.6357531543792,800.641790541554,827.3782476013291
1731142766.9202118,866.6910468493496,800.6778330326295,804.0201245221313,833.5833878601794
1731142766.920853,859.5016198020418,800.745157066297,807.0746843953416,832.7222539973476
1731142766.9245515,829.6627342686144,800.8503920412275,809.1539092810909,825.6162566310535
1731142766.924752,796.9275180548772,800.9672119217485,810.6298431653465,818.2545542396414
1731142766.925975,783.633266631201,801.0166551632964,812.4392113236288,817.2111186020285
1731142766.928651,797.4030780351534,800.9114516682725,815.0142084425011,824.1167150867808
1731142766.932551,825.4139682185222,800.6698478783187,817.4575471077454,833.7355022770764
1731142766.935765,844.9012760028023,800.5227865719353,817.7841513253869,837.6118572414972
1731142766.93645,841.5049183185876,800.8629483706384,814.2701595410159,830.8086249896604
1731142766.940349,820.5221812864069,801.9834891191796,807.0003205299957,816.4229645245546
1731142766.9442484,801.8423743116139,803.8255085090998,798.3818504737296,803.8996849125177
1731142766.944878,802.9645687799779,806.0321550476837,792.0370969427726,802.0054194670877
1731142766.9481478,824.4955542242207,808.268314479062,790.6897931757702,811.8799435413149
1731142766.9513185,850.1197476142258,810.4271116678921,794.5147804893611,825.87891230015
1731142766.952047,860.3801504670748,812.4983655608946,801.1777423015599,833.393456767574
1731142766.9559464,847.9610776373988,814.3160034921832,807.515346193436,829.1017047935551
1731142766.9594598,821.7126804781186,815.5475109653584,811.496514012841,817.0305935356446
1731142766.9598458,797.4690553126687,815.9731693162954,812.9388090192108,807.2089407351885
1731142766.963745,785.4427918935719,815.7315985030236,812.6463805756568,807.6805957620098
1731142766.9637804,785.263793468798,815.221380108198,811.0841727171005,818.1884987914265
1731142766.966872,790.3455481670051,814.7200057624246,807.9936016574059,830.244668161517
1731142766.9676445,794.739561242984,814.0911928648617,803.2208741048232,833.2673361439859
1731142766.9715438,796.3348358219738,812.8749333126617,797.6689879570014,822.095182378971
1731142766.9754431,795.9746475719005,810.6923531258742,793.1256946796952,800.497861107866
1731142766.9793422,795.2405193175372,807.6265737198217,790.9251369184988,778.4063007113427
1731142766.9824252,795.0415384670455,804.299719005662,790.7090718662399,765.1152109674102
1731142766.9826832,795.4291792024554,801.636451861014,790.6081386424231,763.4702651082583
1731142766.9832416,796.0539015245507,800.4966811726198,788.8911460523058,769.100710244046
1731142766.987141,796.6120828514032,801.3486775317284,785.739737970308,774.8431608847034
1731142766.9910402,797.0094653626785,804.0586135424288,783.5557869699164,776.6138139771194
1731142766.9943678,797.3006044191349,807.8432816102835,785.309936724408,776.0942603735521
1731142766.9949396,797.5698636309456,811.457024394006,792.0158358353326,778.340524448274
1731142766.9979787,797.8616408861405,813.6382966981886,801.2650831559358,786.5915005850848
1731142766.998839,798.1753518812957,813.673984771525,808.189778595219,798.7858331812653
1731142767.0015855,798.4913835647515,811.7697064000231,808.5108067380484,808.7924605352551
1731142767.0027382,798.7941438159572,808.9442729319251,801.6464377731097,811.3650104066236
1731142767.0066376,799.0794600376997,806.4583221970288,791.5378649584751,806.6373282301802
1731142767.010537,799.3506234056688,805.1270216444477,784.35004608757,800.2547581689436
1731142767.0135322,799.6120183987107,804.9424307369317,784.5210131477661,798.8397238168837
1731142767.0144362,799.8656936017642,805.179555296616,791.9403133452056,804.483947420546
1731142767.018335,800.1113511238198,804.8426642133513,802.2280989727848,812.9417476712746
1731142767.0204885,800.3478370973253,803.1899779494744,809.7883943014557,817.2005516862595
1731142767.022235,800.5743658718045,800.1388927031004,811.3664228968375,813.5583657102396
1731142767.026134,800.7908437085904,796.4204173445722,807.7015419899053,805.0911936900862
1731142767.0290856,800.997517640066,793.3724784245506,802.436441552918,799.4294252191429
1731142767.029276,801.1944427348274,792.3600200146158,799.3681763097177,802.4843551644324
1731142767.030033,801.3811954869029,794.043969894356,800.0475709359672,813.2760566719887
1731142767.0339327,801.5571139972621,797.9263365876578,803.2172269171823,824.2945907416849
1731142767.037832,801.722087903438,802.5252987740587,806.1574334539296,827.2980823610992
1731142767.0393908,801.877414881711,806.1428088268555,806.7031380448959,819.8288522682686
1731142767.0417314,802.0256558398092,807.7615802209253,804.4152438520653,807.0300320035752
1731142767.0446389,802.1684702447373,807.5094305092574,800.3075632143466,797.3003053823928
1731142767.0456307,802.3029406722229,806.435348613521,795.802656267001,795.5150721410646
1731142767.04953,802.4197164894247,805.7923893123502,792.0255146781122,799.4444498805217
1731142767.0534291,802.5080632368911,806.2970833975509,789.8244230483597,802.1222894712383
1731142767.0573285,802.5696217893424,807.7996169711007,789.9509249129621,797.9628473712215
1731142767.058293,802.6324270976313,809.5148236790075,792.7341850735861,787.5567949513146
1731142767.0601923,802.7451565921085,810.6071212279256,797.3852153343548,777.3545956578427
1731142767.0612278,802.9337467644259,810.7146813057943,801.7816995670238,774.5382251007833
1731142767.064184,803.1335207814902,810.0796134528879,803.3721776513626,781.1090895566264
1731142767.0651271,803.1629898978192,809.2536831238676,800.8534646883123,791.9111666852938
1731142767.0690265,802.8326419646735,808.6428721343725,795.4246631840495,798.3900060694428
1731142767.0729258,802.2094766330302,808.23743870462,790.4957077615752,795.3159227242527
1731142767.0757458,801.8588466938623,807.7082424307835,789.7599473815636,785.013780433112
1731142767.0768251,802.6804286078209,806.7591797506564,794.7904384803632,775.4089924343227
1731142767.077196,805.0337242601331,805.4243030339826,803.8222782139519,773.3695854265003
1731142767.0807245,807.4675945616041,804.05916688379,812.6726513607011,778.9978293851427
1731142767.0846238,806.3314655540817,803.0608835474986,817.2681390907529,785.8096468066051
1731142767.0885231,797.8677204921967,802.5906241988558,816.0829290892191,786.6143738080291
1731142767.0912993,782.6189126611063,802.5271369395002,810.8555932343525,779.9429061084153
1731142767.0924222,768.3037321742383,802.62795573709,805.2104472412224,771.4559453211183
1731142767.096099,766.1004514735665,802.7095100022888,802.2620597417324,769.1185438784692
1731142767.0963216,781.0122303341803,802.7129161838404,802.8299249089043,776.1849999017212
1731142767.099092,804.9693829910183,802.6646977993443,805.2784684292557,787.8637520690866
1731142767.100221,820.9328492781748,802.609901035168,806.8720848695706,794.6134408410529
1731142767.1041205,816.1848327111979,802.5728660689684,805.6889377379832,789.7102282232039
1731142767.1068523,793.6384966612128,802.5536586789736,801.9088236931132,775.1010333691745
1731142767.1080196,770.7193313833557,802.5418192001797,797.6555272277343,760.5802852795174
1731142767.1119187,765.6992475635961,802.5288861097738,795.4205427505507,756.5563497429935
1731142767.1150012,782.4971637463724,802.5125424389272,796.0998318414295,766.0702501205567
1731142767.1158185,807.0284656884248,802.4945624369446,798.1396642366994,782.5939711745286
1731142767.1197176,818.7250947084359,802.4773737506289,798.6064520519527,795.3949556812984
1731142767.122406,807.7319442693756,802.4621716863111,795.4758247055457,797.9159206883143
1731142767.1236167,783.1825667895749,802.4488785337893,789.3374953681637,792.2914492592287
1731142767.1275165,765.5796291596421,802.4369212344772,783.114114138156,786.7150051969439
1731142767.1314154,769.8555385581705,802.4258749062308,780.0242744161408,788.3940114149442
1731142767.1339035,793.2580207635979,802.415646784422,781.4382452388802,797.9866006242086
1731142767.1339998,817.7340427208039,802.4063478990378,786.2577885679624,809.5469669129606
1731142767.1353147,824.4828162832919,802.3981106958228,792.1130593243291,815.4105442144414
1731142767.1379597,808.8434816450387,802.3909968584965,797.2227754284144,811.9718482460654
1731142767.139214,783.7170645559079,802.385000564561,801.3769309991543,802.072110912685
1731142767.1431134,768.8441692432106,802.3800901929792,805.398201790754,792.3938509451981
1731142767.1470127,774.5663122032756,802.3762416721456,809.8120122072157,788.0055560010156
1731142767.150912,793.446353587915,802.3734508380074,814.0930914625432,788.499025347128
1731142767.1528063,806.978945445325,802.3717327643728,817.1506251540372,789.0167068554206
1731142767.1535127,801.9626264619194,802.371114869232,818.3827119961732,785.3143411580572
1731142767.1548114,782.5200436819885,802.3716210567678,818.1447386912325,778.2733661971247
1731142767.1587107,767.0904574691342,802.3732444967064,817.3102212416543,773.6136321652799
1731142767.16261,772.5711516064252,802.3759245607843,816.57699443921,776.9355079665663
1731142767.1665094,799.0815503782783,802.3795655602511,816.1698484702707,788.526773704132
1731142767.168908,828.5886944068137,802.3841282304737,815.9782882635538,802.4982162409457
1731142767.1690662,838.9762768447184,802.3897602758577,815.8195069558733,810.8809669298114
1731142767.1704085,822.0844983124962,802.3968290985383,815.5947361548377,809.2347744394517
1731142767.1717093,790.7600094011937,802.4056790427601,815.3033326445396,799.4917251854246
1731142767.1743078,768.8016468880044,802.4160998753644,814.9873239861643,788.1799255710068
1731142767.1782072,771.7027233698232,802.4268956711735,814.6808463023896,781.4929284920695
1731142767.1821065,793.9856894079508,802.4363139731712,814.3933209358041,780.7547555764249
1731142767.1846197,813.9138791321906,802.4438527501311,814.1176587052344,781.6541015622007
1731142767.1860058,811.9685407028716,802.452646386003,813.8440999308447,778.1025838832112
1731142767.1899052,787.6070982839408,802.4697308435377,813.5678306247945,767.9586467284323
1731142767.1906116,759.99059876341,802.500990659599,813.2891650492763,755.8456507703252
1731142767.1938045,751.9556838367279,802.541083121573,813.0104189828724,750.1402647803056
1731142767.1977038,770.7607707854896,802.566337981285,812.7333141342622,756.0456632144047
1731142767.2001731,801.7198820225811,802.5449450713674,812.4582328501325,770.4345193733831
1731142767.2016032,819.8415983282885,802.4726872187267,812.1847345123153,783.1767402164937
1731142767.203816,809.722830741355,802.4165729037214,811.9122924658247,784.4138931560971
1731142767.2055025,777.5587789862727,802.514688211396,811.6406652874339,772.1449583906972
1731142767.2094016,745.9034506587591,802.8783098023516,811.3698768341363,753.9782967145276
1731142767.209514,735.7314819275542,803.420929714697,811.1000366896045,741.492395339478
1731142767.2133007,750.2352489181073,803.7754031285893,810.8312016733197,741.5742353852531
1731142767.2157264,773.1178757476246,803.479246595915,810.5633458875051,751.556816184252
1731142767.2172005,782.4798985811905,802.36484415759,810.2964101542027,761.9717147617816
1731142767.2210996,768.9641894892958,800.8062040690419,810.0303708056701,764.6199999443775
1731142767.224999,743.4549766547989,799.5394542611052,809.7652713669232,759.310494165706
1731142767.2284167,728.1195741489576,799.1740196970314,809.5011764049256,753.6473354025503
1731142767.2288983,738.1704022680874,799.8094773268324,809.2380476166395,756.0422149204201
1731142767.23128,769.2753935615793,801.0629864845502,808.9756248452302,767.9510347163572
1731142767.2327976,800.8256213143923,802.4300870387193,808.7134805496217,782.1125804015378
1731142767.236697,812.2914830092202,803.6408661278922,808.4513873431201,788.4229420409124
1731142767.238724,799.3910694109209,804.7632063466015,808.1898752365461,782.4310414810756
1731142767.2405963,777.1427061326357,806.0810081962026,807.9304215110086,769.1732933322431
1731142767.2444956,767.5150335019496,807.9082185306505,807.6745128344064,759.1582501327341
1731142767.246833,781.6843491052938,810.4022187435152,807.4214488295052,760.0409726893915
1731142767.2473197,811.1482497433137,813.3413441334346,807.1664107465251,770.9772474420008
1731142767.2483947,834.8143560125342,815.9341018389694,806.9019539461584,784.0663127416075
1731142767.252294,836.2593599092677,816.9100524637826,806.6252961068706,791.2282101216936
1731142767.2561934,816.955479530226,815.0911793769756,806.3484952947957,790.5526425617169
1731142767.2600927,794.4784758304444,810.2572396637372,806.1005585332285,786.9907661070285
1731142767.2623866,787.263535447545,803.6995487222471,805.9077200485783,787.2339732355185
1731142767.263992,798.874151917536,797.8591229631141,805.7516267222863,793.4549128100739
1731142767.266222,815.1065262043074,795.0302590741682,805.5369916257682,801.339521492478
1731142767.2678914,816.2802076471041,795.9123756264328,805.1285499936182,804.0633617810546
1731142767.2717907,794.3335813999174,799.1189799512432,804.496304721586,798.7717948851054
1731142767.273632,760.5247381528429,802.1638151287766,803.9039611944039,789.8884006923654
1731142767.27569,737.3758062490681,803.274490527511,803.9312770466419,786.0858919935047
1731142767.27794,741.2646112059663,802.6195812843806,805.1001609698335,793.1163343177037
1731142767.2795894,769.5475986471249,801.9515176736024,807.1920694097972,808.5198404397192
1731142767.2834888,802.5313798003806,802.9907485160801,808.9273481914088,823.0391780671307
1731142767.2851243,818.8332132607363,805.9355087248914,808.770483770056,827.9806019363988
1731142767.2873878,811.9061038966282,809.3189133828419,806.5344638094552,822.447930093804
1731142767.2912872,794.4107654730229,811.2362718311788,804.1508911625194,814.1681328100271
1731142767.2934935,786.9126674509808,810.8361197819534,804.3893396198416,812.9942044452315
1731142767.2951863,800.3308777312801,808.8608741216161,808.4210758284988,822.496812104691
1731142767.299086,826.8207151423387,806.9234305349115,814.5459792327755,836.7318679565807
1731142767.3029852,846.6189336141992,806.258656311952,819.4225020852587,844.8534928126846
1731142767.3040273,844.8283393663769,806.9992821608718,820.7363688493248,839.7063971081064
1731142767.3068843,823.8840969142833,808.4158491845263,818.8721328049648,823.4884309890358
1731142767.30854,801.4347877780081,809.6746480967277,816.1432453412949,806.244117129911
1731142767.309047,795.7318550127217,810.342377726896,814.4446816624348,798.6657282050809
1731142767.310784,810.7598643129037,810.320561396436,813.5768879062871,804.7718259269953
1731142767.3146832,833.2381054520218,809.5483063829136,811.7361619815291,819.7309485181047
1731142767.3185823,843.8180366491638,807.9543327680702,807.6090188820824,834.0678981774726
1731142767.322482,833.2650068849605,805.7000996119143,802.081734825366,840.8045303686307
1731142767.3229296,810.3270275226283,803.3292064926287,797.9979881935615,840.0847422156044
1731142767.3246002,794.7284684346214,801.5363659106163,798.1574609198485,837.9516768344258
1731142767.326381,800.9337635543964,800.734766458507,803.2212661598038,840.5755229607518
1731142767.3302803,826.0012431919442,800.8556902693997,811.1716395887255,848.7603796728922
1731142767.3341796,851.5761480011299,801.5677902969189,818.6416344632293,857.1918555624782
1731142767.338079,858.4854385765003,802.6485410841237,822.9855302309675,858.9415799387859
1731142767.3401537,842.0701996551841,804.0787520336032,823.5338134858927,851.4356568240173
1731142767.3418324,815.8516609422522,805.7349270065048,821.2984790783928,838.9335857998507
1731142767.3419783,800.7003150319928,807.0209388044808,817.7058955882528,829.4703489073839
1731142767.3434482,808.3781286321322,806.9392781477972,813.6202787081813,828.7563301738867
1731142767.3458776,832.6977414265991,804.748731555345,809.4351134958281,835.9876829303917
1731142767.349777,855.255594090269,800.7587657415952,805.8489250430252,844.9402677604714
1731142767.3536763,860.8492791289991,796.5227988011309,804.2056403315102,849.404849786686
1731142767.3557072,849.7711599185194,794.0658486478959,805.6925510286825,848.438749563491
1731142767.3575757,836.756258898376,794.5864232967637,809.9309730996521,846.9994746009719
1731142767.3607347,837.6055596798598,797.6139741162893,814.4072345817566,851.3408575457479
1731142767.361475,855.0593683411269,801.3327754388771,815.7495066929107,863.0333433855878
1731142767.365374,876.17037185921,803.8558814629756,812.2052961562623,876.8064906696704
1731142767.3692734,883.4552731289308,804.4427003956547,805.2668296213042,884.2968554527033
1731142767.3712604,870.1790983290664,803.7256664917097,798.7707610734005,880.7553692909698
1731142767.3731728,846.6777743723223,802.8888330509451,795.9392382193336,869.1600505164314
1731142767.377072,832.4049934168855,802.6088723970959,796.8276689855669,858.2852324515818
1731142767.3783562,840.3322065781753,802.6541637699744,798.4698776937946,856.261875242767
1731142767.3796377,866.3793435818455,802.3548258385052,797.6579034310604,864.77052126797
1731142767.3809714,892.3090005240999,801.4035065053353,793.9256739599807,878.3507600655654
1731142767.3848708,899.8894654955094,800.2589082016264,790.1312354309171,889.1308078150128
1731142767.386814,885.33199838349,799.8485588943909,790.1596691338518,893.0205873957404
1731142767.38877,862.5544313158258,800.869732485376,795.7097385059242,892.3948561478156
1731142767.3926694,852.3315386877248,803.2814510334631,804.7695084389183,893.2715430391277
1731142767.3965688,865.7224866928198,806.3727236756422,812.8807838420342,899.570567388618
1731142767.39854,895.2030252637733,809.2884594193156,816.1108121439268,909.4407990464291
1731142767.400468,920.9126345220923,811.5319518986727,813.5358001692782,916.7958744852988
1731142767.4023674,926.9064409052651,813.0438900166898,807.5901472347851,916.6623540335665
1731142767.4043672,913.9154772655866,813.8825912866724,802.1991690236954,909.6653330476174
1731142767.4082663,898.1669533759907,813.8972019279472,800.0781118849249,901.796345119862
1731142767.412166,897.5833513319308,812.7648219228417,801.0589923096671,899.7191340091204
1731142767.4132645,916.9751088022927,810.3833351034235,802.5262925711767,905.6039504092938
1731142767.4160652,944.187364334856,807.2288809176725,801.5381252000723,915.6679169031563
1731142767.4174426,959.9021708901427,804.2680272550352,797.0488710231652,923.3392383976878
1731142767.4179208,952.9576186032183,802.4038314100206,790.6389162800632,924.2676217743002
1731142767.4199646,929.0434546306341,801.8881938412,785.2437487803726,919.2652692643214
1731142767.423864,906.0410340325534,802.217029507044,782.8048433491451,913.2098682408787
1731142767.4277632,899.8039558606873,802.6277385048165,782.630006526461,911.1078966128049
1731142767.4316626,911.8806183073735,802.783075975063,781.901218157716,914.4698770115788
1731142767.433474,929.2819257321759,803.0506675203836,778.1952730439411,920.6295146776013
1731142767.435562,936.4502986605082,804.1468447845264,772.0730337406815,925.2449935991601
1731142767.436345,929.1577353411805,806.4678756531165,767.3496053209561,925.8496542733728
1731142767.439461,918.3223817902806,809.6654210850409,768.3818160157093,923.7019716989524
1731142767.4433603,920.422962996411,812.7656954988694,776.3868280075618,922.6147627946846
1731142767.4472597,942.7078739436766,814.6867632271693,787.9354402827297,925.7387837820794
1731142767.4481723,975.7766311452103,814.7772822584643,797.043063431425,932.7971420837898
1731142767.4490275,999.8933509036349,813.0833858181144,799.2172240778962,939.9871747157215
1731142767.451159,1000.0864940684652,810.2613077554693,794.3040094306025,942.8047087422897
1731142767.4550583,977.9404256270855,807.2160346214328,786.2314482792281,939.6708714761585
1731142767.455248,950.5076422677441,804.646998790305,780.2510258888176,933.2863685815083
1731142767.4589577,936.9468947885554,802.7417135180935,779.7553474206098,928.2296232843948
1731142767.462857,943.4474993640641,801.2103787707648,784.5084331835473,926.5754493270213
1731142767.464581,958.6673685631712,799.6429921527381,791.0420080609098,925.4726401037432
1731142767.4667563,963.3968827701191,797.9120741843583,794.8994873312835,919.2730108740609
1731142767.4706557,946.1615395191079,796.285346299741,793.4937215569586,904.6323212816537
1731142767.4741504,911.5040114224126,795.1696281752866,787.7805252034955,883.8826764789421
1731142767.474555,874.6775721429807,794.7567198283092,781.4292843437321,863.4086282911804
1731142767.478454,849.0214633213094,794.9037397747708,777.9303174888729,848.7013148774965
1731142767.4801345,837.7966708334988,795.2972075018238,777.9074072182557,840.8904457487604
1731142767.4823534,835.7312694257209,795.6832008661971,778.9592753132133,837.3788210956045
1731142767.4830804,835.7228549642559,795.9680856202161,778.219110459183,834.8244227405825
1731142767.4862528,833.7224173793536,796.1778310248433,775.318171567281,831.341369513211
1731142767.490152,829.3273339336265,796.3710478893211,772.965901176667,826.7463926162144
1731142767.493053,823.8899291371843,796.5829238266924,774.4688218954708,821.6692893517933
1731142767.4940517,818.6508686243423,796.8163165399844,780.3278626087709,816.6847673070573
1731142767.4956875,814.0205701139355,797.0583070444638,787.038820754529,811.9809369879183
1731142767.4979508,809.7936394755807,797.2972313327534,789.4449356286945,807.4607304753828
1731142767.50185,805.6272957949212,797.5292361506212,784.9024542198106,802.9644481167819
1731142767.5057497,801.3333351354522,797.756222859776,775.7520211355402,798.40479988773
1731142767.5096488,796.9071971896726,797.981370260008,767.8060112230443,793.7797895434647
1731142767.5112412,792.4257656410832,798.2064129239526,765.9238987260624,789.1249880740817
1731142767.5119555,787.9525708553983,798.4313742434596,770.3571771106436,784.4695590284822
1731142767.513548,783.5053964917696,798.6555212346497,776.9351462173727,779.8213683266472
1731142767.5174472,779.0709473524862,798.8782478512552,780.7584138858577,775.173898469578
1731142767.5179884,774.6305808690038,799.0993756384646,780.0062439388397,770.5182149601759
1731142767.5213466,770.1747155950907,799.3190160907567,776.6197963884752,765.8496267933704
1731142767.525246,765.7033661439033,799.5373306292659,773.7419461622076,761.1679023638086
1731142767.526795,761.2203748409555,799.7543965511666,772.7409247820575,756.4745775599447
1731142767.5291452,756.7285365419766,799.9702022836428,772.5949670372027,751.770696417445
1731142767.5308585,752.2281643465501,800.184701170493,771.7120739866098,747.05615743936
1731142767.5330446,747.7180554740775,800.3978568026106,769.8976723872642,742.3301731591986
1731142767.536944,743.1969074994847,800.6096564056555,768.4874495235375,737.5919303845428
1731142767.5408432,738.6640273059896,800.8201021820846,768.8904643537862,732.8409081230558
1731142767.542348,734.1192120543122,801.02919864453,771.3019733980514,728.0767985408362
1731142767.5447426,729.5622346031729,801.2369461346015,774.7560612723873,723.2992486753033
1731142767.548642,724.9924558619041,801.4433409054946,778.1333007713606,718.5076974557242
1731142767.5497608,720.4089537235404,801.6483777172205,781.0581679793057,713.7015115290574
1731142767.5525413,715.8112628316188,801.8520517437578,784.1236610675726,708.8804318074705
1731142767.5528965,711.2002828027399,802.0543593145427,788.5059961137661,704.045012421631
1731142767.5564404,706.5782893280601,802.2552986324282,795.1473306176841,699.1964192503945
1731142767.5579014,701.946943752548,802.4548710432264,803.7498895413014,694.3350791193582
1731142767.5603397,697.3036084592663,802.6530814487297,812.2450055256995,689.4586509561282
1731142767.564239,692.6390891123224,802.8499351763542,817.5825125461851,684.5613746064939
1731142767.5681384,687.9419591495919,803.0454305125168,817.834157428156,679.6375626384536
1731142767.5686634,683.211891045364,803.2395518875355,814.141898330809,674.6896456657203
1731142767.5720377,678.4745545991467,803.4322746625365,810.5515133313423,669.7351127495172
1731142767.5734549,673.7785058174794,803.6235901377967,811.2430487044263,664.8007933325032
1731142767.575937,669.1547034672227,803.8135413206782,817.0801746186052,659.896003521664
1731142767.5798364,664.547927725667,804.0022316986423,824.4540385688025,654.9755568075316
1731142767.5837357,659.782512071162,804.1897583931599,827.8062419995347,649.932960195297
1731142767.587566,654.657680525557,804.376066514909,824.1418715753318,644.6737115550059
1731142767.587635,649.2057010327676,804.5608318999283,815.9428509987666,639.2683518611248
1731142767.5878046,643.9531811415145,804.7435803407766,809.8986709226791,634.0684214591759
1731142767.5890083,639.8086649925874,804.9241837049009,812.0860643266342,629.5670623412639
1731142767.5915344,637.2406206513758,805.1035116810802,823.1585435219686,625.8666825349416
1731142767.5954337,634.9884167219933,805.283498142061,837.4078640442215,622.0017066482578
1731142767.5993328,629.5266828125716,805.4657490873541,846.7592550349982,615.8945930157736
1731142767.603232,616.9566754366776,805.6487810712748,846.8143807729871,605.8057309482847
1731142767.6045616,597.4734508380068,805.8260876799063,840.1754308980032,593.0177642628959
1731142767.6064684,578.9263983359544,805.988942626287,834.3168881262044,583.3963775187544
1731142767.6071315,574.0395576873203,806.1361460345241,835.711506411081,584.8431706948344
1731142767.6110308,590.5205951100088,806.2857504330899,844.9524902784988,601.0043082193388
1731142767.6149302,621.8851112056012,806.4743289408755,856.6189114708709,626.4628469370476
1731142767.6188295,648.997493272913,806.7282694252483,863.6198703917782,648.8202934882701
1731142767.620115,653.4896246622952,807.0115484408514,862.3140573708815,657.0940601015667
1731142767.6227126,632.6936218625585,807.194190972061,854.5910390123491,649.7343416586873
1731142767.6227288,603.121268728059,807.1131242063288,845.913360214627,635.5536867827834
1731142767.6253712,588.5432712810241,806.7546595767938,841.341637138101,626.8099704525148
1731142767.6266282,601.5598733259884,806.4397022019066,842.5318260004692,630.0371820416342
1731142767.6305275,633.427925290317,806.7388033043491,847.4552251344202,641.7171969920215
1731142767.6344266,660.8105383087882,807.972392534884,852.4921793682745,651.807534545401
1731142767.6356685,664.565660065339,809.6596563059176,855.0315178795042,652.0803694525148
1731142767.638326,645.5066179730384,810.6025246572232,854.683819455477,642.8024862454437
1731142767.6422253,624.0099757588177,809.7856971144503,852.6530852437521,632.7812603370602
1731142767.6442738,623.43439439543,807.3384308756374,850.3460760064308,632.845125663276
1731142767.6461246,650.8445073135275,804.564093522903,848.4885061874265,647.6329865292746
1731142767.650024,690.9476290632127,802.8843189754127,847.0959168991751,671.7324675589448
1731142767.6512218,718.2184493425984,802.618552175751,845.8805838896636,693.0271876367856
1731142767.6539233,717.1236230532596,802.7283365354202,844.6080019271303,700.9178023505974
1731142767.657621,693.8734585644295,801.7961721400579,843.2142864654577,693.5633377022984
1731142767.6578226,670.5084937136542,799.4076366577403,841.749189220659,678.9801955035265
1731142767.661722,666.8866890006227,796.7537067456732,840.2803277082232,669.3015714536991
1731142767.6631763,685.7773848294811,795.9225053541405,838.8407672681855,672.5030237795571
1731142767.6656213,712.9580207687219,798.4032342383546,837.4280489814314,687.6589234521514
1731142767.6667752,731.1666338145867,803.9228124085088,836.0259569517575,706.8991273303777
1731142767.6695206,735.1997896147747,810.4572889987822,834.6224648762201,721.9418230129425
1731142767.6734197,735.0246070711489,815.3749688499266,833.2148289206294,729.6703070241015
1731142767.677319,744.623732566751,816.8736985400693,831.8059744984766,732.5036447572872
1731142767.6812184,766.9878040298004,814.7609558518332,830.3993991433786,734.1258995783928
1731142767.6820788,789.1926159843947,810.2234221959002,828.9966225035629,735.2181522940253
1731142767.6823287,792.7106950940718,804.9922093305146,827.5973238635484,733.5128135379704
1731142767.6851175,770.5521105738267,800.5917231650212,826.2005477217598,728.0439152339618
1731142767.6890173,736.2271951922975,798.0283203653305,824.8056144754602,723.0091652838566
1731142767.6925287,715.7493587357266,797.7762220715015,823.4123368680173,726.504475835223
1731142767.6929164,728.044995973134,799.7622219795195,822.0208073449345,744.0797946865054
1731142767.6968155,769.4670120946611,803.2874635411839,820.631138863962,772.5235376011267
1731142767.6978822,815.6139171823909,807.0847216733162,819.2433465439448,800.1755953108451
1731142767.7007153,839.8149513434097,809.6822902333855,817.857350134824,814.8303441735674
1731142767.7009816,833.732837345076,809.9938575688697,816.4730039465443,813.2322368853047
1731142767.7046144,813.3982868849499,807.8517064971716,815.0901088221345,803.9686885885703
1731142767.7085135,805.7674663734874,804.192203548349,813.7084416479365,800.8498827907142
1731142767.7124128,826.8477229279002,800.7370695478294,812.3278611015018,812.1537267283697
1731142767.7134354,869.1435737757712,799.2324344801837,810.9484672348874,834.7568901553651
1731142767.7163122,908.153451112533,800.5828869663667,809.5706450646214,857.7594318987545
1731142767.7198842,922.014258606663,804.3874763987587,808.1947546150506,871.9419789147524
1731142767.7202115,908.2840799058554,809.1976248526146,806.8204367427365,876.849804684524
1731142767.7241108,884.9926269973898,813.3063526887423,805.446033157227,880.094456602896
1731142767.7274368,875.9920662338735,815.4992779849827,804.0691197955879,890.3649827810264
1731142767.7280102,892.6329513845681,815.3468198920762,802.6888593053006,910.3911199498186
1731142767.728989,925.9242365927397,813.1023005618001,801.3091674663078,935.2750166721902
1731142767.7319095,954.6877962105785,809.522555558479,799.9391696526529,956.810845673834
1731142767.7358088,962.7537282443661,805.7250101476362,798.5866874855635,969.8752226895685
1731142767.7387867,951.4187674892114,802.9168024328037,797.2449763363511,975.8645800983269
1731142767.7397082,937.375785213523,801.9033365452622,795.8830354214123,980.768774316082
1731142767.7436075,938.101601006152,802.6153961757421,794.4583006917085,989.6622502189956
1731142767.7445424,956.9289658943987,804.0461336110421,792.9629130463941,1002.136801441916
1731142767.7475066,980.2329180358663,804.7508528407772,791.4806939667494,1012.4404979069544
1731142767.751406,988.9852297425047,803.653792983987,790.185754611942,1014.2955851854778
1731142767.7553053,974.9268676354775,800.6729689040137,789.2059423739487,1006.5028248654927
1731142767.7576892,947.9288849017717,796.7719290961926,788.366049218927,994.6954553929872
1731142767.7592046,928.5895565456872,793.4022121726002,787.0113964440811,987.6225835235762
1731142767.7600958,932.1329292213926,791.6934950144426,784.2343205905516,990.6438079279716
1731142767.7623448,956.4223510065818,791.9098011570895,779.625772636106,1001.349628711157
1731142767.763104,983.4977859221121,793.4774466748443,774.1180104778857,1010.8110897761726
1731142767.7670033,993.5048765371943,795.4638402015883,770.0554093453736,1009.9312831566199
1731142767.7709026,980.1623724248191,797.1087126828941,769.9717590603274,996.4542486190853
1731142767.774802,955.4137452939508,798.0900357178701,774.6379891148333,977.2712167275666
1731142767.7756493,939.3273566804887,798.4942663471314,781.8568792350385,963.8791972986172
1731142767.7765918,943.4778798875308,798.6452439309401,787.2536691698431,964.1357683526342
1731142767.7787013,961.7790201178314,798.9147897894567,786.9246249085106,976.5777729640644
1731142767.7826006,976.5318977449347,799.5431733604886,780.2696583393422,991.6831256168222
1731142767.7864995,974.2806348227494,800.4993507767994,770.8921242595615,998.960414244244
1731142767.7903993,957.5799798927104,801.4666761759445,764.6364463698652,994.2561974125274
1731142767.7912023,942.5916720384702,802.0069297283973,765.9301953721136,981.8496294699057
1731142767.7942984,944.8982568789846,801.8230571637818,774.9401017566877,970.3052079921662
1731142767.7954946,965.8237059413722,800.9513596885392,787.4432482640105,965.7991297463925
1731142767.797253,990.7003020298196,799.764452915878,797.3021637288746,968.05845555961
1731142767.7981975,1000.4752009155975,798.7929497544056,799.7881636549769,971.574290257378
1731142767.802097,987.334246420026,798.4652958257903,793.8535517384893,970.647713266198
1731142767.8059964,961.7131411417728,798.9005715815849,782.4033817756069,964.0785774076451
1731142767.806756,944.5386301576974,799.8845592531857,770.6650541239667,955.7411364501794
1731142767.8098958,950.256707111762,801.0660326467038,763.4865480770109,950.6520107894281
1731142767.813795,974.2456818359713,802.2145332199681,762.8848901647741,949.9833461811488
1731142767.814397,995.4773712980497,803.2668083464791,767.2280307327849,949.568638142415
1731142767.8176944,993.0330594731802,804.0791962524783,772.6404517434449,943.5071062894503
1731142767.8215938,963.2301895193986,804.1768717476842,775.7495733761144,929.8414950268238
1731142767.8223093,923.1367454382709,802.8947757041459,775.8345256559493,913.1787356281828
1731142767.8254929,897.4129778718341,799.9188110117674,774.8613604308039,901.6387108247895
1731142767.8293922,899.1970140760269,795.7511996448255,775.5636273685499,900.476044291386
1731142767.8321607,920.3876179422317,791.6173277736832,779.2091850088843,907.6920792603123
1731142767.8332915,938.6877933723686,788.8397852823983,784.7516040336064,915.3680422554821
1731142767.8332996,935.3733712257131,788.1778355329411,789.8267198709465,915.748946013388
1731142767.8371909,909.7977695931369,789.6018817061107,792.6638921287216,907.2363326326187
1731142767.8378627,879.6785478423827,792.5524801876774,793.4232404666446,895.4933803338681
1731142767.8410902,867.2224166756664,796.3689826913421,793.9531301090136,888.7414499054335
1731142767.8449895,881.8184672740925,800.5340864680302,796.1018325283185,890.970184585907
1731142767.8488889,912.6261890439295,804.6096310978324,799.8380391366877,898.4994959230382
1731142767.8522022,936.828373262682,808.036200172387,802.7517043116447,902.6859587050365
1731142767.8527882,937.0675487915283,810.1271982039244,801.5771144304596,896.6507897915646
1731142767.8534162,914.2391153146152,810.4384999333224,794.7261039462112,880.7109330374401
1731142767.8566875,885.5873718366981,809.2766483824928,783.8236896361435,862.2772625081328
1731142767.860587,870.0687752597634,807.8018329691907,772.9338688358662,850.3764553706293
1731142767.864486,873.2171266525189,807.4089334276601,766.0476335194714,849.0825229582015
1731142767.867069,883.7261029756771,808.7408102330752,764.7861801741057,854.8130455450265
1731142767.8683853,883.9796139714514,811.1447101654478,767.9553056511912,859.3180690488023
1731142767.8689697,865.3986249147091,813.0892257955898,773.0089428729664,855.8512009085289
1731142767.8711047,835.9190656234566,813.2467288462753,778.0763164236934,843.7680091293014
1731142767.872285,813.5799452767037,811.3922910953964,782.9840521858023,828.1935542966261
1731142767.876184,811.5291171819196,808.4753122534747,788.6223191682832,815.3092134808026
1731142767.880083,826.8476538318413,805.9314379236853,795.3358016974502,807.2969338223941
1731142767.883983,842.6985646260352,804.8368876268581,801.8427340540015,801.2499388174612
1731142767.884523,842.3305630296605,805.4520807885668,805.7995772550332,792.9200895951482
1731142767.887882,823.269979694934,807.2644364802181,805.6664505986298,781.7603343949062
1731142767.8900075,799.5442095835353,809.3252846687718,802.2034328475984,772.3783831154383
1731142767.891781,789.8574197767911,810.6839904804642,798.1057709462264,770.7622478214569
1731142767.895681,801.6784552518585,810.8140526941845,795.9765562194268,778.5879682725143
1731142767.89958,824.6984034213727,809.8754950057786,796.432583933388,790.8724118395647
1731142767.9000764,839.1375872872741,808.6058554871453,798.0183932970398,799.3053077931335
1731142767.9019773,831.9423148406763,807.8240178313092,798.8748605161097,798.5542961974779
1731142767.903479,807.4824689097198,807.8728897907114,798.5102578138768,790.2852734866196
1731142767.9073784,783.9822068249373,808.4389107258235,798.0791793054277,781.6409580954376
1731142767.90891,778.5737423099548,808.8836159561383,799.0837433988487,779.4786389384939
1731142767.9112778,793.1696607015335,808.7716568944638,801.8091953926663,784.9627912527974
1731142767.915177,812.8378038635292,808.1245184335933,804.8591356658543,792.7165389314114
1731142767.91563,818.2113096956379,807.2242449740079,806.0757866564547,795.1410043097528
1731142767.9190764,801.7445021728759,806.2418426784375,804.0629532870823,788.464550586326
1731142767.9229758,774.1922034256397,805.1170681003954,799.2548932263046,775.6729406128663
1731142767.926875,755.7759600923323,803.8139481496627,793.8846625252406,763.9138695812526
1731142767.9278126,759.3769097852911,802.6354731763766,790.8478957707375,758.4704297999322
1731142767.9307745,779.7326319135141,802.1784284620079,792.0674711539401,758.3133996684265
1731142767.931183,797.5057313406196,802.8749780786744,797.32848589411,757.0476069874763
1731142767.9346738,794.8523815143637,804.5261077126852,804.3543692895855,748.6168596867898
1731142767.9368849,769.9261865105292,806.2975328916783,810.1003019237226,733.053686670323
1731142767.9385731,738.7083443029476,807.242927291892,812.4122718587198,717.2901727503498
1731142767.9424722,722.5902872042609,806.9421207649407,811.028483264294,709.9900017992431
1731142767.9463716,731.401209126463,805.7461305434218,807.4623653558327,714.4160202312413
1731142767.946715,755.3583107734727,804.46922223859,804.0433333773299,725.2700553823524
1731142767.9467366,772.5827934233789,803.8096710488023,802.7551700716285,732.4065627170046
1731142767.950271,766.4518860561434,803.927921917061,804.4220524098166,728.6773293181337
1731142767.9541702,738.9339505765187,804.4088493145292,808.4915468338379,715.6116021856056
1731142767.9580696,709.0433795446835,804.5477014343297,813.3786570977904,702.2517419798876
1731142767.961969,697.6284125011989,803.7694707392764,817.1595512523655,698.0185894415278
1731142767.96229,710.9706469509691,802.0034836283326,818.350787018145,705.3771679674707
1731142767.9656177,736.4965416464147,799.8479763933839,816.5318170046858,718.2089248371323
1731142767.9658682,753.5271778705182,798.3717466220519,812.5859303527155,727.0802700404876
1731142767.9697676,749.4510065899074,798.5491564804638,808.3614347607333,726.9943357245033
1731142767.9717927,727.83657716202,800.617627209794,805.7482809611707,721.3105849133569
1731142767.973667,702.9618186881542,803.8236843158003,805.5924942547359,718.7481815681633
1731142767.9775662,687.4730780487748,806.8147314953242,807.2149605386038,726.0254657574571
1731142767.9778435,684.5982650468637,808.4304085780273,809.0427814775525,742.1453656570523
1731142767.981465,689.6574960766482,808.2988124188299,809.9595445746155,758.8792081053708
1731142767.9845204,696.3228810074056,806.8153528949531,810.2213036072312,766.9377303815469
1731142767.985365,701.0670747189924,804.6502141873693,811.0761207127723,762.8457342617553
1731142767.989264,703.6329133184468,802.3486489796156,813.4523920873412,751.1973062430206
1731142767.993163,705.2846110879457,800.4059053540923,817.007135683835,740.8083631884517
1731142767.9933968,707.1355989916954,799.5617156973883,820.4255892748158,738.0473338426987
1731142767.9970627,709.5338001668699,800.6736474499219,822.5698400657902,742.5660542753507
1731142768.000962,712.2789098500718,803.9503616330775,823.3049086572948,748.4846244284117
1731142768.003423,715.0593797750014,808.217613922191,823.3357534761911,749.7409303641692
1731142768.0048614,717.710096925292,811.2090050131662,823.4657935403591,745.1887341902258
1731142768.006701,720.2317594724952,811.0353948047009,824.1247931305913,739.3750833712828
1731142768.0087607,722.6956438446659,807.7115399473549,825.4691715860412,738.413021319316
1731142768.0089502,725.15859095966,803.2998900311409,827.602249158446,744.3915086491305
1731142768.01266,727.6354974028047,800.388972958523,830.4053425249414,753.1678231944658
1731142768.0165594,730.1137111200534,800.1927010958461,833.1287039445745,757.727946825471
1731142768.0204585,732.5764440590453,801.9252738045818,834.397057137124,754.4223785215992
1731142768.0223255,735.0154297191759,803.853962142967,832.9389252056728,746.5068445178744
1731142768.0243578,737.4310437221035,804.8466159382848,828.5081110606479,741.5250867348208
1731142768.0245037,739.8269542936749,804.9374637930047,822.1380968574313,744.6231097487063
1731142768.0282571,742.2057652168759,804.6304082207619,815.4775557106506,753.7368277978851
1731142768.0321565,744.5678240478898,803.9655304387352,809.8276347406867,760.9784629637592
1731142768.0360558,746.9121635153973,802.4360128440594,805.7035912752572,758.9867848751697
1731142768.0399551,749.2377863644017,799.7634568551838,803.1236316121067,746.7786253581164
1731142768.0400567,751.544257598209,796.5918013348319,802.0858371948941,730.4318077591798
1731142768.041228,753.8315246377999,794.2989801374979,802.5849361739201,718.5080147646185
1731142768.041609,756.0994097016721,794.0709636676743,804.1370411623604,716.1652600126224
1731142768.0438545,758.3473184599434,796.1049300209838,805.4900986370864,722.3438563868183
1731142768.0477538,760.574550559099,799.6327770260817,805.2007570848311,731.5995274121461
1731142768.0516531,762.7811939963053,803.6246712068415,802.8818124111536,738.6577117882579
1731142768.0555525,764.9689234931842,807.3890489262318,799.9785123875638,742.0350574867563
1731142768.0556104,767.1404476949423,810.4895050546535,799.0357457387844,744.1349872228394
1731142768.0594516,769.2967090620232,812.2603552109842,801.731992478016,748.2011741998897
1731142768.0601306,771.4329862931954,811.7653104051632,807.2749060363387,755.0473589022727
1731142768.063351,773.5381181505883,808.5707751918438,812.6778081410981,762.4384824137281
1731142768.0672505,775.6020987003718,803.6332358262462,814.8927980828227,767.4618984498294
1731142768.0711496,777.6320886382183,799.1934960886292,813.1461682846024,769.5606000917319
1731142768.071164,779.6647238906871,797.4456467365119,809.5853234271049,771.46993150688
1731142768.0750487,781.7519184695755,799.0325291076904,807.714854686261,777.2625691853373
1731142768.076517,783.9056422393556,802.6941786641919,809.8855013179545,789.1344090078221
1731142768.0789485,786.0275261528741,806.3327354859105,815.7939538160966,805.4570070478413
1731142768.0790334,787.9054842426855,808.4804385919841,823.0185155709354,821.542731911908
1731142768.0828476,789.3711114938069,808.9647319230016,828.92016623235,832.557201993862
1731142768.0867174,790.6021684099583,808.504254580804,832.2489563768128,836.4904134749542
1731142768.0867467,792.322419181872,807.90326009971,833.2875061098008,835.0140910989898
1731142768.0906465,795.4706940387316,807.564022910447,832.785127931396,831.5551476635045
1731142768.0945454,800.1116677278646,807.4861056808153,830.9636398563042,828.156759983217
1731142768.097936,804.1520222209273,807.5032039895998,827.6154792667861,823.9812735081359
1731142768.0984447,803.427569667476,807.4838838677193,823.0843033322238,817.1720928586278
1731142768.1022706,794.722368199596,807.3945464981072,818.931197097828,808.6501878733918
1731142768.102344,780.8175308159831,807.2648642847552,817.319289673737,803.9507838076972
1731142768.1062434,772.5298482427594,807.1332288385465,819.3979853822295,810.2193130931206
1731142768.1101427,782.3779856897154,807.0178024830342,824.0340765068653,829.8176417962669
1731142768.1114252,812.4725547153081,806.9166981524638,828.0811033387346,855.865045523654
1731142768.114042,848.2390741494952,806.8205784817429,828.1427683411553,874.4102244997874
1731142768.1168385,866.7631357565655,806.7227243947272,822.6046003797239,872.7612436487582
1731142768.117824,854.6258983392397,806.6217260776076,812.5501728990828,848.1869588136852
1731142768.1179414,819.9484267742557,806.5193218902778,801.0271558489736,810.44388379352
1731142768.1218407,787.427090327428,806.4175022064998,791.2299442779539,776.0501798395164
1731142768.12574,779.4918364491065,806.3171069355284,784.7827439601797,758.2593084415846
1731142768.1296394,798.7444578360247,806.2179413195888,781.1487549357815,759.6289051114319
1731142768.1333776,826.2230578506042,806.1194718995628,778.4256306401567,771.9507683505328
1731142768.1335385,837.0864026180141,806.0213370263166,774.9098636623659,782.9857702438725
1731142768.135741,820.8793208563918,805.923458922111,770.3758217040188,784.9075672215467
1731142768.1374378,789.8260267404922,805.825914846137,766.25699288621,778.6211080022117
1731142768.1413372,768.5750368888555,805.7287853784063,764.623927539948,771.376266136879
1731142768.1452365,773.9792380029268,805.6320870776495,766.59782113208,769.9632189623893
1731142768.1463332,801.3921353182865,805.5357820170127,771.2521285944238,774.9086710702964
1731142768.148931,828.4530513426336,805.4398130397017,775.8824741644742,780.2193272971442
1731142768.1491358,833.1661020401343,805.3441289046243,777.69439895509,778.8316665892476
1731142768.1530352,811.6783835116216,805.248694182139,775.8433750763013,769.2887769674641
1731142768.1546435,781.4669479014789,805.1534934183895,772.2333853497488,758.0010022113903
1731142768.1569345,767.2997820230345,805.0585321846896,770.2455672538873,754.8840260478353
1731142768.1608338,781.1656940813488,804.9638234979988,772.2424034987221,765.5922963593524
1731142768.1644845,812.3861498267595,804.8693482522151,777.8314524831757,786.570534514396
1731142768.1647332,836.0752902874303,804.7750058226462,784.3143138585309,807.1250327920334
1731142768.1686325,833.2350831365396,804.680613114746,788.895179594636,817.149866600419
1731142768.1725316,806.1966737725046,804.5860202744238,790.7400901825515,814.518835734687
1731142768.1735463,776.8871826605673,804.4913319080315,791.1831282377689,806.2921855186527
1731142768.1764307,769.4120453825736,804.3970529497328,792.0485376631734,802.7568325249949
1731142768.1800375,791.0112536815922,804.3038468119779,793.7016387925424,809.0319287907342
1731142768.1803305,826.4139966525322,804.2117424722371,794.624182047294,820.9335169051268
1731142768.1812413,849.71053824583,804.1192118267513,792.9036511151213,828.4020804227995
1731142768.1842296,844.1700002654379,804.0232864706205,788.3081118836587,823.7401263357742
1731142768.1881287,814.5774325798994,803.9219231061169,783.1037263803643,808.0472591942283
1731142768.1920283,782.7941123028462,803.818161904702,780.8416362971718,790.7251583180883
1731142768.1924489,770.4027809952522,803.7224109387915,783.9866506896574,782.5433086115615
1731142768.1955912,782.2783901910313,803.6470488373317,792.1176175811983,787.8584995136118
1731142768.1959276,803.9542365604023,803.5909980541998,801.9554252747091,802.017294661692
1731142768.199827,814.4956220372459,803.5233792501715,809.1865159323245,815.5969595021268
1731142768.2037263,804.1419721121708,803.3887558003688,810.9024373413384,821.7268602943317
1731142768.2076256,782.2816082092057,803.1548812440822,807.1615430319355,820.6210464503758
1731142768.2111444,769.3980829663805,802.8896032304033,800.7953279177145,818.0858304219369
1731142768.2113514,779.8018956478867,802.7928282525843,795.6632322440273,819.771737558403
1731142768.2115247,809.3710417879271,803.0860115773183,794.4249263763905,826.2070739037179
1731142768.215424,838.2597802486188,803.7743906953111,797.113602239463,832.6683118310549
1731142768.216149,846.3397038867796,804.5004521185307,801.3303824257497,833.7146092153303
1731142768.2193234,828.908945765854,804.7212968518567,803.9556452977941,828.2863491535367
1731142768.2232227,800.0185418439598,804.1283389895007,803.2909719850442,820.8421210740581
1731142768.226698,780.77543716117,802.9208738557053,800.140497059858,817.440876386013
1731142768.227122,782.2610554019644,801.6544210899874,797.0152706976214,820.1417578176624
1731142768.230254,797.2290062814448,800.8142733237711,796.0898841585486,824.762011990535
1731142768.2310214,807.5060685016595,800.5200359017334,797.5878908921653,824.2877451123609
1731142768.2349207,800.7437979551617,800.574718365116,799.9035695604567,815.2751555444687
1731142768.23882,782.0038974488117,800.7104015615676,801.2284337497927,801.7207727000186
1731142768.2422514,769.8764775727946,800.7723587731294,801.1525680286164,792.757091222814
1731142768.2427194,780.1781636940178,800.7434741007914,800.8636260783607,795.6616355137927
1731142768.2466187,811.2452804455494,800.6739572646344,801.9500593232516,809.6955310903448
1731142768.2491565,843.6979103118982,800.6107576022372,805.0342826361942,825.8255043707165
1731142768.2505178,855.2729884692613,800.5698117558234,809.4091996644738,832.8582386231917
1731142768.2510574,838.6278089935519,800.543671811487,813.7676881509485,825.5593696713884
