timestamps,eeg_1,eeg_2,eeg_3,eeg_4
1731143310.7067473,713.2544231827345,803.1162319663466,820.5913890933535,690.7980222706032
1731143310.7307768,691.9537114942825,802.664159788156,818.1447376467202,686.5236881697225
1731143310.738479,680.942659527827,802.2707058191911,817.7650280171017,678.5117259964373
1731143310.738702,687.5947230804452,801.972359045715,820.8612174481606,664.1452963350246
1731143310.7416668,711.7768778832875,801.7794053367718,827.5546869805291,642.326466966166
1731143310.742596,742.2103596896286,801.7165281573108,836.3909701046576,613.2049068431376
1731143310.74649,759.280794122115,801.8969683125314,844.8637714487475,578.0200449171816
1731143310.7496116,746.1531565439885,802.547810871625,850.743755045079,539.6934543737883
1731143310.750384,701.8183715350899,803.8714075975471,853.4060188108551,503.6877047852269
1731143310.7540429,645.0941844870698,805.7487536421277,854.0815456358091,477.63131047588996
1731143310.754278,603.8232480798579,807.5296498072435,854.7342903534063,468.60637386323094
1731143310.7581718,595.5329957989243,808.242868684225,856.4982324459263,478.94520162364836
1731143310.762066,614.2528208102303,807.2568843706582,859.046420435731,503.38463192760634
1731143310.7659595,634.7339891115594,804.9151123746059,861.3584290386277,530.4470449141929
1731143310.7684464,631.8472401644833,802.5161128963781,862.9888921792258,548.2806823013707
1731143310.7696073,600.4095293249112,801.5038524125495,864.5299579298379,551.5998888471217
1731143310.7698538,559.7807392392585,802.4547417387934,866.8809224990198,544.8228281528552
1731143310.7737477,539.3546377338132,804.6604591388717,870.1595494778743,538.7662408912738
1731143310.7765863,556.1276848488508,806.5879116182178,873.3739466749935,542.992335465773
1731143310.7776415,601.8011872525944,806.784766226509,875.1606142099918,559.4048310874354
1731143310.7815356,649.3535327290535,804.5624181791201,874.8927461363285,581.8675838243837
1731143310.7851715,673.6756808648241,800.1343283709845,873.1995156165655,601.862140003255
1731143310.7854297,669.908881187059,794.3544200914266,871.5171679773812,615.3981468879583
1731143310.787281,655.2860787561548,788.346376247396,871.0998609420498,625.6376958040402
1731143310.7893236,653.7361898882967,783.1582536829079,872.2806425146443,639.5661164657535
1731143310.7932174,676.3323946026278,779.4421998474095,874.4761931832071,662.0541229379
1731143310.7971115,713.6357855534104,777.2255442617953,876.7856233400763,692.475686133976
1731143310.8007357,745.7149307420898,775.9509266169622,878.6027901094933,726.3402322563935
1731143310.8010054,760.6615446678434,774.8684894454361,879.7841762647392,759.8145409928336
1731143310.8048997,765.3757748668011,773.5679245943834,880.392758348285,792.6376545054292
1731143310.806116,779.2643142290397,772.250251539902,880.3567348288811,826.7188515702176
1731143310.8087933,816.3727663264385,771.5277318250057,879.3062908930967,861.9339653883965
1731143310.8115058,871.5879177163267,771.9685139199075,876.6416141293621,893.4987595673523
1731143310.8126872,923.2484942916562,773.8092915606542,871.8220770165685,914.1400925259932
1731143310.8163002,950.489268402006,776.9951359610739,864.8297926488677,919.9021000822237
1731143310.8165812,950.6430198332189,781.2957773527365,856.5338058445994,914.6262773636777
1731143310.820475,941.3120808584492,786.2299124141058,848.48548578214,908.6139248081615
1731143310.8243692,944.6634762780571,790.9394690704677,841.990273221393,911.7911993822614
1731143310.8249507,967.432267483442,794.4176976897572,837.0740071526258,926.7530683800226
1731143310.828263,994.6127330653179,796.1574826473837,832.3707319125709,947.5601887034035
1731143310.8318644,1002.9492852403276,796.6799867590686,826.2984186145628,965.2734041612796
1731143310.8321571,982.4856235094485,797.3035296545095,818.6032757691024,975.3000937698057
1731143310.836051,947.13369696469,799.1726272420384,810.786914621704,980.2520788153104
1731143310.8399453,925.1082940571722,802.3397789018595,804.860477130799,986.3865123197685
1731143310.8437855,937.510250414867,805.7341764108733,801.4895385444887,997.4478173056046
1731143310.8438387,982.5216405726901,808.0763344465951,799.2605284579266,1011.4719385692442
1731143310.8464255,1036.8714829324376,808.9611590269648,795.7965457117801,1022.8557679277005
1731143310.8474286,1072.3001691128507,809.2055234236869,789.758477019775,1027.436446238744
1731143310.847733,1074.4137237547598,810.190002772703,782.0041765928681,1026.4101532697196
1731143310.8516269,1050.8861598865792,812.7279179812327,774.9782084782006,1026.278485384807
1731143310.8555207,1024.0638645231488,816.3433049375267,770.9396493688002,1034.763835847634
1731143310.8594148,1013.9175372217333,819.5198858451663,770.520756239351,1055.0417251601584
1731143310.86262,1024.0634725870777,820.752677856202,772.6443900272486,1081.8925633769693
1731143310.862993,1041.2326868093191,819.6272318492711,775.5449184907186,1102.8364084919253
1731143310.863309,1048.0823895307535,817.1306523746812,777.7849221938509,1104.614702047876
1731143310.8672028,1038.5194456469276,814.98501612271,778.5088607409883,1081.6087772529718
1731143310.8710966,1022.7427643765766,814.5151921166232,777.2122292903373,1040.5971080508057
1731143310.8749907,1017.9275443796108,815.8538007859038,773.776929303196,997.916972445271
1731143310.8785572,1032.5439290019385,817.9741191139633,768.9044524895615,970.0997626630437
1731143310.8788846,1057.5971511718747,819.4385829030467,764.2445097197418,963.922570392282
1731143310.881345,1072.4475723141445,819.314929151644,761.6471713291933,972.7368281941103
1731143310.8814547,1061.0928153420064,817.6812589144787,761.9837587107893,981.8336182836473
1731143310.8827786,1026.0605608738576,815.4502369385175,764.6121487405413,979.1440116015718
1731143310.8866725,988.1175633266478,813.6746360315512,767.9765364216453,963.4274097995899
1731143310.8905663,970.7154548979237,812.8200889019536,770.6982221893737,943.7750083654536
1731143310.8941214,980.8990880450149,812.5125767455493,772.144501886195,931.0828927863564
1731143310.8944604,1002.672308438583,811.9304043264277,772.2156472639286,928.8538975600052
1731143310.8983543,1009.5145649388181,810.524029996454,770.9983788833185,931.2447353949408
1731143310.9002898,986.5638655631973,808.5046678121882,768.9166655463864,929.7083667539191
1731143310.9022484,943.9607086937183,806.7558076144285,767.150951086411,921.7090716079396
1731143310.9061422,909.61263483122,806.2806443342279,767.498670792642,913.2285974946527
1731143310.909686,906.8207587432022,807.5933176266168,771.3103330119128,912.8122727664102
1731143310.9100363,935.0291567584642,810.4088026272337,778.215989705157,922.9010916864426
1731143310.9139302,969.5070943823721,813.7385974372805,785.8565337516675,936.6100240599342
1731143310.9162643,980.3325794754136,816.2915450621301,791.1087773279148,942.9536365901279
1731143310.9178245,955.5227354821845,816.9923483091445,791.9783453020951,935.8689005542748
1731143310.9191246,909.9750847580617,815.4158621168798,788.7078035217622,919.1744181290039
1731143310.921718,873.2517093643926,811.9569074347195,783.3112692577088,903.3095266361872
1731143310.92525,866.0505868447697,807.641664039231,778.0449436963789,896.7292495477252
1731143310.925612,884.2770806311077,803.6587782781985,774.0679047093907,899.1925292109637
1731143310.929506,903.5825566148156,800.8682511789092,771.1876265363148,902.4693586587624
1731143310.9334,900.4883938641301,799.5760837638934,768.603316829225,897.8055147020549
1731143310.937294,872.3367529909716,799.6658473401934,765.86523417857,883.9072814379292
1731143310.9379592,839.2762145516851,800.8976294844664,763.3287378148043,868.7620808774192
1731143310.9408145,826.815614460945,803.0821108672827,761.9335874943717,863.6506235038925
1731143310.941188,843.9321633865407,806.0115917825493,762.6076426763677,874.1151333879507
1731143310.945082,875.1270707816705,809.290516727703,765.6918515012427,895.1730676690433
1731143310.9489758,892.7522533304908,812.2878058459718,770.6485687690196,914.6122633666791
1731143310.951184,879.1632586428287,814.2831537577908,776.1672030815627,921.6061032894354
1731143310.95287,840.6995238164059,814.6952231332076,780.6417491595327,913.6656984399568
1731143310.9563787,802.610741038261,813.255698115798,782.8171554502042,896.6690725694307
1731143310.9567635,789.3599470951086,810.1102643451704,782.2864719174994,878.7956667628982
1731143310.956794,805.9902144403275,805.8977296106314,779.6128659172148,864.2209351318135
1731143310.9606576,835.0700508227264,801.7628635207858,776.0899740606613,851.9845594539123
1731143310.9645517,851.3569014237427,799.1248271755292,773.3145982716321,840.1473720581172
1731143310.9684455,842.2890197018964,799.1096442586696,772.7204430444622,830.2549514132558
1731143310.971943,817.7418863984902,801.8978833110366,775.1320890811905,827.0716609599899
1731143310.9723396,801.1996623793599,806.4891942711613,780.4014807101253,833.5583565003348
1731143310.9756289,809.740179273976,811.1680080221405,787.2792150269714,846.1820324070509
1731143310.9762335,839.3675739144333,814.3848423415899,793.7074445910833,855.7234980999145
1731143310.9801276,867.6426968822603,815.4165790727504,797.5790479774696,853.6396228815255
1731143310.9840214,871.3404864000928,814.4181158164389,797.7107750035801,838.7277661102364
1731143310.9861035,844.9058943453942,812.048830975092,794.5134458392868,818.3608045462677
1731143310.987507,805.1691105072671,809.1296639736587,789.8646287692321,803.1341689484592
1731143310.9879155,778.7557688538441,806.5216034970375,786.1142108590253,799.106025775493
1731143310.9918094,782.0258980318476,805.0128056539941,784.7725989994613,803.5147818866387
1731143310.9944637,809.0726636844082,804.9905808612939,785.7639554893782,807.0017358186631
1731143310.9957032,837.094092035835,806.068356274492,787.7892045530593,800.520181708603
1731143310.9995973,844.8319326998283,807.1106097816538,789.487072829092,781.8934376995815
1731143311.0030715,829.1658858740481,806.8336193335706,790.4155478818136,757.489442633991
1731143311.0034912,806.2349297867812,804.5905237774658,791.0615333195382,738.0523993426697
1731143311.0073853,796.3027629189326,800.7155986784027,792.0049104564521,731.6679393231859
1731143311.011279,805.4756176501413,796.1909160385029,793.1301425665991,738.508671231278
1731143311.0132985,820.1469707327823,792.0015489808065,793.6463542264731,750.6581431314412
1731143311.0151732,819.0388727171588,788.7470687045079,792.8400100952612,757.1241745936615
1731143311.0186355,792.5223989096996,786.7275512845073,790.8133793256229,751.0101982204638
1731143311.019067,752.6140529540005,786.2275322272782,788.5343796126898,734.2833978970259
1731143311.021023,724.7707189200967,787.5690706157686,787.1488455010132,716.6473870209527
1731143311.0229611,727.7359938149456,790.8098660859514,787.1136958337167,708.7168309867834
1731143311.026855,757.8600276515364,795.4035728560117,787.8754406759555,714.1466626793991
1731143311.0307488,791.1754354101791,800.2616953883046,788.4278256130495,727.0031585991562
1731143311.032133,802.189292647824,804.2952515466174,788.348137593049,737.0055650116576
1731143311.0342002,784.2338610550272,807.0002128210639,788.381524670984,738.4639533827765
1731143311.0346427,754.2887433194646,808.5314150276682,789.8857954166682,734.9350666583568
1731143311.0385368,737.8559403899454,809.1805202279261,793.4467638276523,735.1364782904616
1731143311.0424309,746.564589295371,808.8064242486281,797.8942241658347,743.8187579076314
1731143311.0463247,767.8709776013327,806.8945808248632,800.8091913910156,756.2983156184554
1731143311.0497644,776.0576003594998,803.3326156010056,800.3374339628497,762.0779056771943
1731143311.0502188,755.1959219955903,799.1998135756985,796.8282152647774,754.4389401167201
1731143311.050968,714.1493255555644,796.6616537356705,792.8010983646292,737.2617924289434
1731143311.054113,680.4078130647915,797.7337054844388,791.1323317628638,722.7724698589896
1731143311.0559428,677.5880115530957,802.7209661202719,792.8947554895668,721.8889307859831
1731143311.0580068,705.316019267903,809.6311009944048,796.5867363711317,735.1747757712947
1731143311.0619006,738.4704944984015,815.2529002317839,799.3311741912479,751.9322328365917
1731143311.0653286,746.9710515307731,817.2527229214775,799.065049648496,758.371526398711
1731143311.0657947,720.2967990367293,815.693454513526,796.0447849041557,748.4800899974957
1731143311.0696886,676.6288804300029,812.7611158358784,792.6119919943628,728.9772279473711
1731143311.0698028,648.7878488040473,810.9624736699453,791.5092445650602,714.4029870323403
1731143311.0735824,658.1463617565355,811.3032157592532,794.0458555143842,716.2792054280472
1731143311.0774765,697.6100166156117,812.8338969064306,799.3709448263515,734.9489428619049
1731143311.080893,737.2317417800007,813.6829940000023,805.1577252757148,760.2492106492616
1731143311.0813704,747.5655376851104,812.5537676724823,808.9942153640295,779.7618098532047
1731143311.0852644,721.9934684811026,809.5736875737049,809.5101090136677,787.451789012017
1731143311.0886374,680.9105511754154,806.1212784894128,806.7664406936561,785.9661314813619
1731143311.0891583,655.448078408509,803.9633236392468,802.0293913577365,781.808984404303
1731143311.0908625,663.9489336251811,804.2532538020886,797.2087310059974,778.5191870097619
1731143311.0930524,699.0671595307196,806.8571679466934,794.106696206988,773.9778536968148
1731143311.0964572,734.6713126962435,810.3607893135991,793.6434509462639,763.8087242160775
1731143311.0969462,746.7043350565253,812.8792906700655,795.4430022135668,747.3875450689795
1731143311.1008403,731.6968194145011,813.2848178205702,798.1496455230036,730.7259658671151
1731143311.1047342,708.4551621200667,811.9912068818214,800.3571028173022,723.1344714135405
1731143311.1074722,701.6819052407924,810.6021899354612,801.4712129427623,729.9299706397364
1731143311.108628,720.9898328049715,810.6272435792669,801.8326335394673,747.1522884886571
1731143311.1120214,752.7638737571099,812.3117637370875,802.0895464399523,763.0768656858203
1731143311.112522,771.6637346926392,814.5372425316915,802.4891227660277,765.9735968180713
1731143311.116416,761.9890628235061,815.7815204620942,802.7536452247302,752.3843729360002
1731143311.12031,730.9071834166036,815.2431931388995,802.5452987276387,729.5781650190231
1731143311.124204,702.6820806007788,813.2256561761782,801.9270263483618,710.4044481566057
1731143311.1257818,699.0620324384686,810.6205012191166,801.3189447769473,704.6442031778939
1731143311.126307,722.0899418503155,808.0731551948868,801.069198823035,713.2585829322877
1731143311.127586,753.0372979965978,805.5692553290116,801.1775270643062,729.1474464530482
1731143311.128098,767.916878844386,802.7373089391971,801.484946101619,743.009313083613
1731143311.131992,756.9693842240433,799.5359870417392,802.0783366277968,749.7009069208661
1731143311.135886,732.468524840117,796.6706105647556,803.3946185286745,750.8863501105257
1731143311.1397798,718.3776463140465,795.3094086522532,805.8057558341678,752.6892318644171
1731143311.14315,730.0639629846409,796.2665908323061,809.0047022145228,760.3546991317311
1731143311.1436737,760.8657081153781,799.286779263715,811.7934271738811,773.7653983984777
1731143311.1451418,787.1412964165606,802.9999983570482,812.6491440676301,787.0632662682696
1731143311.1475675,788.0403902315433,805.5875408308934,810.8332522006058,792.8271520953335
1731143311.1514616,763.493431164576,805.6875640978873,807.2246172464297,787.8624986420642
1731143311.1553557,735.0445633056992,802.9956384077515,804.0409551396662,776.1094331837915
1731143311.1587143,728.4832134759774,798.3362919539408,803.390693209178,766.0718149406682
1731143311.1592495,752.5315618691525,793.3020124401185,805.6621558797964,764.524232546794
1731143311.1607013,791.1457897890784,789.6344887512007,809.1048243223629,771.5823154113583
1731143311.1631436,815.8076796373545,788.5192986348926,811.0886829771833,781.337488497273
1731143311.1639764,808.0365764800409,790.0831473595779,810.1127475751418,787.5266455391451
1731143311.1670375,774.1915950065786,793.4466758899055,806.9546608124724,789.204699239607
1731143311.1709316,740.6493525034458,797.3745503069407,804.0468631288385,791.2916413790225
1731143311.1742787,732.9420073043892,801.0250597984217,803.6090741015552,799.459411622291
1731143311.1748254,755.4564012127472,804.1564958227972,806.0055724288204,814.036735050328
1731143311.1787193,788.2592763993208,806.701558838533,809.5114224713135,828.660297171236
1731143311.1826134,803.8814604570889,808.3196867050028,811.5384796064486,835.2180892130224
1731143311.1828113,790.338876366429,808.5474908733044,810.3570026681954,830.9139276837586
1731143311.1865072,761.275877333551,807.4294033562874,806.1298919905943,821.1613433418804
1731143311.1898427,744.7488260816804,805.875089721141,800.6577091592216,815.454378711295
1731143311.1904013,759.9036893130957,805.2104455174679,796.1488260387149,819.4655882183089
1731143311.1942952,800.7105714093718,806.2280718804176,793.972370844257,830.1249811019956
1731143311.1956208,839.9873127441954,808.5777626630437,794.2566391947789,838.1420189353491
1731143311.1981893,850.4204629846911,811.0215693185872,796.4014786440297,836.047074021436
1731143311.201646,825.7109403651064,812.29104280897,799.7704611328841,824.803708655447
1731143311.202083,785.0437703038328,811.827134549306,803.816076229458,813.0020317941005
1731143311.2054071,757.5183969142261,809.9114685260035,807.6858931017684,809.0633704075269
1731143311.2059772,759.2226308022148,807.2663950468987,810.056574795256,813.2012089233273
1731143311.2098713,781.4655593228467,804.5577107071675,809.714593586805,816.3641500437643
1731143311.213765,799.4775768367688,802.1634653873664,806.4974311374023,807.4499064148476
1731143311.217659,794.0092724249057,800.2529369423611,801.6845877680823,782.9379793109862
1731143311.220481,767.69682313426,798.9514591858201,797.3819491948168,750.974696710334
1731143311.2209716,742.70042873646,798.3518827130962,795.3458468884089,726.4763369779055
1731143311.2215528,741.9166872344384,798.3660366332441,796.1037971650356,720.9250103670992
1731143311.2254467,769.5720275113124,798.6450733132027,798.8730545074397,734.4847648024884
1731143311.2293408,807.1466095547369,798.7506107279065,802.1574804084432,756.1556743069012
1731143311.2305405,827.7705942676512,798.4549595057023,804.56062736025,771.6844062076811
1731143311.233235,817.3132626202317,797.8602228755286,805.3778182492549,773.326783801202
1731143311.2365358,785.2835722386229,797.2143544465008,804.7300395638051,764.3581920591162
1731143311.2371287,757.0293593673802,796.649201965739,803.2353223693839,755.3148801664463
1731143311.2393155,753.6459768237605,796.1394674321656,801.4382969454623,755.2368561463705
1731143311.2410228,775.7396278812691,795.6952160078538,799.3744548740683,764.8333624843126
1731143311.244917,804.0600673702689,795.5075777515177,796.6087206291749,776.687410156006
1731143311.2488108,816.2684143308601,795.8104781470663,792.781371233028,781.8570306369842
1731143311.2521,805.7121257495297,796.5471307068766,788.2549258094956,777.1990331056111
1731143311.2527046,786.4093214094088,797.1873693037718,784.2517503799664,767.5021487447601
1731143311.2565985,780.3101454427643,796.9605366865682,782.2062037398041,761.0951496978405
1731143311.2581503,798.0937174673927,795.4057952150614,782.7557603420776,762.9707824511707
1731143311.2604926,829.9280182870939,792.8203398037438,785.2268517534011,771.1575009296517
1731143311.2643864,853.6202016342493,790.2117493354659,788.1329710707228,778.9923852737508
1731143311.26546,852.8558406841665,788.742023254185,790.3257990317338,781.0047467820996
1731143311.2676644,830.3576943063704,789.067862413774,791.8406962354517,777.4021256877876
1731143311.2682805,805.5347089832958,791.0643233704985,793.7413275628355,773.6001469558455
1731143311.2721744,798.862395233023,794.0876508818675,797.1387600999324,775.4247909833721
1731143311.2760684,815.657228261977,797.4774937219896,802.2122507603251,784.1037682296629
1731143311.2769852,842.2342947435379,800.8265457932949,807.9463336672508,795.1964510641793
1731143311.2799623,857.5079319848112,803.8246861012295,812.6520495301417,802.2375657368402
1731143311.2832286,850.5847757550375,805.9647356747525,814.8116404747544,801.934416190084
1731143311.2838564,829.8643812811915,806.5876303841053,813.7351294909926,796.5787308897034
1731143311.2877502,816.032318127831,805.3856330586582,809.7728173713632,791.8492865716955
1731143311.291644,824.6790564347001,802.8993963326932,804.0797776760639,792.1085279380233
1731143311.2955382,852.9331901976656,800.4056295924853,798.102959407061,797.1994978307089
1731143311.29582,881.1605623084,799.1507514995457,793.0959757739118,803.1582134139169
1731143311.2987928,888.4210701896848,799.579427531982,789.9405746530244,805.8684870199869
1731143311.299432,869.3281414290557,801.2427401250118,789.2469360547636,804.5213918857362
1731143311.3003795,838.8955004755135,803.3842818355623,791.3680923407642,802.2895024805351
1731143311.303326,821.3277782227607,805.5575668683364,796.065089065944,803.9326567370234
1731143311.30722,831.2383148837223,807.7069788658097,802.1130992799726,812.1793214065066
1731143311.311114,862.0044759986221,809.7850941184983,807.4859818950321,825.4425951715542
1731143311.3143573,890.8347825242109,811.4492511358761,810.3252240783976,838.5594218853838
1731143311.3146548,897.0039079017088,812.2281539126042,810.0394964275814,846.271139581337
1731143311.315008,878.7329953617756,812.0077006153397,807.5765986770567,847.1047388702008
1731143311.318902,854.6464885955536,811.3200053079865,804.5996542446571,844.6168318822687
1731143311.322796,848.0705124901748,811.062888645444,802.2989159003275,844.6331129716177
1731143311.3266895,866.908504869194,811.7922657883953,800.8382387662741,850.3632493871453
1731143311.3299215,896.0547242225913,813.1678643424791,799.7405434866739,859.435137784327
1731143311.3305838,909.1302833975144,814.0849276894202,798.6333860448137,865.6532276891144
1731143311.3334894,890.1423982649002,813.4715909165855,797.5790302084257,864.2677658863711
1731143311.3344777,847.2738166952203,811.1300542106123,796.7831888134892,856.2265482494994
1731143311.335299,807.4035559335424,807.9182856958238,796.140573786902,847.4589253090293
1731143311.3383718,795.6320514845481,805.1231397170194,795.1824028694723,843.5063421297643
1731143311.3422656,816.2100449480121,803.5605650242279,793.5193498364205,844.1428383446065
1731143311.3454857,850.1532354436371,803.1193146544072,791.3438376967798,843.0599535236317
1731143311.3461597,871.271186366097,803.0236850661474,789.4779108595999,833.4619019666868
1731143311.3500535,867.1927555287443,802.5036104137843,788.8737093861587,814.9731207449479
1731143311.3523242,847.8676390104746,801.3415676358322,789.9814168156296,795.5374073716084
1731143311.3539476,834.8031691278422,799.9735526580669,792.5209704395381,785.9538171504091
1731143311.3578415,840.9292475938273,799.1546212327223,795.8178535356599,791.1729885089195
1731143311.36105,858.91408637312,799.4195699208537,799.3414182058266,805.6867898164189
1731143311.361735,867.9824271245154,800.659847261963,802.9163350673628,817.1789750971268
1731143311.3656294,852.930478616598,802.1175323699492,806.4359557274728,815.7137800131916
1731143311.3695233,818.6730976424982,802.896711215655,809.4404362827571,801.1998061278553
1731143311.3702185,787.9162168646857,802.7165398493464,811.0930342458387,783.5032970676618
1731143311.3711593,783.8974350253106,802.331740334713,810.7197193916402,775.5712572228057
1731143311.3734174,812.1396897819926,803.164478126042,808.5253230888436,784.9734705390674
1731143311.3766143,855.6178986033933,806.2587604125068,805.8646563555365,809.6952664807138
1731143311.3773112,887.1322517365337,811.2634669225894,804.7162227418286,840.327940661489
1731143311.381205,889.3639475724552,816.2449740278639,806.5653694618586,866.2558087159723
1731143311.3850992,867.0104354190076,818.5969151877739,811.3601281264072,881.1633900977484
1731143311.3889933,841.4911104438582,816.5529603827326,817.2490365733263,884.4568721033622
1731143311.389994,832.7290595185572,810.3792708285814,821.397540981921,878.83729851825
1731143311.3921788,843.1432318207778,802.4905127444388,821.534906090076,867.2457027130206
1731143311.392887,857.0031268374074,796.3448163683589,817.3645611584999,852.1173402672265
1731143311.396781,855.2106954029344,794.6654232819168,810.9038180532887,836.7590021608588
1731143311.4006753,832.651039046945,797.9541901730727,805.3741387081257,826.0316085738216
1731143311.404569,803.4202732906193,804.1639108500674,803.2481294970692,824.2294506281218
1731143311.405138,789.626564046434,809.7739297351956,804.792249213013,831.3915132147158
1731143311.407743,803.0409952128846,811.6892215032093,808.1810840300762,841.7337506357753
1731143311.408463,834.6138364554073,808.8709957297605,811.0376695890329,846.7534058889188
1731143311.4088285,860.5940124515927,802.7557277710939,812.1114554165674,841.5603789392813
1731143311.4123569,860.8412752481028,796.2606546397982,811.8107484569935,829.5705932881139
1731143311.4162507,834.9574119543074,792.0539025051995,811.4097179931766,821.0684061754287
1731143311.4201448,802.9742017353457,791.201755139365,811.8388015567187,825.6597665865918
1731143311.4233072,789.4393220980457,792.9677125075434,813.0807773699834,844.0886245467009
1731143311.424039,803.6506808662139,795.6785800487772,814.4533313705925,866.4837693564172
1731143311.427663,832.5163380864933,797.88028306625,815.3144917216633,879.4154132979638
1731143311.4279327,851.9187023563986,798.9947887330477,815.55485123818,876.2270509034058
1731143311.4318266,846.3568136754267,799.2411372626887,815.5489926025526,861.4133361113309
1731143311.4357207,819.7303480318462,799.143516350988,815.6965936450644,845.4009941973209
1731143311.4388716,789.1436712449082,799.0962148981473,816.0219337462315,835.7732523145668
1731143311.4396143,769.7153147742151,799.2209756074466,816.218427106604,833.3372799874135
1731143311.4400575,765.0325381256595,799.4567882347195,816.0147287067973,834.5697965589393
1731143311.4435086,769.2515559468942,799.7056211401579,815.4132092344544,835.8699089605035
1731143311.4464982,774.865003002507,799.9158995895959,814.6124651541936,835.7176021896208
1731143311.4474025,777.9364546022518,800.0886137904314,813.807113531006,834.392983975212
1731143311.4512966,778.41618436156,800.2468579061162,813.080064204436,832.7606317407142
1731143311.4544358,777.921164919044,800.4088473590889,812.4181594910782,831.391563348323
1731143311.4551904,777.7631194603418,800.5793439950282,811.7763687723486,830.3724091706816
1731143311.4590845,778.299352236171,800.754368494753,811.1244653956783,829.527069772525
1731143311.4629784,779.2525699568823,800.9286851094938,810.4575689610056,828.6764800634162
1731143311.465333,780.2456759675197,801.0998031252599,809.7847510194804,827.7522189709343
1731143311.4668725,781.0942596287333,801.2679814786543,809.1153906341933,826.7762384477995
1731143311.47,781.812002121216,801.434512733951,808.4531075243556,825.7956895781872
1731143311.4707663,782.4892509731249,801.6003397701126,807.7967492833301,824.8391633311251
1731143311.4746602,783.1929310041526,801.7656798257331,807.1437958238131,823.9094755100851
1731143311.4749773,783.9381591239414,801.9303164393016,806.4926762900037,822.9966667476681
1731143311.4785542,784.7084140001153,802.0939960502319,805.843171083009,822.091568544232
1731143311.482448,785.4839735953,802.2566217722713,805.1957397147148,821.1911362255205
1731143311.4841676,786.2561377461652,802.4182389023906,804.5508069781393,820.2969108073287
1731143311.4855645,787.0264518479779,802.5789399504864,803.9084772658281,819.411487968223
1731143311.4863422,787.7999641913448,802.738794394388,803.2686114855757,818.5363358435202
1731143311.490236,788.5801285027692,802.897832936043,802.631011860237,817.671555869226
1731143311.49413,789.3676029577149,803.0560650287623,801.9955377001312,816.816629918843
1731143311.498024,790.1614902152234,803.2134997958933,801.362119141237,815.971128258751
1731143311.501129,790.960871553146,803.3701553834318,800.7307182826397,815.134961395452
1731143311.501918,791.7655089855709,803.5260574725278,800.1012918124171,814.3082756910331
1731143311.5030024,792.5757055081104,803.6812338918036,799.4737777053704,813.49124867401
1731143311.505812,793.3918051841472,803.8357106439681,798.8481012132435,812.6839525189804
1731143311.5097058,794.2137964019556,803.9895108878995,798.2241864621509,811.8863299492101
1731143311.5098968,795.0413047381853,804.1426562003276,797.6019637746465,811.0982681535916
1731143311.5136,795.8740666262981,804.2951690271842,796.9813692244637,810.3197386519169
1731143311.5166929,796.7126656965512,804.4470751003824,796.3623373444067,809.5509287102273
1731143311.5174935,797.558862490394,804.5984038381733,795.7447915632314,808.7922189712256
1731143311.5213878,798.4146131791368,804.7491843994053,795.12864123146,808.043863890299
1731143311.5218372,799.2795340809118,804.899437415418,794.5137954070093,807.3054434960229
1731143311.5252817,800.1484427941941,805.0491683140418,793.9001941906216,806.5755666674713
1731143311.5291758,801.01262757557,805.1983737158572,793.2878355076231,805.8525809484642
1731143311.5322573,801.867922734785,805.3470688187444,792.6767531538965,805.1365900780073
1731143311.5330696,802.7268715927402,805.4953238316408,792.066913987013,804.4315837114879
1731143311.5369637,803.6227214608247,805.6432685603467,791.4580766651554,803.744735323603
1731143311.540672,804.5886137827139,805.7910162553255,790.8497662271288,803.0801339286841
1731143311.5408576,805.609318335344,805.9385102999057,790.2415550539579,802.4286780949489
1731143311.5447514,806.5792503803744,806.0854142108287,789.6336482112456,801.7637322097689
1731143311.5448165,807.3361229763727,806.2312622744619,789.0273261254592,801.0565041886074
1731143311.5478215,807.821611578582,806.3759975568485,788.4244119603959,800.3149553506252
1731143311.5486455,808.303854563905,806.5206290347628,787.8252443683963,799.6209082166133
1731143311.552539,809.4200465841524,806.6672105874103,787.2261202545146,799.109056437422
1731143311.5564334,811.7375599656283,806.8172728076453,786.6192227482669,798.8414376449226
1731143311.559507,814.8298410513285,806.9689349252379,785.9984381667897,798.62153303506
1731143311.5603273,816.5573663001987,807.115144426297,785.3704250159386,797.9392492618927
1731143311.5633855,813.8419956258774,807.2470996436261,784.7618330908211,796.3037676066109
1731143311.5642214,805.7010327410537,807.3647562509957,784.207138828341,794.0053342370725
1731143311.5681152,796.8540008787359,807.4885444122473,783.7092750342629,792.7996274790045
1731143311.572009,797.3004205730914,807.6568784638224,783.1948368333988,795.5157033396171
1731143311.5759032,814.829135101812,807.8942604471026,782.5237507158321,804.0023993204081
1731143311.5783415,845.4692669277995,808.1574225999569,781.617642568288,816.592115326336
1731143311.5789502,872.6031307782507,808.3089326701519,780.6963501125128,827.8689445462428
1731143311.5797358,878.8377352363524,808.1938732521878,780.4603415849331,832.2610220833534
1731143311.579797,861.3178401017141,807.8473532044238,781.9298158375794,828.9945443129386
1731143311.5836911,836.0989834570242,807.7124220878653,785.7731067939384,823.5804241078736
1731143311.587585,826.1536890704831,808.5890195793573,791.4486946332636,823.5907121289137
1731143311.5914793,842.202026200098,811.1040205468379,796.9479086376426,831.8873341510218
1731143311.5945144,872.789436077107,814.9597380935903,799.6864832731412,843.3554197012904
1731143311.595373,893.0275373283204,818.7098830227329,798.1537240702537,848.5369253214797
1731143311.5971763,885.4964705333665,820.5567601574162,793.1450433244406,841.5308077678262
1731143311.599267,855.715946658053,819.649224955702,787.5415653374494,825.5265381329814
1731143311.6031609,828.5225909498755,816.7067231402403,784.6008445655531,811.0497862221171
1731143311.6070547,827.7663360735307,813.3472982502581,785.8501038602896,808.0301958631718
1731143311.6100786,856.1488085317999,810.7226194718871,790.075208688169,817.9845561833846
1731143311.6109488,892.1947721533616,808.703728330796,794.1851330794365,832.5908958023235
1731143311.6146553,907.0922520798738,806.2950717789123,795.3490728071615,839.8405672497618
1731143311.614843,887.6681029902545,802.7932578045946,792.8249521004685,833.0463616452234
1731143311.6160111,846.8195003262047,798.610667156738,788.1712669994192,815.8891024302334
1731143311.6187367,813.0647220850301,795.127725076972,783.8722747896167,799.8041221242661
1731143311.6226306,807.8416295463675,793.8250770593233,781.6638319985924,795.7867026974271
1731143311.625643,829.0528417445632,795.4113004699726,781.9128025804472,806.7697135177464
1731143311.6265247,854.1593824821744,799.472553783963,784.2510514876017,826.1115019464607
1731143311.6304183,859.9751915630376,804.7345561138843,788.4473306188626,842.9655874031367
1731143311.6343126,842.4508665025522,809.7283418066739,794.444333326962,850.0979263448573
1731143311.6348455,819.8026550407783,813.5024004101878,801.602510217404,848.1378793982283
1731143311.6382065,816.3905021852736,815.9627597282839,808.2194755684245,843.4407302623727
1731143311.6412072,840.9370916493083,817.5884418826798,812.1878644251912,841.9474940422995
1731143311.6421006,877.4184362800364,818.7310357673927,812.4433575962358,844.331764011313
1731143311.6459944,896.4788861260938,819.1144243045636,809.9395427853076,846.1386584874264
1731143311.6495748,878.4207906671309,818.0183470355435,807.2032116616172,842.2297398975636
1731143311.6498885,829.4138081792622,814.9846827061158,806.725507365597,831.4702812397784
1731143311.6536806,777.8755282449795,810.3637136984847,809.3775922177504,817.8088119622593
1731143311.6537824,753.5298406949988,805.1756806030188,813.9302809508695,807.1281724371811
1731143311.6567714,765.2648912949669,800.4351335672334,817.8556373307553,802.6611162444473
1731143311.6576762,795.0966103103785,796.5737550112168,818.7543363348632,802.7139070122682
1731143311.6615703,813.1531614854774,793.4434056067126,815.5606378102503,802.3684031726226
1731143311.6654642,801.9005486975402,790.8089948924815,809.0086318788194,797.5261002586954
1731143311.6693585,770.1191145360012,788.8294951666091,801.2611394989339,787.8665763883611
1731143311.672336,745.2608936594565,788.0952231091621,794.894744121602,776.4801880776682
1731143311.6725154,750.5617725476716,789.1897654062353,791.6671206404418,766.9036551008546
1731143311.673252,785.8218332143866,792.1184240121867,791.6689225040643,760.2979888945546
1731143311.6771462,827.5047962326987,796.0428551643728,793.3762341447887,755.0075228000607
1731143311.68104,847.6950761959297,799.5519493231361,794.6341072162779,748.6291879425141
1731143311.6844945,836.1130868152073,801.3411396313685,793.9686342395128,740.8970485591366
1731143311.684934,807.3493050528696,800.9111314890516,791.370444954277,735.146770882312
1731143311.6879,787.9786201189247,798.8832746167261,788.0938052033712,736.8988977179138
1731143311.688828,794.6544013132674,796.7234209577343,785.749490222337,749.9703547988861
1731143311.6913502,821.2148963960085,795.9515588939083,785.4018520712815,772.7021096596653
1731143311.6927218,844.9360368650309,797.212471302059,787.2000714608264,797.5732741824565
1731143311.696616,846.1177899191239,799.7741134689682,790.5527378834076,815.2711692864643
1731143311.7005098,824.3633909741224,801.8859148368861,794.5035243524858,820.4899809729229
1731143311.7034645,798.0850410919485,801.8873249843546,798.0243363946374,814.8965582190865
1731143311.704404,788.1623663795419,799.3416409643087,800.2137790461229,804.9854103430789
1731143311.7082975,799.9857907106273,795.3494452996412,800.5094763695,796.9486753225428
1731143311.7101848,819.089461281351,791.79139829825,798.8800194915224,792.9769588446053
1731143311.7121918,823.8108031484823,790.103853794575,795.8096752587566,791.6081311811581
1731143311.7160857,804.2109512845861,790.5318655162536,792.0029246948704,790.9282968595281
1731143311.7190287,771.5039403678418,792.3127697568018,788.0271128103118,791.2011182452234
1731143311.719414,750.0315508842625,794.4155928195008,784.2116409854945,794.5153264983242
1731143311.7199798,757.8982940832885,796.1134534373167,780.8578571989993,802.0248649473472
1731143311.7238736,791.736400856396,797.0657775802683,778.4593995828285,811.6451577085676
1731143311.7277677,828.2738214849347,797.1930829219563,777.6064861790296,818.7593520649423
1731143311.7290196,842.1360990571328,796.7382496375199,778.605969293593,819.7856747688511
1731143311.7316616,825.8461992771315,796.4554672510893,781.1883451908416,815.5814812105453
1731143311.734593,795.5772833184617,797.4605648474222,784.5893663302854,811.2482097636879
1731143311.7355554,777.649585579439,800.4957162311533,787.8857451660095,811.7659192123755
1731143311.7394495,786.9375043388718,805.0730546835807,790.2461448885582,816.8764103826416
1731143311.7433434,815.2994480553529,809.3765237334338,791.012037095968,820.0329762214624
1731143311.7472374,839.3727147752503,811.306993255871,789.8738429821874,813.1314620266415
1731143311.7478545,840.1444523579025,809.9947213785623,787.2731317416104,793.4315387961477
1731143311.750157,816.9595046764383,806.5416591589466,784.6020660395499,766.5477244943226
1731143311.7511313,784.9614866827669,803.3402898983078,783.5763598244984,742.5950329276653
1731143311.7543335,760.8809532830471,802.5112569781986,784.8662735116902,728.944193285075
1731143311.7550254,751.4355917694099,804.6636597743129,787.1032116041171,726.0857224041324
1731143311.7589192,752.800016092297,808.777078540167,787.5032087791961,729.4001066030108
1731143311.762813,757.5043116565089,813.0604234260061,784.0796101013714,733.7624164328636
1731143311.7657216,760.5534861236707,816.0388715132235,777.7770794418163,736.549219812762
1731143311.7666893,760.9338788589635,817.1929947837878,772.516210127294,737.6943750238885
1731143311.7667072,759.9103407518592,816.9212711443314,772.7079334334218,738.2212266254044
1731143311.770601,758.915284806447,816.0274191190425,780.0312626363849,738.9654507925214
1731143311.7744951,758.5511677831219,815.1613193584219,792.0868025687633,740.1545779059109
1731143311.778389,758.685037108745,814.5672077643561,804.047894795682,741.6108972163104
1731143311.7812858,758.9502134742221,814.1767725519751,811.9254583186349,743.0930652274586
1731143311.7822833,759.1084676721882,813.8325221785608,814.8368035144695,744.4830848844714
1731143311.785524,759.1255983748896,813.4378433425524,814.748917506325,745.7897309402244
1731143311.7861767,759.0764900084515,812.98291697097,814.3707319175065,747.0708547175443
1731143311.789253,759.036164449579,812.5014489800121,815.1564236257784,748.3693402812157
1731143311.790071,759.0328754016194,812.0248189047788,816.8447696566831,749.6949359887551
1731143311.7939649,759.0571746169057,811.5638068475884,818.3955960325097,751.037153665362
1731143311.7968502,759.0893700877499,811.1136044280041,819.119829134329,752.3834605785187
1731143311.7978587,759.1177323485033,810.6657068485599,819.0586682614514,753.7283790818149
1731143311.8017528,759.1413479618373,810.2153334427394,818.6519064811865,755.072992207891
1731143311.8043587,759.1645908591262,809.7622901348567,818.2823794357327,756.4206342667068
1731143311.805647,759.1914452872537,809.3084743294947,818.0843599795855,757.7736341876343
1731143311.8095407,759.2233124453923,808.8554956123713,818.0063083630472,759.1325461705484
1731143311.8124144,759.2596854795286,808.4038327100367,817.9506283629007,760.4969302172439
1731143311.8134346,759.2996358545065,807.9531773804819,817.8614367118788,761.8663112160413
1731143311.8173287,759.3427189672207,807.5030737689536,817.7358738396433,763.2406153502232
1731143311.8212223,759.3890621703923,807.0532859366912,817.595720013662,764.620108521495
1731143311.8231936,759.4390441374394,806.603819763405,817.4597617913453,766.0051581783893
1731143311.8241725,759.492999528176,806.1547826601932,817.3337722697391,767.3960674475604
1731143311.8251166,759.5511252991946,805.7062593369286,817.2143309238763,768.7930450234413
1731143311.8279786,759.6135423608342,805.2582684322406,817.0962078620696,770.1962553811657
1731143311.8290105,759.6803898166814,804.8107785344989,816.9766670067904,771.6058754114796
1731143311.8329043,759.7518587177412,804.3637436268785,816.8557563836429,773.0221169820053
1731143311.8367984,759.8281392521526,803.9171377874236,816.7346922730151,774.4452101967962
1731143311.8406923,759.909325930892,803.4709832472467,816.6144338626925,775.8753635670563
1731143311.8420284,759.9953848396418,803.0253564633841,816.4952306425453,777.3127322617763
1731143311.8435433,760.0862948668811,802.5803422205108,816.3768708148798,778.7574352677495
1731143311.8445864,760.1823642360694,802.1359252670525,816.2590753897709,780.2096465342539
1731143311.8484802,760.2844828376312,801.6918840515663,816.1417076156208,781.6697204060006
1731143311.8523743,760.3938589525875,801.2478392506687,816.0247711711979,783.1382162895741
1731143311.8562682,760.5109444595171,800.8035925459944,815.9083192100319,784.6156564822076
1731143311.859092,760.6340382468587,800.3596507014538,815.7923852161244,786.1020169476507
1731143311.8591073,760.7591716802046,799.9174206343158,815.6769713974671,787.5963366294371
1731143311.8601625,760.883141816976,799.4783557965566,815.5620706729339,789.0971691100252
1731143311.8608632,761.0094569025515,799.0419031824307,815.4476808350007,790.6043361998212
1731143311.864056,761.1524134611182,798.6036439199214,815.3337867881835,792.1211606027391
1731143311.8679502,761.3308993072001,798.1565872626295,815.220323085017,793.6545671864797
1731143311.871844,761.5473020731528,797.6979207590085,815.1071652850793,795.210077963413
1731143311.8746717,761.762425988841,797.2386440119125,814.9942048481113,796.7822024702172
1731143311.875738,761.8975862352163,796.8059133739982,814.8815039845719,798.348084335414
1731143311.879632,761.8968929323049,796.425040268938,814.7694053204556,799.8779589823475
1731143311.8796978,761.8390420545471,796.0803844478762,814.6583744961441,801.3695206021257
1731143311.8835258,762.0018252328503,795.6841872990822,814.5484508601502,802.8879566936001
1731143311.88742,762.7230130757628,795.1097770492083,814.438586515815,804.5609743008783
1731143311.890236,763.9901966433988,794.3280892932112,814.3266875001372,806.4763561864229
1731143311.8913138,764.997729902132,793.5917005773593,814.21122882154,808.5017124578177
1731143311.8940115,764.275645991031,793.4791182706798,814.0941830655734,810.1853703228835
1731143311.895208,760.9755601874268,794.60261570727,813.9827473874312,810.9905028959521
1731143311.8985326,757.0211029046948,797.0595727351448,813.8857639490759,810.9654073181782
1731143311.8991015,758.2730614971689,800.110028230502,813.8029969513594,811.457840058458
1731143311.9029958,772.1065873617413,802.5613847366412,813.7133745800203,814.9898661838084
1731143311.9058,801.0672200969304,803.7124702800767,813.5779038852659,823.7924440794129
1731143311.9068897,837.3586128056498,804.0451867313791,813.3724496712998,837.9481670898311
1731143311.9107835,865.3194323964254,804.9282879816261,813.1422324351624,854.9941825193513
1731143311.9146776,872.9895799702522,807.4404406693969,813.0272941441636,871.6592746688267
1731143311.9173677,863.4485688418011,811.2627348643382,813.1823572710515,886.2501867064037
1731143311.9185717,854.0924166132819,814.6244600069773,813.5642777112505,899.4522086953555
1731143311.9213643,862.3044909415199,815.4237776066645,813.7105570712272,912.6834123358533
1731143311.9224656,889.3086452359875,812.6433169122096,812.7886613144565,925.3531073588556
1731143311.9263594,916.9156466495347,806.9523659829699,810.1102633624461,933.5810160453073
1731143311.9289312,921.2620061404255,800.1282723059555,805.8275857273076,932.0314378912682
1731143311.9302535,892.8951791249472,793.9286611813454,801.1115993039066,917.9838125365676
1731143311.9341474,846.5083868663443,789.3809577843112,797.4801205367902,894.558640517949
1731143311.9362023,811.5389880891914,786.8841634172616,795.8213754877805,870.1551408401983
1731143311.9369287,810.3468414937176,786.6765357887666,795.9181055989703,853.8810127880622
1731143311.9380414,841.1551396807819,788.9580293881284,796.6963839704753,850.0648719120427
1731143311.9419353,879.6437954731139,793.4776302356864,796.8668887882438,856.0502596794774
1731143311.9458292,898.2606617724462,799.0979278985333,795.5754571337179,865.1020936202623
1731143311.9497232,887.7603829482118,803.9706001390067,792.8275552997112,872.0300424171024
1731143311.952493,863.4276927879489,806.3847682111532,789.5051166754861,876.6843078402413
1731143311.953617,851.1144164479167,805.704491778202,786.887358436504,882.365751341442
1731143311.9550369,865.0962195367257,802.7228198525758,785.8923725151918,891.0083007546547
1731143311.9575112,896.3571538526717,799.2229473108756,786.5531345095127,900.1401157247194
1731143311.961405,920.7378881156801,797.0620068377863,788.1346958300957,904.8514047086366
1731143311.9638507,919.6160195695048,797.3050098229279,789.7904175361947,902.9526210667818
1731143311.9652991,895.6338334324278,799.8277883252033,791.2146445217662,898.1888049839202
1731143311.9680572,870.5125904870085,803.529615055116,792.7771392512389,898.0071527732551
1731143311.969193,866.9992953177818,806.97627401323,795.0473655376545,907.3408324564695
1731143311.9730873,890.0332940006338,809.0741315465177,798.0646465553551,923.5721338109557
1731143311.9738717,922.7254881542968,809.4064000032785,800.8986649660704,937.0776157169346
1731143311.9769807,940.3952386466942,808.1417283461224,801.8968929210135,937.3512462325093
1731143311.9808748,930.9084684367502,805.7233379387611,799.5917445064744,920.3597664225467
1731143311.9836216,904.3716698209271,802.6158094235556,793.7393769398117,891.8437367310217
1731143311.9847689,884.2250671772534,799.2262781412569,785.7390238636874,864.2236873594727
1731143311.9886627,887.3731820273078,795.9464938027261,778.0274845828636,849.2505392640173
1731143311.9925568,910.0095576394851,793.2259801256719,772.8074112683714,851.330315253313
1731143311.9927063,930.7618187958382,791.6068762302743,771.0198653211766,865.7238760644411
1731143311.996451,928.2873430093476,791.6283580771516,772.2581302649626,882.2914592894184
1731143311.9987702,898.7903764867385,793.5297796438837,775.4964506191542,891.7884844485728
1731143311.9991858,859.3882195264563,796.8742063883772,779.856242563188,890.5022202168383
1731143312.0003448,834.837777633014,800.446546039428,784.7608068699599,880.7766502774585
1731143312.0042386,838.3265778144395,802.7176073217765,789.5416778570302,868.0182974157017
1731143312.0081327,861.6263612700076,802.7125163568678,793.108894446341,856.8519196916941
1731143312.0115414,882.4620485882872,800.6750955386331,794.1885830290188,849.0652629940962
1731143312.0120263,883.1802715388386,797.9826799288525,792.0567554576278,844.2205187763241
1731143312.01475,865.5059085440297,796.337595620238,787.2227405242185,841.6542810224041
1731143312.0159204,849.0561213344454,796.802878228455,781.5000184961967,841.6163182873707
1731143312.0198145,854.4913909570824,799.3010382842003,777.2936557970432,844.3787661547875
1731143312.0237083,885.1259401130274,802.82346378356,776.4476659976074,848.4500587759214
1731143312.0276024,922.515746757576,806.1592241311643,779.3232417245467,850.3047527515457
1731143312.0303144,940.1736776159072,808.6660673283185,784.6905923457002,846.7372871923063
1731143312.030376,924.5514724748607,810.5587929784904,790.5031390152725,838.1142091024152
1731143312.0314963,886.3550807917378,812.485566044975,795.0100461756131,829.29918211202
1731143312.0336895,852.9519984010972,814.7397719386166,797.4453613052854,826.6238996580495
1731143312.0353904,847.6261050222125,816.8565326146825,797.9277947633606,832.7786445431913
1731143312.0392842,871.8914771825349,818.0579076611523,796.8842810721304,843.7856899719878
1731143312.0431783,904.8657067539028,818.1614645374711,794.6520845091168,851.0412339870755
1731143312.0458786,920.2577817519849,817.9924601842756,791.6004576536851,847.4225450007408
1731143312.0470722,907.2232276486955,818.7389128825592,788.4688196393543,832.8958046701185
1731143312.0492108,877.9988057609613,820.7467177987257,786.3194788405882,815.0959480192276
1731143312.050966,856.1707020808874,822.8829963526923,785.8945594268187,804.1857781574214
1731143312.05486,855.7744854680078,823.1281716792648,786.874557503411,805.7995914912701
1731143312.058754,869.1992260198881,819.9716967647369,787.8123879286395,817.3008122932897
1731143312.0614429,874.2285577641078,813.5412995218776,787.0173934765868,829.9056445683143
1731143312.062648,854.0480684496694,805.6900367417735,783.8273152269205,834.8350355356038
1731143312.066542,812.9742579718966,799.0747948687361,779.3060067863709,829.0074699117472
1731143312.0680456,774.4079512376333,795.8662206091142,775.7841162565046,816.5044106834232
1731143312.0686092,762.5250652860301,796.8114344460558,775.4866949189598,805.1433823632954
1731143312.070436,782.6778706965493,801.058583257437,779.1502057289969,800.7260898249561
1731143312.07433,816.5444881104127,806.7144042793141,785.5844303405814,802.9828302285886
1731143312.0770073,836.228601264196,811.7602196733932,792.5138432388906,806.0976675785907
1731143312.078224,826.2395225768976,814.8464078534535,798.0973076446897,803.5158456841659
1731143312.0821178,795.6534940328596,815.6476271087307,801.9700179862291,793.4705082543525
1731143312.086012,770.4021467223242,814.743087202298,805.0189430064679,780.8450882567736
1731143312.0868804,771.8189195704203,813.1795053695887,808.1661353150936,773.6714376248912
1731143312.0899055,799.0206176560179,811.9179222773106,811.2608961120826,776.8916884428327
1731143312.0925715,829.5975477399329,811.3636679777484,813.0233896389971,788.3918701117831
1731143312.0937996,837.9223774017652,811.1918307391529,812.031857127701,800.6033082720706
1731143312.0976937,815.9515152748603,810.6067844388101,807.89750924863,806.4789093886884
1731143312.1015875,779.6281153984868,808.9247054739999,801.7172014573152,805.0286989247057
1731143312.103529,755.984441132727,806.0912456990688,795.5490796963907,801.7933179466086
1731143312.1054816,761.6000078781855,802.7412581647792,791.3780786716858,803.6251020014112
1731143312.105715,789.6517400622391,799.7628211814872,790.2717056141989,811.9256754567363
1731143312.1081357,815.6383510957631,797.7419122052463,792.1308512498599,820.182463956439
1731143312.1093757,817.05660368207,796.7310849128635,795.9778562871018,818.4819958472913
1731143312.1132696,791.3554421744178,796.4488509806905,800.4491050655101,801.7944912309828
1731143312.1171634,757.7655905418386,796.6346821982911,804.1783034493978,775.1201731212132
1731143312.1210575,741.3971029141941,797.2236561185778,805.9877693878697,750.7128068233143
1731143312.1237,752.5084528923796,798.2550301348814,805.0640949304351,739.2034222738622
1731143312.12455,778.0949052756679,799.6822922944147,801.3174395232485,741.7861734038197
1731143312.1249514,792.8613868324576,801.2837492919997,795.7845369895092,749.7885809126531
1731143312.1288452,780.4572110234367,802.7365968350758,790.5575356190892,751.6834044810639
1731143312.1327393,747.3189039735498,803.7879484183902,787.876315110386,741.5765516020622
1731143312.1366332,717.7491958689013,804.4136027619676,788.7823667550196,722.5552469567415
1731143312.1384485,714.3751864631571,804.8745438690155,792.3575026005853,703.0837146318954
1731143312.1392643,739.8489248457205,805.6278195307555,796.2779279548187,690.356890563875
1731143312.1405272,774.39050934531,807.1091910420862,798.3538969543001,686.3442584986766
1731143312.1433847,791.1509813605325,809.4694473839114,797.8896568497771,689.0971328185947
1731143312.144421,777.4199137126909,812.3967386754064,795.871412454651,696.9070952954374
1731143312.1483152,744.8871902814174,815.1535533555275,793.9821693111518,710.5406210473
1731143312.152209,720.337677380517,816.8536735442511,793.3446828482755,731.0664593817044
1731143312.1548283,723.7130714763346,816.8404094509852,793.9600672775073,755.6049950877147
1731143312.1561031,751.3333044644929,814.9529130791365,795.0932895771093,776.0132740781976
1731143312.159997,778.5643482786085,811.5732825782253,796.0838116397011,783.1417091270287
1731143312.1622195,780.2314808711417,807.5013127889925,796.8805856592762,773.8353884143803
1731143312.1638908,751.8956109749798,803.7164485849589,797.9927221934292,754.6178031055374
1731143312.1677847,714.0831848557295,801.0316580565227,800.0090397035951,738.3213425874708
1731143312.170393,695.8240379432714,799.7491921131368,803.0494497605295,735.7664563591486
1731143312.1716788,711.1607006264242,799.5802675276802,806.5274686285085,748.6806170623167
1731143312.173368,747.9651202205946,799.9321002701336,809.4548867118933,769.0051111643866
1731143312.1755729,777.9734419287466,800.3093075369093,811.1044625120409,784.7455490772492
1731143312.1794667,779.4535222870466,800.5108553907415,811.4560502760312,787.7445454875499
1731143312.181054,753.827539393405,800.5692892510503,811.0500756450765,777.777195271657
1731143312.1833608,722.9452739854304,800.591179476627,810.4930044255264,760.6689363815528
1731143312.1859572,709.95610297371,800.6463555201185,810.1074725548119,742.9444937541535
1731143312.187255,720.3751736406349,800.7445751369852,809.9142336868366,727.9331200481429
1731143312.1911488,739.4427420214023,800.8634606485572,809.7983925311873,716.3037991728909
1731143312.1950426,747.4437176723718,800.9807254484082,809.6608570680172,709.4440479469097
1731143312.1989365,738.7368277858945,801.0880141187458,809.4720157149275,711.1716450533503
1731143312.1998887,727.0695215350354,801.1881612454259,809.2508928002686,724.945501819953
1731143312.2015216,732.3114745300625,801.2870260059466,809.0256363683213,748.645266647653
1731143312.2028306,760.6356033825336,801.3880940539004,808.8107809064795,772.3364311197794
1731143312.2067244,796.1722669923683,801.491640718393,808.6059631305192,782.6124350490089
1731143312.2082877,812.1849762919752,801.596377338039,808.4046728507068,771.4166852159356
1731143312.2106185,792.9466885519694,801.7011362299024,808.2018530950957,742.83314013681
1731143312.2145123,748.2072501510529,801.8055195184669,807.9962580213287,712.239173585477
1731143312.2170858,707.8743654340361,801.9096971412225,807.7890846781661,697.7046845141203
1731143312.2184064,700.2788113855687,802.0139650309928,807.5818582056073,709.1164249466709
1731143312.2187238,730.5571573934667,802.1184757847774,807.3753175611963,742.1080704224755
1731143312.2223003,776.078859658626,802.2232116153809,807.1694275243939,780.7138714174287
1731143312.2261944,803.0695376405254,802.3280792378738,806.9638672874526,807.0800233134531
1731143312.2300882,792.1662298591687,802.4329999026642,806.7584185914577,812.0839556736759
1731143312.23265,753.2758445057669,802.5379428107132,806.5530681489629,800.1192884315079
1731143312.233982,718.0560233699863,802.6429118484045,806.3479232483829,785.1365603253873
1731143312.2375586,715.7731039190004,802.7479138059404,806.1430997786938,780.8709248155125
1731143312.2378762,751.2778856029527,802.8529292956592,805.9386683527005,791.9685149156679
1731143312.24177,801.8846724219854,802.9579014695466,805.7346590546275,811.7473881532054
1731143312.243207,834.9388516523736,803.0627579836096,805.5310884086688,827.4963500864168
1731143312.245664,832.0831204572304,803.1674718425395,805.3279790380789,829.2117470924153
1731143312.2482145,801.7878438348625,803.272129558398,805.1253638900648,815.8992738714247
1731143312.249558,771.2831525991373,803.3769243403669,804.9232811789803,795.7174178439759
1731143312.253452,764.828002481602,803.4819882111352,804.7217684927111,780.3992816374518
1731143312.2563932,785.3952859643852,803.5870931667632,804.5208602157973,777.8714166039902
1731143312.257346,813.8861992381028,803.6914804011565,804.3205879830147,787.916172361935
1731143312.26124,826.1183088118992,803.7942345008685,804.120982147642,803.6290923516418
1731143312.2637787,813.6320974568894,803.8953813003183,803.922072764751,817.4102002277918
1731143312.265134,791.1664376728816,803.9970737046496,803.7238897486982,826.8442167652998
1731143312.269028,784.4672432532543,804.1032586041752,803.5264625750264,835.792839361131
1731143312.2729218,808.3707222560971,804.2162939620775,803.3298199712453,849.8758027596394
1731143312.275228,853.3092388917574,804.3313867868859,803.1339897951395,870.332787529362
1731143312.2768157,891.57197123273,804.4340427370809,802.9389990694325,891.7283374656673
1731143312.2781265,898.549778396332,804.5082175655447,802.7448740623071,905.5415497891631
1731143312.279343,872.0618274549915,804.5574793102325,802.5516403381928,906.4268320634826
1731143312.2807095,834.2645830113513,804.6255609777485,802.3593227654435,895.6769577504404
1731143312.2846036,814.3035808883282,804.7852605945261,802.1679455025959,879.1458779573659
1731143312.2884977,825.2362366382216,805.0687369986565,801.97753198639,861.9696784743077
1731143312.2923915,853.7781479517404,805.3594076513573,801.788104930861,845.1681183375842
1731143312.2940629,871.5052530589686,805.3412564359467,801.5996863349957,827.1216202499759
1731143312.294907,858.5995765264098,804.6233951039101,801.412297492899,807.9806221345123
1731143312.2962856,820.5035175290215,803.0331526944356,801.2259590026515,792.0221559734234
1731143312.3001795,783.4946242702754,800.8711808806464,801.0406907733686,784.9167749540214
1731143312.3040736,772.8933963058457,798.8848037859898,800.8565120317107,788.1031645896005
1731143312.3079674,792.2963691103656,797.9163193641996,800.6734413290369,795.8636205867706
1731143312.3104715,821.1724028911817,798.4214979421153,800.4914965495585,798.6652692026362
1731143312.3118613,832.4226253221931,800.1616788837607,800.3106949191387,790.5668517510733
1731143312.3128977,814.8770871312277,802.3132378873795,800.1310530141762,774.4465570981378
1731143312.3130462,782.1501528706068,803.9753243052556,799.9525867703167,760.3509652355178
1731143312.3157554,761.0023288139098,804.7074793993672,799.7753114913177,758.0312212220365
1731143312.3196492,769.1121912116669,804.668593047247,799.5992418588902,769.6363305293079
1731143312.3235433,800.5204446421382,804.3152790315206,799.4243919441216,788.4176784337078
1731143312.3260355,830.6204791057318,804.0146358502224,799.2507752197077,804.3242717322471
1731143312.3274372,836.536311511446,803.8847498656075,799.0784045701803,811.7080021812425
1731143312.3313313,815.9367373534811,803.8672519057161,798.9072922966243,812.7379610667532
1731143312.3317325,788.5764163801664,803.8658129016713,798.7374501158238,813.9068158293858
1731143312.335225,779.4377546616934,803.8284337436718,798.5688891617716,818.9996098258079
1731143312.3391192,797.8780590390278,803.754805618134,798.4016200044776,824.9529500378983
1731143312.3416002,830.2336349055237,803.6670749960981,798.2356526955177,824.4663122984307
1731143312.343013,851.5671603662988,803.5832143374078,798.0709968231995,813.2042822851577
1731143312.346907,846.2608933242155,803.5081738239319,797.9076615232569,795.2118253443958
1731143312.3479657,820.454543526457,803.4382116941676,797.7456553835473,781.4788607837199
1731143312.350567,796.6310437638808,803.368185681432,797.5849862533122,782.2896520506215
1731143312.350801,795.15058470132,803.2955620849705,797.4256611198518,799.206587234985
1731143312.3546948,817.6471133529002,803.2205093042077,797.2676863329773,823.0424018293489
1731143312.3571644,845.5531803271368,803.1442500177791,797.1110683233876,839.7227633656289
1731143312.3585887,855.0592416827484,803.0676944015864,796.9558144363416,840.0058197721537
1731143312.3624828,836.5588064006078,802.9910479345973,796.801932831436,826.0015804960291
1731143312.3663769,802.5983323773097,802.9140830224609,796.6494303643739,809.6155915336011
1731143312.369402,777.478177095613,802.8365264902262,796.4983088612468,803.9668102601078
1731143312.3702707,776.9899362251723,802.7582555807666,796.3485630763714,814.0601073530983
1731143312.3727286,795.3144811892803,802.6792901017297,796.2001855421039,833.4197863292269
1731143312.3741648,810.1510078795819,802.5997016790251,796.0531804084194,848.7544526410143
1731143312.378059,801.7056753881475,802.5195415946193,795.9075780834439,848.8974921654815
1731143312.3819523,769.6110932443037,802.43881745979,795.7634304579694,831.7318422823023
1731143312.3828852,733.8681960568834,802.3575032947911,795.620767902277,804.8911524669753
1731143312.3858466,719.253784100123,802.2755634907115,795.479529839419,780.4863621245751
1731143312.3882368,735.8848477033861,802.1929836898307,795.339534768204,767.6799427162572
1731143312.388293,771.3494687548878,802.1098016201422,795.2005856432006,767.7984636870383
1731143312.3897405,800.5370595374511,802.0261120742448,795.0627369745583,774.8712327534972
1731143312.3936346,805.4663639771873,801.9420074906094,794.9265498894581,781.0824184149708
1731143312.3975284,789.4086429444972,801.8574492950546,794.792948400277,783.2797794965641
1731143312.4014225,773.7475309341314,801.7721592281777,794.6623568049661,785.521582086255
1731143312.4038572,779.7626261392095,801.6857128380684,794.5334185744683,795.193369892628
1731143312.4053164,810.1865055823114,801.5979681028713,794.40260392358,815.4206016344122
1731143312.4070716,846.072535129454,801.5096522051841,794.2664554977566,840.2768263210389
1731143312.4092104,861.9908977951881,801.4224642035282,794.1267074934376,857.6886024943195
1731143312.4131043,847.2163489017022,801.3379022610301,793.9946492585494,858.4478974701542
1731143312.416998,815.4186302107504,801.2548280434252,793.8873908267332,843.8821201768462
1731143312.4178047,794.6684780443094,801.167633470573,793.8107260934447,825.2494065628517
1731143312.4194214,805.483690459471,801.0684739566333,793.7357552853987,814.9297971126975
1731143312.4208922,844.2709430959411,800.955716773455,793.5950601548794,816.7967622545586
1731143312.424786,885.412286671555,800.8445700413299,793.3302006787342,824.0181652670224
1731143312.4259062,900.6962130890053,800.7673405064348,792.9904021052434,826.0312811865607
1731143312.4286802,880.9795022507491,800.7492083397356,792.8094453937761,818.3658877659813
1731143312.432574,842.7919245727927,800.7623212520456,793.1279719915084,806.5874742667093
1731143312.434986,814.4317806241909,800.6963771511233,794.0933877078584,801.0406527429034
1731143312.436468,812.9404491767928,800.410935771627,795.3161748314951,807.3656591887299
1731143312.440362,831.0825779231744,799.9036887234267,795.883497298589,821.3980240672099
1731143312.444256,844.9961781558168,799.5096142879898,794.9449362625081,832.8505461426986
1731143312.444741,835.5792433747195,799.900062606491,792.5065477453714,834.174894949435
1731143312.44815,805.294075905193,801.6718018181992,789.7216890080655,826.5638255796314
1731143312.45055,776.4979735894492,804.6752929044376,788.3177601526462,817.9862975795654
1731143312.4520438,773.1335265688488,807.694049335753,789.5169139953636,815.4607447613536
1731143312.4527242,801.0093249171642,809.0177562423876,793.2137981722747,818.7464421460851
1731143312.455938,842.5077905414323,807.6601915035706,797.9849768252082,820.9916695017747
1731143312.4598317,869.8228728652289,804.2270269134028,801.9467053985112,815.4492360162277
1731143312.4635758,866.306964093638,800.6058526040279,803.9262566793768,802.1108615757286
1731143312.4637258,839.1477860247426,798.644375554154,804.1713698227117,788.5055252683916
1731143312.4661143,813.211663282614,798.8780730627356,804.0747897867559,784.1138709463904
1731143312.4676197,810.7593455489622,800.3390330351253,805.0681123466208,793.0634045124087
1731143312.4715135,833.4012856117963,801.5456211825742,807.4986231387785,810.8410340356024
1731143312.4754076,861.2389035216462,801.7722545356753,810.3684499764911,827.3844947576148
1731143312.4793017,870.0095199177,801.5137519488547,812.1455028330886,834.1022923985323
1731143312.4816787,851.8173511178799,801.8270369803965,811.994269070541,829.7045570257364
1731143312.482411,821.9500265120496,803.2359298703902,810.4596398525819,820.8509708163743
1731143312.4831955,806.1153114967868,805.216241002906,809.0885918982519,817.4098331588062
1731143312.4870896,818.8613047922831,806.6750608343222,809.278512589029,825.7652019989557
1731143312.4876437,851.0903252285954,806.9031210105214,811.2099620087344,844.7049077177675
1731143312.4909835,876.9457784901867,806.0952275684107,813.6895404661835,866.4657771179545
1731143312.494877,874.5587028186538,805.0232814048109,815.0685524386197,881.9506750716246
1731143312.4972427,843.8878944147685,804.2791534712751,814.5119418373845,886.358109022967
1731143312.4987714,807.0696,803.8484539524057,812.5126014347576,881.3712191864112
1731143312.5012453,790.7310510604195,803.3443378002123,810.1792695531008,872.7028323331776
1731143312.5026653,804.548695328196,802.5420752175961,808.0249102929429,865.1908360913179
1731143312.5065594,833.7472936857739,801.6350036007454,805.5437878779561,859.2239264942559
1731143312.5104532,851.9129318243337,801.0296046198265,802.0751007580599,851.026088316657
1731143312.5128071,843.4837918655535,800.991821800463,798.0431562416346,836.3941718810477
1731143312.5143473,817.013040745418,801.5124650488451,795.1661849461171,814.9899520054679
1731143312.5182412,798.0544865391986,802.4202327082254,795.2446394322365,791.8124596726739
1731143312.52008,807.6627050028446,803.5111109752637,798.60913276866,774.3734756084064
1731143312.5221353,844.3378511732722,804.5569863078356,803.6751004256704,767.349038622504
1731143312.5225637,884.1590252657902,805.2921162337475,807.9912275288603,768.860076391844
1731143312.526029,899.0304544605809,805.512483411021,809.8274960898443,771.8195676700944
1731143312.5283716,878.5982101551235,805.2404670227071,809.0087135867818,769.8459085585076
1731143312.529923,838.5093779413733,804.7768044651509,806.5243507328696,763.0289209307593
1731143312.5338173,808.3575749087672,804.5574263302284,803.5256354729519,758.3212478098635
1731143312.537711,808.8086948080515,804.9238259348333,800.673137925638,763.6563291045647
1731143312.538915,836.2655217364339,805.9666416423613,798.2369930852051,780.5967265604309
1731143312.541605,867.2484287212693,807.4837005654308,796.5408384618333,802.0766084061801
1731143312.5439358,878.032790035342,809.0008442128399,796.0920010497921,817.5245297541294
1731143312.5454988,862.3189516938277,809.8642101775819,797.2255079522905,820.8988287144186
1731143312.5493927,832.5855283573499,809.4879329415248,799.7104811362476,814.4160879534838
1731143312.5532868,806.7047575170593,807.7251159409457,802.8262361889133,805.1863541732183
1731143312.557181,794.1826159441222,805.0943286290658,805.8710942400888,799.0033238837965
1731143312.557483,793.19475361951,802.5709066342278,808.5633250442548,797.2126502607084
1731143312.5577495,796.7014917805296,801.0027123498073,810.9250011050073,797.968926137907
1731143312.5595,799.1835250702253,800.613842560779,812.8601951166322,798.9986770899657
1731143312.5610747,799.016834730875,801.0132516663859,814.0045940561599,799.1969673416467
1731143312.5649686,797.1992700887896,801.6227230565618,814.0629306711236,798.6295255016825
1731143312.568863,795.2103813774853,802.0784234217892,813.2005826568875,797.8171434047565
1731143312.5727563,793.8053009537067,802.322716149987,811.9803152977429,797.1486151087909
1731143312.5750644,792.95376022162,802.4638683521746,810.9290189769604,796.7124587908228
1731143312.5765843,792.3061790825939,802.6132513882255,810.2286812657167,796.4127204626329
1731143312.5766506,791.5940234663249,802.813804159178,809.7649508803346,796.134178222219
1731143312.5805445,790.751411326847,803.0521663335355,809.3493920652509,795.825442384659
1731143312.5844386,789.8408100411737,803.2991106546068,808.8735431032676,795.4948050042763
1731143312.5883324,788.9409181425872,803.5368484750275,808.329142130942,795.1711684122945
1731143312.5906286,788.0883363580609,803.7636229403693,807.7555057709114,794.8743730836195
1731143312.5922265,787.2788006049313,803.9856670380278,807.1876030519209,794.6081043728597
1731143312.5924025,786.4932445231378,804.2087547017468,806.6365895638752,794.3669358461768
1731143312.5954192,785.7182492568197,804.4348558371199,806.0963644620833,794.145047792355
1731143312.5961204,784.9513029531263,804.6630750794955,805.5571857007627,793.9402180799605
1731143312.6000142,784.1962447870949,804.8918452023972,805.0138020788382,793.75328728936
1731143312.6039083,783.4573367949841,805.1202892844324,804.4661441838997,793.5860127452551
1731143312.6061928,782.7364500602921,805.3483744647385,803.916384314987,793.4395708996459
1731143312.6078022,782.0333477455413,805.57645022266,803.3662725503992,793.3142741183694
1731143312.6116962,781.3471224095456,805.8048105947782,802.8162559474272,793.209986358038
1731143312.614254,780.6772313286892,806.0335401904471,802.2659142973374,793.1265794356605
1731143312.61559,780.0237119694829,806.2625783758016,801.7146890612685,793.0641215619231
1731143312.6194842,779.3869102791496,806.491837142188,801.1622825496459,793.0228329409908
1731143312.6217573,778.7671694339862,806.7212684946916,800.6086663785959,793.0029690435978
1731143312.623378,778.1646966070776,806.9508681753089,800.0539182594226,793.0047458769053
1731143312.627272,777.5795903005994,807.1806497361766,799.498088919171,793.0283300915402
1731143312.627322,777.0119198610706,807.4106218223818,798.9411651590569,793.0738628908157
1731143312.631166,776.4617763300756,807.6407804715927,798.383092904098,793.1414827769499
1731143312.6330888,775.9292759688294,807.8711122090571,797.823803322489,793.2313326752599
1731143312.6350598,775.4145384426478,808.1016002647407,797.2632186740924,793.3435558614283
1731143312.6373217,774.9176699985778,808.3322301235387,796.7012552959904,793.4782915985431
1731143312.638954,774.4387699900977,808.5629938689852,796.1378535850331,793.6356770680953
1731143312.6428478,773.9779580937101,808.7938917060062,795.5730351291809,793.8158530290283
1731143312.646742,773.5353960878194,809.0249261669662,795.0069300280537,794.0189630402054
1731143312.6506355,773.1112643601218,809.2560861903928,794.4396837789928,794.2451366927434
1731143312.6519234,772.70567242731,809.4873289321889,793.8712144745274,794.4944611559808
1731143312.652886,772.3185505273319,809.7185819166361,793.3009757110327,794.7669686447708
1731143312.6545298,771.9496560984139,809.9497895211338,792.7280803666072,795.0626799675332
1731143312.6584237,771.5988371721951,810.1809955073003,792.1520859666101,795.3817150551058
1731143312.6622417,771.2665091609381,810.4123897753256,791.5741779133243,795.7243980448885
1731143312.6623178,770.9539341694692,810.6442039930022,790.9975577710653,796.0911964319978
1731143312.6662116,770.662634672217,810.8764072812922,790.4254170989517,796.4823623766465
1731143312.66845,770.3926457073359,811.1083790303843,789.8562392677392,796.8974024081709
1731143312.6701057,770.1406056561252,811.339004118091,789.2797147443159,797.334918706207
1731143312.6707582,769.9002467627618,811.5676124727893,788.6800223070366,797.7935454725783
1731143312.6739995,769.6677553973125,811.7955172235792,788.0514793471579,798.2740716939207
1731143312.6778934,769.4506694693041,812.0267094450686,787.4202239750205,798.7812380427017
1731143312.6817875,769.2720707715481,812.2655805055532,786.8484278262865,799.3221633313486
1731143312.6840143,769.1577362331243,812.5110392185798,786.3917930133795,799.8992168370834
1731143312.685681,769.1023205325348,812.7507906430294,786.0103069849645,800.5003302192664
1731143312.6895754,769.0359147723067,812.9642997782701,785.5004700391157,801.097436461619
1731143312.6895933,768.8400946940267,813.1416277963093,784.5774910813769,801.6660875115039
1731143312.6934693,768.4557830804922,813.3117375834873,783.1914889059952,802.2258321413384
1731143312.697161,768.0479359130917,813.5514466704,781.9425657749239,802.8702128113689
1731143312.6973634,768.0630707793391,813.9356156078384,782.1659282574194,803.7290561875772
1731143312.6995788,768.9539934095899,814.420798273472,785.2591559965974,804.8282197990476
1731143312.7012572,770.5308221460572,814.7363620160507,791.458240945154,805.9151425009652
1731143312.705151,771.3872541248722,814.4301491276816,799.0817080801411,806.4599410225196
1731143312.708428,769.3397968197804,813.1570014342724,805.1399900227278,806.0679677163424
1731143312.7090452,763.5971270571877,811.0571220244468,807.0188847680275,805.2641928925607
1731143312.712939,757.8377907096221,808.8537918260909,803.9917617018991,806.0463238475442
1731143312.715143,761.0401277170083,807.4400865297675,797.5250160751426,811.2309450429021
1731143312.716833,782.4450484468514,807.2038602479485,790.3062033910908,822.2051800020323
1731143312.720727,821.7779134523444,807.6648050300674,784.7718264612856,836.3101953219283
1731143312.7246213,863.4805664006358,807.7754996842666,782.094127655969,846.346608381683
1731143312.7272625,884.0737731952609,806.6804777129502,782.0792946106501,843.9159684635754
1731143312.728515,870.0470590646864,804.3703363821375,783.7140911445872,825.4475763101019
1731143312.7307072,831.2694132815444,801.7715087089615,785.7780331259092,796.8177947041055
1731143312.7320807,796.5089312618364,800.2032782073,787.1930605030883,772.1484010095195
1731143312.732409,792.7054428073868,800.5216255085119,787.2238357445661,765.9108814574737
1731143312.7363029,824.1449863444982,802.4830974222281,785.7537065872068,782.957666419872
1731143312.7401967,868.8085163828121,804.7923993183331,783.5599879370793,814.0651028760919
1731143312.7440908,895.6502924926253,805.8910048609973,782.2121198538321,841.4796897123396
1731143312.746097,889.2690296345856,804.9943063442463,783.3458766631953,851.2340833807347
1731143312.7462716,861.860885813446,802.6368066660858,787.5894413743398,842.9660481694453
1731143312.7479846,842.5277117739356,800.3198111115586,793.8655319531688,829.3983648968255
1731143312.7518787,852.7890936383317,799.5239306851246,799.7143288096871,825.8723248867979
1731143312.7557726,888.6615225842031,800.7819409768222,802.6279073043443,838.4220202509168
1731143312.7596667,924.0450233287756,803.391445684632,801.5946949942812,859.848707807084
1731143312.7618358,932.2308371358502,805.8689967795509,797.771680600404,876.3955289514986
1731143312.7635603,907.497622731855,806.8111911954273,793.762087740855,878.9898192471153
1731143312.7649322,869.3296476303042,805.660703010203,791.9896123000302,869.8592849296836
1731143312.7670002,846.5007764678746,802.9617929634007,793.2937445816316,859.7508439589928
1731143312.7674546,854.3784766944447,799.9598000337242,796.6354312631715,858.7222089156342
1731143312.7713485,883.614749694695,797.7879547837794,799.9808364459736,868.2154437087338
1731143312.7752426,908.8801469642706,796.7968771345368,801.6874728037078,880.602232833005
1731143312.7774,910.2172890015252,796.5086495029267,801.4825894083924,886.2218961805412
1731143312.7791364,889.4321023038042,796.1641293748878,800.4344569192054,881.9277217761319
1731143312.7830305,867.9346291099547,795.3294603609685,799.9779937725004,873.9472194526046
1731143312.783767,867.8053379136805,794.0728380788687,800.7141463572766,872.5431147361812
1731143312.7869244,892.0818454078516,792.7417339264236,801.9039740537189,882.9031833441659
1731143312.7908182,921.1526726383756,791.7155643244333,802.0771318209511,900.0782114544733
1731143312.7929645,928.6558375420707,791.3127963026424,800.279130715316,912.5137395306282
1731143312.7947123,903.8027410484071,791.6956848138711,796.9334131787838,911.3871559019708
1731143312.7986062,861.5584230342915,792.6827321065438,793.6147865912036,897.9043863584432
1731143312.8019197,832.043939305693,793.7088082185015,791.9633993634716,882.3888647414766
1731143312.8025002,837.3313162079646,794.163157722218,792.6655338505007,875.9240275372274
1731143312.8026016,873.774975925004,793.8702528916966,795.2732469505315,881.486281284644
1731143312.806394,913.7107107592026,793.1846803764882,798.8427738265839,891.831012106255
1731143312.808529,925.5920459065691,792.5527178782961,802.7119482764424,895.8300531255934
1731143312.8102882,897.5965384709243,792.0511730569131,806.7474981019467,888.0783077819383
1731143312.814182,846.7467036163077,791.4916788814522,810.9513700792634,873.7956052682985
1731143312.818076,806.2414536047988,790.9915842122783,814.8894187703187,864.6685368982717
1731143312.8214364,800.5018288664907,791.265631042379,817.5464596510794,868.7352636089151
1731143312.82197,827.3338020060111,793.1199779621711,817.838041595388,882.7317103733245
1731143312.8240929,861.1016076796772,796.5438653550539,815.4292792014592,893.6703410938248
1731143312.8258638,873.9185096665223,800.3573889179554,811.2083867614788,888.725752748455
1731143312.829758,857.494291577814,802.9010114057727,806.9999851932178,865.3341166399312
1731143312.8336518,828.2893511940777,803.2094658147688,804.6608162163245,833.2668724267558
1731143312.8368392,812.6445248855497,801.6059488584075,805.0981063015571,807.4035905818306
1731143312.837546,824.6916458049017,799.2221469348968,807.7464214373864,797.5004523173311
1731143312.8396573,855.0876732035039,797.002169787915,810.7808132837173,802.8198928348528
1731143312.8402712,879.3438933736439,795.197008481321,812.0332413643445,814.5967252514333
1731143312.8414395,878.5820127031396,793.7547824391035,810.2253905330399,823.1319287506813
1731143312.8453338,855.4939840185461,793.0111999651443,805.7985554056809,823.8373622026666
1731143312.8492277,832.0431069290572,793.7564523889713,800.6709972708646,818.551537439802
1731143312.8531215,830.4642859132133,796.4671229982371,796.9528687270704,812.3053668771277
1731143312.8552215,853.4809180748789,800.4875372292884,795.5572070497409,808.588053921988
1731143312.8570156,880.9047549801562,804.1243351559696,795.8232854902421,806.6667
1731143312.859106,886.0594067108736,805.7426236503978,796.3694662555944,802.7414921733044
1731143312.8609097,858.3503551978881,804.9307880915987,796.268084257769,793.8502301118002
1731143312.8648036,812.8768691703758,802.6998375160434,795.4682492585648,781.3139595280635
1731143312.8686974,778.9758807335436,800.5848645618082,794.3144395943208,770.7256287172836
1731143312.8707857,777.2302234165849,799.4918268432918,792.9449547913035,768.1148333935582
1731143312.8717587,803.6908025439551,799.2584860955784,791.3056623996722,775.1239854451783
1731143312.8725915,833.7110655162664,799.1559854597209,789.6672297295081,787.1993684625647
1731143312.876485,841.8403658227031,798.7380011415081,788.9146537466665,796.6867144698642
1731143312.877941,821.6724938367781,798.2806108138375,790.1259800728761,798.7079651192269
1731143312.8803794,789.9189206755929,798.5428668394356,793.7151519447355,795.0233263178959
1731143312.8842733,771.7284969660997,800.1354711802564,798.8717649889413,792.3453041572283
1731143312.8863502,779.493627973738,802.9609603511877,803.7999800151534,796.2210491487645
1731143312.8881674,802.8339548945154,806.0401381152418,806.6282036289998,805.7678298977394
1731143312.8920612,818.1540851802743,807.8372299143749,806.3847570014206,814.1572968466485
1731143312.895955,809.488042649539,807.0089322369738,803.4430056857303,814.628971708309
1731143312.8967755,782.6145793624676,803.255804625953,799.2580743294095,806.5505658072121
1731143312.8998492,760.303920044016,797.7533010528913,795.6782470043854,795.8239158616035
1731143312.9019144,762.8207886033414,792.7550835625638,794.2512505412733,789.2132313964814
1731143312.903743,790.2159222857081,790.4599324028836,795.7287185363383,787.9078519016922
1731143312.9066782,821.2006879381364,791.7862313822917,799.750154089575,786.3067536642179
1731143312.9076371,829.5953932847447,795.8421075820073,804.7678044129285,777.1284824063258
1731143312.911531,805.0787156288832,800.4503681149182,808.4811101793018,758.25968429128
1731143312.9154253,761.5430985322656,803.3886789922617,808.9063801168073,735.3967860492179
1731143312.9156103,726.2892686831508,803.5614079713513,805.6176099840029,718.3455003022839
1731143312.9174786,718.6730732634715,801.4309569113069,800.2404324637608,714.1412343736741
1731143312.919319,735.3884069860342,798.5541100448116,795.625213627926,722.4664778398785
1731143312.923213,754.2998133031183,796.5914456529887,794.1526683804597,736.6666427653149
1731143312.9271069,753.6613514880739,796.3906298139261,796.4007595389725,749.1670669272311
1731143312.9310007,730.8594818688556,797.6364326650911,801.1134429157047,756.883037125749
1731143312.933043,705.0584451829483,799.2121251224202,806.2947411335605,762.5451111607639
1731143312.9344451,701.329890359047,800.0053536991396,810.3946690871583,771.2174783459959
1731143312.9348948,729.1751664200705,799.6424646757611,812.7345882933038,784.9950570762915
1731143312.938789,773.1482613395403,798.7061342141127,813.2014112661316,800.1574465487787
1731143312.941598,803.6575871311221,798.3305839888734,811.8534848079196,809.0842039032561
1731143312.9426827,799.751303196478,799.4487332251153,808.9216608660702,805.5622400123714
1731143312.9465766,765.7838216186869,802.1627862511577,805.1031875539802,789.4915584850595
1731143312.9486072,728.3761653378814,805.6321456968068,801.6681932950145,767.391552150677
1731143312.9504707,715.7476095168864,808.5661256074462,800.0256678008708,748.2929569187509
1731143312.95328,735.8708930248486,810.0269617661056,800.8875880255752,738.1589107640684
1731143312.9543643,771.0679885200308,810.0154562947758,803.6371087423553,737.0378969581992
1731143312.9582586,793.2432773375607,809.4196701980688,806.5223790740249,740.7725255500177
1731143312.9621525,786.9200263423838,809.347093269658,807.7174506742679,745.3023889620034
1731143312.9641714,761.039418112666,810.3376006545645,806.5331367524562,749.7405957614967
1731143312.9660463,740.3693841907963,812.0647158108292,803.843591951374,755.9794042064985
1731143312.9699404,744.5542942821571,813.7365975108389,801.4006249239181,765.8345842066763
1731143312.9721146,772.4707948491399,814.8258089030136,800.6095617789081,778.5694815051228
1731143312.9738345,804.1585890866658,815.500008008051,801.7207366116838,790.762783315412
1731143312.9765174,817.7917414889531,816.4020869993029,803.9597795431353,798.2934626615229
1731143312.9777284,807.3976948436613,817.9669160978618,806.3267317162273,798.7883979318017
1731143312.979736,787.0325171204056,819.8213806482879,808.3283920072732,792.9269466144705
1731143312.9816222,778.2240428907471,820.7677416991613,810.0933623874176,783.9320297041035
1731143312.9855163,791.0869257668942,819.4638028400947,811.9103659552811,775.6750304598338
1731143312.9894102,815.0096031885041,815.4175292883612,813.6921781756446,770.6491605474453
1731143312.9909494,827.2752808181876,809.6098002302347,814.8509881800735,769.1893039693437
1731143312.9933045,812.8868162052541,804.2110626141458,814.6728279083654,770.4378306116932
1731143312.9953,778.8135955330775,801.4600236977259,812.874946699835,774.1170869319325
1731143312.997198,750.0028475968585,802.416649815371,809.9177702370179,781.35412074666
1731143313.001092,749.7865626082474,806.442393065377,806.8522129296719,793.5293659424025
1731143313.004986,780.6790755456993,811.722412145157,804.8216882695393,809.980744077592
1731143313.00888,821.4124782459128,816.3520087854216,804.5430564701801,826.7694525621208
1731143313.0097842,842.6983287181068,819.1500021331947,806.0265690824357,838.1681627078358
1731143313.0108645,829.198559151884,819.745038982789,808.588328394948,840.2532724964506
1731143313.0114367,790.6796195476528,818.2043320686364,811.1020125460709,833.834411222561
1731143313.012774,754.0452918326589,814.7976070800742,812.4549275372362,823.9747337108172
1731143313.0166678,742.5446201866761,810.1162350872634,812.0983650692965,815.945899258833
1731143313.020562,758.1803805032464,805.1936767823667,810.3674197762873,810.7358732250351
1731143313.0244558,781.1628719050575,801.2197050887208,808.2302904051913,804.2113188463835
1731143313.0264287,787.1528624861181,798.9733718223661,806.5558538554035,791.2403903704949
1731143313.02835,768.4527903796616,798.5253076914901,805.4877031836181,771.4641443625708
1731143313.0286193,741.3137393578072,799.5014746357367,804.4631245611549,751.270707492725
1731143313.0322435,732.5919942936599,801.5560969719379,802.808977826496,739.4890560636231
1731143313.0361376,756.5054826201826,804.4761325608627,800.3501574227898,740.1457568811998
1731143313.0400317,801.0968070630787,807.8174235279206,797.5645807475398,748.8008236692382
1731143313.041993,836.1959726501012,810.5765642794269,795.2787399063961,756.0849695371135
1731143313.0439255,836.7965360302392,811.4365638955902,794.2060363972084,755.556690888223
1731143313.0463564,803.034895124005,809.5770703111832,794.617557889073,749.0192598929941
1731143313.0474536,760.7281139979581,805.4859546790482,796.2823751014475,744.6941789000389
1731143313.0478196,741.9111520787726,801.1168411071205,798.6775183300722,749.9016637741702
1731143313.0517137,760.5014709772371,799.1061906666301,801.3402515305613,764.4764722699346
1731143313.0556076,802.0494402327328,801.3297031493754,804.1166637605187,780.3164290752999
1731143313.057557,835.5791147551911,807.5725580134148,807.0711962775067,787.3257212956288
1731143313.0595014,838.0691953933378,815.2349061174186,810.0656660954847,780.9875753813535
1731143313.0633955,811.9435716098857,820.5321481641206,812.3651984634404,765.7412317429795
1731143313.0662885,781.6342370202899,820.6563509904781,812.7432071681991,751.7165419862233
1731143313.0672894,772.5235073027884,815.5086895305583,810.2181094596074,747.3799849494243
1731143313.0711832,790.017249722398,807.7319772556849,804.9640753268192,753.5796486786458
1731143313.0731215,815.9745741361597,800.9749136793592,798.620066825742,763.358609517278
1731143313.0750773,824.8771772212547,797.6565068463178,793.5475712545488,767.5931595826083
1731143313.0789711,805.7209882497609,797.8075952633343,791.3904521721048,762.1093817194377
1731143313.081276,771.3227490562456,799.6287529641678,791.9464273703309,750.7997583395177
1731143313.0828652,747.651591191095,801.1008139135334,793.2815442216162,742.4719339620831
1731143313.0851233,752.3992184207331,801.3573379071162,793.1531230432478,744.233857906697
1731143313.086759,780.591326430998,800.8990772886623,790.7509998277415,756.8636467769987
1731143313.0886858,808.9577200259859,800.6777820812066,787.3841969467355,775.5514717133266
1731143313.0906532,815.2770266125037,800.9257066697738,785.4673246874214,794.619467436784
1731143313.094547,796.6173422553795,800.8021609092377,786.5266322885215,811.7084056572498
1731143313.0984411,771.3417973669523,799.2622360805591,789.8256475329138,828.0494466123079
1731143313.102335,763.2966902732966,796.4230653249347,792.7829258771604,845.3278713794182
1731143313.103958,781.5134892215664,794.0628770908887,792.9136819254314,862.5198953090804
1731143313.1042502,812.4117633567422,794.4999085832868,789.7766698922421,875.6222162319265
1731143313.1062293,830.9011436505974,798.6087426500226,785.3846961858452,880.3625634031612
1731143313.110123,821.1115316062036,804.7336056517145,782.7392919343392,875.515027655611
1731143313.1140168,789.7345922881422,809.6265368714322,783.612649383033,864.1615054016445
1731143313.1161954,761.075260847472,810.7340601383625,787.2856420418755,851.9282938446405
1731143313.1179109,757.6440519240466,807.9201644718705,791.1956282874781,843.4342185338314
1731143313.1198144,781.7936610829202,803.2774476183316,792.9396344140176,839.444899349947
1731143313.1218047,813.4094774806088,799.4368516835474,792.0423993451129,836.7794092901053
1731143313.1227927,826.1388985658336,797.9712326404817,790.1692051136837,831.1107884866348
1731143313.1256988,809.4937702821683,799.0554906883016,789.7410295248021,820.6528376637772
1731143313.129593,778.4873910554031,802.1500069965225,792.086130358641,807.9070820408604
1731143313.1334867,761.8527481171512,806.6114209473324,796.4678014799726,797.9664002063498
1731143313.1353786,777.7658093584489,811.5687067884734,800.5898684795488,794.5113507241548
1731143313.1373806,817.4215141324871,815.4961749745212,802.1604567046361,796.5563742720484
1731143313.1412747,850.9918535835172,816.4094365670065,800.4382395094143,798.6092087486586
1731143313.1416276,851.6121302817979,812.9701543237884,796.7116078329735,794.4233539248706
1731143313.1451683,817.5352554193313,805.7211578001003,793.3645710251208,781.8035374616932
1731143313.1490624,774.1230166954629,797.3250417330775,792.1915491263367,764.9695096537631
1731143313.150943,754.2123751084725,791.402461914284,793.2231459942029,752.50713984772
1731143313.1511152,772.8383911271254,790.654342207973,794.9450498858096,751.9544064430901
1731143313.1529565,816.2179297660609,795.4592332214569,795.6537253790439,764.5947654013644
1731143313.1568503,853.1711416644116,803.7571258892133,794.7762016888774,784.2697072637208
1731143313.1604624,859.6241625251031,812.1809406075419,793.1211938857423,801.4701236248969
1731143313.1607444,836.8325632550409,817.702565777083,792.0524116378353,810.0188438993105
1731143313.1646383,808.97063294629,818.8957768204859,792.461620654864,811.225652978173
1731143313.1665072,802.232168344683,816.2701617355507,794.359082627971,811.9425469626722
1731143313.1685324,822.8105089677377,811.69768739368,797.123552648114,817.8936536600169
1731143313.1724262,852.2302839126262,807.3762888955926,799.8993938980913,827.9777457419846
1731143313.1763203,863.8325545745374,804.8688476425017,801.8117517812311,834.769307467777
1731143313.1792972,846.0984954259391,804.5868057261602,802.143438037659,831.1323021913228
1731143313.1802142,812.8283835124997,805.8329744486246,800.661579142726,817.3306928269751
1731143313.1820714,791.7608129061043,807.2942660577492,797.8877168212916,802.3029643084175
1731143313.184108,801.4961005464658,807.7184292611264,794.9186093294225,797.5706248245086
1731143313.186035,835.9381885117973,806.4625031462947,792.7894780393153,808.4740273930735
1731143313.188002,868.8462438991301,803.7089985645172,791.888615463605,829.8954630296212
1731143313.191896,874.6852803903118,800.3430334650459,791.9162026258083,850.2288279002776
1731143313.19579,848.9735946101181,797.6028726268496,792.3223464580824,860.5959333576794
1731143313.197636,811.7010377513204,796.5953882360209,792.7368201120038,861.6389927301575
1731143313.1981318,790.8563876044069,797.7608488286952,793.0693970364892,861.9289023805708
1731143313.199684,799.2813983564481,800.5184386567561,793.3739541608028,869.2495124559085
1731143313.203578,823.9626608415655,803.4509135243882,793.707705480432,882.6001441843559
1731143313.2074718,837.0589957294355,805.1420307257292,794.0825053398784,892.4121356591261
1731143313.211366,819.8394037738503,805.1769782447415,794.479716569323,889.0203902645476
1731143313.2132,779.4292865994281,804.4508710932128,794.8780773439216,871.6582479422977
1731143313.2152598,743.9751227202029,804.377943040607,795.2681070784697,849.6356655253123
1731143313.2169666,740.0140772835994,805.5927338841423,795.651193395922,834.603737572212
1731143313.2191536,770.7904079327843,807.2905122886744,796.032492272642,830.9791767084793
1731143313.2209542,813.3226030956906,807.823135373078,796.4155489678302,833.0381469394008
1731143313.2230475,836.4867049674925,806.0349300720525,796.8010013433126,830.8573083617306
1731143313.2269416,825.3930156202879,802.1991599111562,797.1878421515486,819.3403975458981
1731143313.2287643,792.4617238340568,797.839719778693,797.5749905356168,802.2370192696887
1731143313.2308357,766.4757210123023,794.6877923015642,797.9620138131363,788.067601288768
1731143313.2347295,768.8126073920398,793.6301584804877,798.3490327945706,782.2994112550913
1731143313.2358017,796.5534821714953,794.3585256101318,798.7363353397232,783.1699838020726
1731143313.2386236,826.3460867709808,795.8229870933209,799.1241061797949,784.702744259311
1731143313.2425177,835.3347478454157,797.0551466883096,799.512375753831,783.5507705147118
1731143313.2443287,821.0531874360047,797.7771998294176,799.901095032583,782.8340390835881
1731143313.2464116,803.3811787078068,798.4589052627417,800.2902169704606,789.2014285599116
1731143313.2503054,807.2744647961634,799.8925388667639,800.6797287253805,805.8584752926365
1731143313.2541993,841.1427952765011,802.61282772567,801.0696421427587,828.067617980418
1731143313.2546363,888.7550695771106,806.4587624862473,801.4599741649125,845.3499321466536
1731143313.2558737,920.8788373031764,810.4293192878331,801.850739760173,848.7643720633638
1731143313.2580934,917.1604493215945,812.9397905967217,802.2419588062254,837.5339679801965
1731143313.2598927,881.36552903002,812.5403006666694,802.6336617148195,819.9926696934726
1731143313.2619872,838.5729653264493,808.8599139633968,803.0258757861337,808.1609902878348
1731143313.2658813,816.517844444592,803.1290333709244,803.4185901749526,809.7689673422534
1731143313.2697752,825.2546238831754,797.6840048642819,803.8117284270969,823.2688144139287
1731143313.2734709,850.8393627890277,794.6162173733942,804.2051821429703,839.2911464056161
1731143313.2736692,867.9486453530478,794.5512479783606,804.5989380469298,847.4389215161373
1731143313.2754571,861.1262451463108,796.512145233578,804.993236197867,843.4724715456532
1731143313.277563,837.2126331818996,798.8744241934576,805.3885694289453,831.7772070694346
1731143313.2814572,818.9132374684476,800.510579531026,805.7853138388992,821.6830237014793
1731143313.285351,825.2604650021212,801.2284301228284,806.1830382823352,820.696457465578
1731143313.2892451,855.3307645529902,801.3883725553941,806.5800711579408,829.4895833415691
1731143313.2907932,888.2964905021875,801.272827785629,806.9742957232274,841.6819409238894
1731143313.2910216,899.3366860754752,800.8046654848208,807.3656474297098,848.1052422477927
1731143313.2923057,878.6658045185576,799.7616970604317,807.7589405202646,842.8081954724859
1731143313.293139,839.0323765778666,798.2227851214752,808.1633512782512,827.3466596732252
1731143313.2970328,806.0003071688573,796.8567406032299,808.5848730633381,810.6448550361162
1731143313.3009267,798.4406114354206,796.7741099984602,809.0133850275513,803.8928577946865
1731143313.3048208,814.5714811693169,798.918865213405,809.4159782187635,813.2185257820429
1731143313.3065858,835.00987729132,803.3175755021551,809.754512914973,835.1666842019063
1731143313.3087149,840.449461873719,808.739603427595,810.0339397630813,858.6687616428167
1731143313.3111403,828.7770137709698,813.1834028879202,810.3516790988605,872.3198456249891
1731143313.3126087,816.4452132734139,815.0323681978297,810.8768468539648,871.3904766413237
1731143313.3165028,822.6587362790772,814.0832972577202,811.6939029428383,859.2981697608262
1731143313.320397,850.3818245621966,811.5797905255636,812.5502785090227,843.1456162373047
1731143313.32215,881.2738029012843,809.192796640755,812.7232296007888,827.8953887860591
1731143313.3242908,889.5636423207735,807.8850110753989,811.283029543744,814.3324120628331
1731143313.3257127,863.4277283534353,807.6004363242168,807.7525294525142,801.8959328312126
1731143313.3281846,815.9149550686654,807.7577986927043,802.6838070762517,792.6452813798383
1731143313.3299754,776.0503136038795,807.8577604211714,797.5615819372815,791.5085485395523
1731143313.3320785,766.9528773707586,807.7301620936289,793.9665718626437,801.69844907678
1731143313.3359723,788.438120142403,807.4467841261046,792.5920459862612,819.4902450570632
1731143313.3377144,818.1834465557743,807.1366346305936,792.8708717641632,834.2796446976517
1731143313.3398664,830.6071943414006,806.872084401672,793.5160370228065,835.5882387647476
1731143313.3437605,817.9381643289005,806.6557321376199,793.5580368283416,821.801284068193
1731143313.3476543,795.8540238030218,806.4584907768839,793.0437897555544,802.6084282841639
1731143313.34881,788.9695389377363,806.255800593359,792.8374875641819,791.9163571606377
1731143313.3515484,808.7205410307657,806.0403801880453,793.734663036998,796.5799305104207
1731143313.3532786,842.756834373067,805.8169159714403,795.6718624454454,810.6142629845814
1731143313.3554423,864.9634363569944,805.5923034214736,797.6767216064084,820.1825160267178
1731143313.3593364,857.4926225851731,805.3700729957062,798.547440662656,815.2889942254052
1731143313.3606324,826.1116130828502,805.1500973179611,797.7076441039902,798.1845182004164
1731143313.3632302,796.0401163501532,804.930751240231,795.6466965164509,781.3693262620549
1731143313.367124,791.7601096636722,804.7107763372553,793.7009783661405,777.1188566694987
1731143313.3676448,817.2277639898115,804.489853036422,793.3250085251607,787.5419748298702
1731143313.3688428,852.2971973047455,804.2682595530754,795.2627466621207,803.2590516157735
1731143313.3710182,868.1346723154196,804.0463517485215,799.1084462506138,811.2064181570819
1731143313.374912,849.5327376742757,803.8242921372874,803.5547224884306,804.7594087703415
1731143313.378806,806.7225702215248,803.6020566434555,807.1555435340482,788.2309010758094
1731143313.3827,767.49256486133,803.3795564123516,809.0087653543227,772.9615256081357
1731143313.3844073,755.8594199502189,803.1567296627366,808.860824546613,768.7883150585108
1731143313.3864796,774.1108256064844,802.9335573352795,806.7639033245802,777.4752539389021
1731143313.386594,802.2500432935323,802.7100327768447,802.9084494644493,792.3353919957572
1731143313.390488,814.9522233914889,802.4861379895508,797.9773866110148,803.4634653293946
1731143313.394382,802.2867004728639,802.2618593480977,793.5638679244177,804.4608991984561
1731143313.395552,777.6117702666776,802.0372341336112,791.8206608010006,796.1550947575264
1731143313.398276,766.3146863301245,801.8123748403843,794.1526555759225,785.186146689551
1731143313.3999715,784.3668146335765,801.587401685531,799.8826511017213,778.81126432514
1731143313.4021697,824.0204140106214,801.3622671301914,806.2257426429259,779.8192905859073
1731143313.4053144,858.6579768832399,801.1365923093088,809.9925727727294,785.3333909193441
1731143313.4060638,863.619010874641,800.9097722206033,809.8855155704011,790.2934736055573
1731143313.4099576,836.5503659282851,800.6815524496656,807.4834641907918,792.5923280955025
1731143313.4138515,800.3909116059228,800.4528624839515,805.8991826491454,795.3282337503202
1731143313.4155357,785.6912046134639,800.2260332938216,807.0407574542847,803.9786858366353
1731143313.4177456,806.0472983530182,800.0032659358081,809.740969127811,820.7325354795972
1731143313.4216397,846.6548252067489,799.7832577454076,810.4524152822898,840.9336755439031
1731143313.4241493,875.5806659291997,799.5584471144255,806.0998473275076,855.0838941268885
1731143313.4255335,868.766681035609,799.3177031989761,796.820370384007,855.2529004145345
1731143313.4294276,828.648221004156,799.0577745395408,786.3475084384545,840.9235630023425
1731143313.4304714,781.727524433348,798.7984762939282,779.7028351291634,819.5565840488085
1731143313.4311,757.5523036643917,798.5845089293502,779.9898243694837,801.3555708151548
1731143313.4333217,766.151545824376,798.4535648675866,786.6443162407395,792.3680148097789
1731143313.437215,791.6726865642012,798.3724711455758,796.166574569549,791.2904332674376
1731143313.4411094,806.7212235967862,798.1921190200142,804.4508698479035,792.1536705328263
1731143313.442984,795.3808196472527,797.712615002987,808.9236561655466,790.167407456738
1731143313.4450033,766.0954769794007,796.9132154167636,809.2669626344434,785.5716293907988
1731143313.4466643,743.9940989129486,796.2407922876323,806.7492558488894,782.4117454200974
1731143313.4488974,749.2021923933598,796.6440852037892,803.0286807808748,783.7745260353477
1731143313.4527912,779.3306427798224,799.0494981109526,799.294447008574,788.0181449571944
1731143313.4566853,810.846321668415,803.4368233031346,796.0825494424279,789.3901525713682
1731143313.4605792,818.2211753575805,808.3049043041509,793.5739421980923,782.5055116412284
1731143313.4618187,794.939566698638,811.2964858420812,791.9597263868991,767.0430358036272
1731143313.4622288,759.0196077660586,810.7768675312966,791.5646388365099,749.0599296869242
1731143313.4644732,738.567425324304,807.1460596247744,792.7099336624904,737.9499726879983
1731143313.4653907,749.143455817881,802.7243799005493,795.5160385917443,741.0429455222395
1731143313.468367,781.2612095014932,800.1922709907841,799.8019236041866,759.3068988764122
1731143313.472261,808.1891468544181,800.7649618747866,805.0383874261925,786.8836426029609
1731143313.476155,807.865309683065,803.5086853255106,810.2808002342886,814.6403334004093
1731143313.477793,781.0853573529564,806.2602425650854,814.227455868913,835.0852374918826
1731143313.480049,750.8379789157909,807.2973697971705,815.658279193336,845.1144384186748
1731143313.4806535,743.0753260574697,806.3722272443215,814.1714719652773,845.1679953826956
1731143313.483943,764.802674065366,804.4193824944462,810.6288850689195,836.6732415949954
1731143313.4878368,797.8677571161979,802.4803285536567,806.7404131485785,820.8644346410633
1731143313.4917307,813.8145303748407,800.9646654616799,803.987803568768,799.9904748615979
1731143313.4933572,797.5664810268095,799.8140350426231,802.8105885503077,778.9046381320991
1731143313.4956248,760.4078230986026,799.1205692715293,802.6964616261322,764.3712692460412
1731143313.4994884,731.6624110901915,799.3401152022149,802.8698357223778,761.7567125647184
1731143313.4995189,735.8034364388609,800.7802328600158,802.8529954135017,771.5838716987482
1731143313.5003104,773.1849481967655,802.8979859691217,802.5708247970167,788.9086881348567
1731143313.5034127,819.4587814127552,804.2297407266515,802.1604047943307,806.238396541758
1731143313.5073068,844.044595448842,803.2283733850073,801.7618327124189,817.8385404358578
1731143313.5089216,833.2290510456739,799.4280803816783,801.428132317492,822.2846914501041
1731143313.511201,799.858556823894,793.9824546256687,801.1414918697741,821.811580286994
1731143313.5150945,772.1395630126733,789.0831093857273,800.8646842319229,819.7117480677966
1731143313.5183227,770.795296388232,786.6739513240057,800.5753585089209,818.1518279728305
1731143313.5189886,793.2790808065329,787.4273769334328,800.271503442365,817.6420106057808
1731143313.5228825,817.775485389772,790.661679938302,799.9610932566228,817.7206478189094
1731143313.5244858,823.0220326040619,795.0570013674802,799.6514002483277,817.815973335231
1731143313.5267766,806.724844326976,799.4528425033741,799.3448405801696,817.6723667092601
1731143313.5306704,786.9407634437662,803.1573428012255,799.0402232172897,817.3318305304346
1731143313.5345645,785.6914758131926,805.7958270587592,798.7355404100769,816.9386978752667
1731143313.53523,809.1728939305029,807.1195743429142,798.4296770467668,816.591306998631
1731143313.5371578,841.4612734263926,807.0594758840397,798.1225878488519,816.3068417863096
1731143313.5384583,857.0689393200106,805.9129777944352,797.814706660216,816.056879774046
1731143313.54005,842.0816692488432,804.3709825838656,797.5063959237302,815.8111520675727
1731143313.5423524,806.4811476401984,803.2728829596056,797.1977563977882,815.5575005968378
1731143313.5462463,777.1329346069687,803.2527687505819,796.8887060149917,815.2991378000728
1731143313.55014,776.556219706106,804.4930072178554,796.5791189259049,815.0438636473266
1731143313.5540342,804.6112720312484,806.6432714107535,796.2689025667098,814.7965636138534
1731143313.5556145,838.3863793467518,808.8632835581715,795.9580126147316,814.5578044819242
1731143313.5559926,850.7040015161933,810.0298301583317,795.6464579057376,814.3259285376957
1731143313.557928,832.0984249542282,809.2031991848504,795.3343171680525,814.0993429310729
1731143313.5618222,798.2046251693051,806.2507160330014,795.02172585238,813.877462439389
1731143313.565716,776.7401162429655,802.2216100301019,794.7087677268914,813.6604843450368
1731143313.56961,785.1190556120425,799.0495058804146,794.3952806417186,813.4488019739847
1731143313.5701497,817.0074939775295,798.5722337288249,794.0807466359911,813.2426293455186
1731143313.571179,848.2033576662748,801.4019599662073,793.764548760665,813.0419510780466
1731143313.573504,856.3656515069656,806.4077152760448,793.4467156639623,812.8466433837973
1731143313.5748274,838.4501806475946,811.277827919107,793.1287203403908,812.6565929869104
1731143313.577398,812.1736926872999,813.9399830429779,792.8132417735334,812.4717408328169
1731143313.581292,800.8012670124895,813.9355119305587,792.5018578677241,812.2920661488087
1731143313.5851858,813.8236520170452,812.7063946436706,792.1912782210718,812.1175548152869
1731143313.5867429,839.3947659036091,812.4471723117713,791.8716565004033,811.9481807466726
1731143313.58908,854.8254183322757,814.3114025418603,791.5321954254911,811.7839044895534
1731143313.5929737,846.3408368418995,817.3982638274255,791.1755721915245,811.6246800895937
1731143313.593662,821.2848976275892,819.4050076273896,790.8319194004855,811.4704612152157
1731143313.5968678,802.1746637372006,818.4649311490695,790.5514617333968,811.3212031297107
1731143313.6007617,807.4092419921462,814.671808401443,790.3582413746594,811.1768616416387
1731143313.602307,834.8533950406745,810.0538414156414,790.1807164117027,811.0373914080012
1731143313.6046555,862.2935931048487,807.0866157043604,789.8298492221111,810.9027450159681
1731143313.6050692,864.908104793189,807.0256082008893,789.1207873153726,810.7728729702563
1731143313.6085496,835.863376586281,809.3457238328419,788.1555837358633,810.647724075627
1731143313.6124437,793.2334231691098,812.4918421573052,787.5814471389799,810.5272457488604
1731143313.6124969,767.0123201463553,815.0534994148272,788.4531122213549,810.4113841047989
1731143313.6163375,775.8757600797014,816.345196098197,791.4864401290487,810.300083891471
1731143313.6178715,812.0099100340923,816.1631066203165,796.1600689174475,810.1932884014603
1731143313.6202314,846.5223389186605,814.3283236570493,800.6648489139229,810.0909394296232
1731143313.6241257,851.7760291427721,810.7257187254411,803.1158613710345,809.9929772789105
1731143313.628019,823.1957489384869,805.8850989259612,803.0840767114913,809.899340785554
1731143313.6313317,783.0743799476792,801.4014868536233,802.0197859808042,809.8099673397113
1731143313.6319134,763.0907581677773,799.4117507113227,802.1266312415897,809.7247928946593
1731143313.6334355,779.2994468188282,801.1417789227766,804.5850419166619,809.6437519692321
1731143313.6358073,819.4111368704399,805.5991414835879,808.5270506060106,809.5667776502379
1731143313.6397014,852.3893830643884,809.7531400592046,811.5828655588296,809.4938015982416
1731143313.639989,852.6832068813674,810.4836830321428,811.6322990482197,809.4247540565283
1731143313.6435952,819.8872756060324,806.9525189714416,808.425582860368,809.3595638616317
1731143313.6474893,778.3617256355407,801.4238789166415,803.7557715087362,809.2981584541891
1731143313.6490002,757.4067049505135,797.7265447894871,800.0062640516246,809.2404638898066
1731143313.6501665,768.2035276418598,798.5296731042408,798.3178473502362,809.1864048502058
1731143313.6513832,796.2543721533675,803.5654197027123,798.0061434761659,809.1359046549823
1731143313.655277,815.1662837356813,810.0442195024119,797.6960760380376,809.0888852741272
1731143313.659171,809.7234557635495,814.6948787548616,796.9659646962882,809.0452673412677
1731143313.663065,788.3673006924247,815.7458685592708,796.8198172537035,809.0049701675254
1731143313.6645644,774.5006407622396,813.5315710595834,798.5572891057466,808.9679117559117
1731143313.666959,784.5944921280764,809.6800096431192,802.2514566279107,808.9340088162354
1731143313.669001,812.5369129680902,805.8266431893204,806.3610787225101,808.903176780524
1731143313.670853,834.0029013361604,802.8226897334116,808.8102256528852,808.8753298189612
1731143313.674747,827.1882955388055,800.739853823302,808.5256749555368,808.8503808563397
1731143313.6749082,792.2955883842662,799.3461836720879,806.1679509006661,808.8282415890097
1731143313.6786408,753.1887564751889,798.5687894414162,803.5827133548981,808.8088225023099
1731143313.6801286,739.3437005515837,798.6592966426888,802.4675875109035,808.7920328884652
1731143313.6825347,762.4506226520848,800.0241690323139,803.2148064681218,808.7777808649407
1731143313.6864288,806.6811873950636,802.8298664647402,804.7109030241209,808.7659733932425
1731143313.687836,840.8354542540823,806.5957574954339,805.2256520584241,808.7565162981564
1731143313.6903226,842.8207947730023,810.0775312099053,803.7471644284626,808.7493142874182
1731143313.6942167,816.6451760667546,811.6917949450476,800.7296890911152,808.7442709718039
1731143313.695693,788.1012014183068,810.3991939346347,797.63186665762,808.741288885634
1731143313.6981106,782.9157830959016,806.4961995783992,795.645443799349,808.7402695076853
1731143313.702005,805.6073368546266,801.6261139037981,794.7645276518583,808.7411132824991
1731143313.7058983,836.3570476053212,797.827736374774,794.0295951958758,808.7437196420864
1731143313.7066708,847.904664901645,796.271140835597,792.6402932001631,808.7479870280168
1731143313.7097926,828.0973077649061,796.6784336285324,790.8212419639023,808.7538129138919
1731143313.7098277,789.7461722690774,797.8503110631904,789.6622596708469,808.7610938281936
1731143313.7112572,760.2660675595483,798.7261306525755,790.2026896850724,808.7697253775057
1731143313.7136865,759.7589892664237,798.9910017600753,792.6581328708016,808.779602270102
1731143313.7175806,785.105645409565,798.8118897200693,796.3652073102082,808.7906183398989
1731143313.7214744,812.7665101644636,798.2066268388184,800.269649836373,808.802666570768
1731143313.7253685,818.1567105617706,796.8661746968495,803.43026096033,808.8156391212051
1731143313.7255056,796.0721509847157,794.6882615960443,805.2661855392404,808.8294273493518
1731143313.7268214,765.5354824171397,792.4613602848427,805.6566255542077,808.8439218383668
1731143313.7292624,754.9167127043945,791.876615724976,805.0199931029977,808.8590124221414
1731143313.7331562,779.2256594987722,794.583299411213,804.2345838175873,808.8745882113599
1731143313.7370503,827.7916973483195,800.8715487773144,804.1982313857237,808.8905376199064
1731143313.740944,871.9817312369363,809.02239467358,805.1759316454078,808.9067483916157
1731143313.742386,886.4895614415146,815.9857896332604,806.471713524458,808.9231076273677
1731143313.7443402,867.3654168696756,819.0806660013413,806.8445209567094,808.9395018125082
1731143313.7447472,833.2532254039338,817.605542159815,805.4495874934375,808.9558168445772
1731143313.7448382,809.7913210389263,813.241307350912,802.5319443260115,808.9719380613404
1731143313.748732,809.8974899305238,808.9406617323934,799.2413238640397,808.9877502691517
1731143313.7526262,825.2816483749488,807.0526280104688,796.7213442782943,809.003137771713
1731143313.75652,835.4046013047368,807.9659718966739,795.3041311820919,809.0179843992855
1731143313.75795,826.1309902916844,810.1565433292603,794.5189584393922,809.0321735382906
1731143313.760414,802.3985947489177,811.4780975482803,793.8218471837579,809.0455881610626
1731143313.763175,784.1622246254351,810.66948934363,793.2924475396059,809.0581108554447
1731143313.764308,789.0282272258257,808.0205976222667,793.6383490358108,809.0696238541967
1731143313.7682018,816.4063535912443,804.8709173342044,795.5195405015382,809.0800090648765
1731143313.772096,846.7540392019168,802.4721132246402,798.8164949620252,809.0891481014963
1731143313.7735145,856.7416775180246,801.125298196075,802.5311915378305,809.0969223188487
1731143313.7759898,837.9491593117184,800.2082586074899,805.4851095730087,809.103212848151
1731143313.779667,803.9216982989394,798.9717623140185,807.2489167594896,809.1079006293777
1731143313.779884,779.849468640487,797.3438703968435,808.4356506019237,809.1108664347615
1731143313.7820098,782.9180350684168,795.9792900889515,809.9905025848386,809.1119908838803
1731143313.7837777,808.8234632272115,795.5097232553269,812.0563688581716,809.1111544639529
1731143313.7876718,835.3782376834464,795.7786964327057,813.4851313227019,809.1082375798758
1731143313.7890787,840.6960993064101,795.9240271408185,812.5439651802316,809.1031206482439
1731143313.7915657,821.3163668491729,795.3025960125854,808.2755348719508,809.0956842049465
1731143313.7954595,795.0149785733017,794.2827661665198,801.3704888673873,809.0858089362421
1731143313.7993536,785.5163142773505,793.9683601631547,793.8801523430869,809.0733755353136
1731143313.800845,801.9084758924713,795.0427052643503,788.1140580747837,809.0582644103639
1731143313.8032477,830.5251204676763,796.9323412789857,785.603244533698,809.0403555210529
1731143313.804643,846.5181608298811,798.2198235242358,786.6753593045519,809.0195288010299
1731143313.8071415,835.3598728189443,797.9399547202436,790.5520815111198,808.9956653798652
1731143313.8110354,805.9233309067814,796.4904111134651,795.6634722507548,808.9686489388681
1731143313.8145864,783.9050456522523,795.3224306274182,800.1081518511107,808.9383654581212
1731143313.8149295,790.8945879193426,795.798660430345,802.3460631076384,808.9046996393065
1731143313.818823,826.3620061598185,798.289259381565,801.974090727258,808.8675288459671
1731143313.8196793,867.4185990790079,802.1305530773327,800.0809833333774,808.8267201284543
1731143313.820207,886.6356957195167,806.160020853874,798.7194677840004,808.782138801988
1731143313.8227174,873.4808164922765,809.1873613890526,799.6169344193862,808.7336714854392
1731143313.8266113,841.977913130177,810.1829777572018,802.9392982441536,808.6812493442179
1731143313.8305054,818.4639979079992,808.4832715297696,807.0668855707698,808.6248380722062
1731143313.8343992,819.7077539353697,804.2517089340889,809.6669415802286,808.5643651064956
1731143313.8357716,839.5607511433992,798.8885638013271,809.316314219087,808.4996066720045
1731143313.8382933,854.972468287671,794.7504294848402,806.419085998989,808.4301456239559
1731143313.838514,845.9443285826774,793.9434715985007,802.6903589509416,808.3555553407116
1731143313.8421872,812.7421746123513,796.8496142120111,799.656926039668,808.2758422593892
1731143313.846081,776.4876936185694,801.5800842083693,797.4659376329231,808.1918468945794
1731143313.849506,762.9659642958019,805.0518063083596,795.0502401403419,808.1049653617299
1731143313.849975,782.6172851396424,805.0989590021496,791.5298543306211,808.0156949058825
1731143313.8513358,822.2646091411978,802.0542278747586,787.5929274115406,807.9215578533716
1731143313.853869,854.8433495978875,798.5112282101662,785.5017429767244,807.8165974551772
1731143313.857349,859.5673443846283,797.3764690204068,787.4968817861534,807.6952637996745
1731143313.8577633,836.9192578743067,799.6884908086021,793.823047370751,807.5608647100628
1731143313.861657,806.7931831958056,803.8765516500174,802.0692639064082,807.4323529250468
1731143313.865551,791.4493939893152,806.9910623572296,808.4939024466515,807.3373781621791
1731143313.8669002,797.3525400553672,806.9044099223794,810.3584537410563,807.2834903445988
1731143313.8694448,810.9699971757626,803.7907535418773,807.506493691615,807.2203914472407
1731143313.8733387,811.7973171185088,799.8451809918427,802.1489117370284,807.0362942590725
1731143313.8761835,791.1613118350156,797.5891304371927,797.2791423289332,806.6391047638416
1731143313.8772328,760.5548785536702,798.1108747570795,795.0186506028,806.1174873010171
1731143313.8811266,742.4500155814102,800.5117395032877,795.9048238683292,805.8553384767963
1731143313.8824644,751.4943932620404,802.8437551067844,799.1980676159925,806.3766786749819
1731143313.8844254,781.9342022984415,803.7155874943771,803.6026896791047,807.8049006196364
1731143313.8850207,811.749996805471,803.3066401367157,807.8015939595163,809.2603279438104
1731143313.8889146,820.1603225348325,803.0483424958209,810.6501203754696,809.0098561452022
1731143313.892809,804.1558707414221,804.293290987142,811.2456146955105,805.8285116214822
1731143313.8950183,780.4108087060368,807.075724789825,809.1130210617404,800.527223526124
1731143313.8967023,770.8985081227986,809.9646156170653,804.5096275404554,795.7021207299158
1731143313.8980286,784.2106768135676,811.1186851038096,798.5923418441898,793.3615019131576
1731143313.9005966,808.4059880828829,809.6916317153325,793.1290310382399,792.7593456822226
1731143313.9044905,821.5117170741561,806.4703869357666,789.7014343500816,791.0626307644123
1731143313.9083846,810.6484513058776,803.2663023064325,788.821750352535,786.6151787404891
1731143313.9122784,783.3922857704722,801.6009942843837,789.6360257909398,781.5715552705846
1731143313.9135933,761.860483343274,801.7804289663037,790.5464402334704,780.9045855213353
1731143313.9138532,764.7506722382509,803.0469693644505,790.3555246529743,788.1995212542249
1731143313.9161725,792.253937483191,804.5025734968666,789.0913363485714,801.8864096097011
1731143313.919345,825.8160884309046,805.8463577140985,787.9374723981676,815.4588637606068
1731143313.9200664,842.5661504357373,807.2812489505727,788.3902241523205,821.8487482856428
1731143313.9239602,832.8785783964831,808.8636413250871,791.2697588644478,818.5096299801636
1731143313.9278543,807.3494126229958,810.1279614846635,796.1900681356739,809.0821834421807
1731143313.9291573,787.7969892935088,810.454912469653,801.7119692268326,800.3723400224964
1731143313.9317482,789.4873971170477,809.7982600366612,806.0208068124169,797.2878193571847
1731143313.932688,808.9033785032135,808.9630323575566,807.7714580538739,799.9118387261159
1731143313.9356422,827.0802955352906,809.0597944364323,806.7072724064656,804.7456475546403
1731143313.939536,825.8928352955344,810.5748428227547,803.7472955738784,808.3971137893026
1731143313.9434302,803.8606480011701,812.8809413997429,800.4697894881795,810.1133219100873
1731143313.9447217,778.1588362360865,814.6236336070438,798.2551038039294,811.1311495566105
1731143313.947324,770.8200566952004,814.650251551757,797.5799250899562,812.0920212734426
1731143313.951218,790.3193472546087,812.7105305542707,797.8642020169276,811.4769201592223
1731143313.9515228,823.719039329577,809.413969292644,797.9025302558192,806.6984844478683
1731143313.9542644,846.0078431682205,805.6066112539553,796.5687012553294,796.7879964565791
1731143313.955112,839.3955548144332,801.8030879864875,793.423848407034,784.2600973735603
1731143313.9590058,807.352791043927,798.1710563222023,789.0270200101476,774.6028936691227
1731143313.960286,772.2358846761042,794.9716835540376,784.884432837623,773.5857192374428
1731143313.9629,758.1729773736555,792.8799039214646,782.9832142490923,783.7629853172443
1731143313.9667938,772.6216640474719,792.7128840685023,784.9260371964682,802.0333223093801
1731143313.9703577,801.3237021805502,794.7153059157201,790.9799239657826,820.0988868771693
1731143313.970688,820.7704373705426,798.0930752829485,799.6591901208878,828.5917977232538
1731143313.9745817,817.9711125085742,801.3663914139876,808.315520061804,823.106118164957
1731143313.97585,801.140844190196,803.3609173587615,814.4941674684003,807.9579237803379
1731143313.9784758,792.3890226701309,803.9876600628013,817.1138743331456,794.0427570692174
1731143313.9823697,808.5270658028439,804.099266370203,816.6153077189375,791.4523399469066
1731143313.9862635,846.0039954171762,804.5791433643739,814.1500697008956,802.2432822794867
1731143313.989184,882.434823968,805.5469725546997,810.7432772990267,819.2164950240099
1731143313.9891922,893.5102807138361,806.3931215411088,807.2094635576409,831.7435140313662
1731143313.9901576,871.7775077122459,806.4883114748282,804.5722667936262,833.7659978495616
1731143313.9914143,832.4927083074493,805.7903096073298,804.0284303947918,827.4656940644433
1731143313.9940517,801.9734415436451,804.8041000958414,806.0369065810214,820.0778982128679
1731143313.9979455,797.5696212112832,804.0825892992274,809.3865273220644,817.1755867597535
1731143314.0018394,815.0638614823064,803.8330996883551,811.5621977568788,818.3609298766615
1731143314.0057335,833.5182474718558,803.9190262860196,810.592367493095,818.6737436596848
1731143314.0069788,833.4322195341916,804.0978373232667,806.8728067823533,813.8256642612896
1731143314.0080273,813.0408348717164,804.2156659550603,803.1169722724851,804.3108448325935
1731143314.009627,789.1996372567053,804.2472593594158,802.1857811469279,794.965469747397
1731143314.0135214,782.4111491182538,804.2365939470317,804.613602050293,790.8124889115467
1731143314.0174153,798.9137094265694,804.2293309213403,808.0866143040479,793.0390552965924
1731143314.0213091,824.9886122754954,804.2431334368479,809.4203556831275,798.3728876557142
1731143314.022543,838.1416858484147,804.2725329000538,807.3174439097008,802.0050809918856
1731143314.0241036,825.7485326581092,804.3055164539439,803.4898811536679,801.4601352709011
1731143314.0252032,795.7658111944522,804.3347594352357,801.1983685146673,798.4325796977746
1731143314.026862,770.6753504341501,804.3595283937558,802.4882930138028,797.3774756410576
1731143314.0290973,769.3719058066087,804.3823819923277,806.4334730713225,801.9729134446212
