timestamps,eeg_1,eeg_2,eeg_3,eeg_4
1731141088.6264734,804.1698661111399,809.4127706948158,804.062132254175,802.0258231071188
1731141088.6420531,804.9571366603849,809.1187698917666,803.3497886617313,802.126263937466
1731141088.6484115,804.1140407636067,809.2217525287352,802.5768661893823,801.4380816665193
1731141088.6576326,799.8992602860528,810.0402642726438,801.6363279687895,799.2133419613856
1731141088.6732123,791.9996896265386,811.5275426097489,800.4365171900855,795.445637526574
1731141088.6833334,783.9842251553207,812.9169485937514,799.0906407052519,791.8734773159306
1731141088.6887918,783.6746352462012,812.7328876077934,798.0827034614136,791.9768870144298
1731141088.7043717,799.1156713631809,809.4426580751413,798.132083808577,799.0525472509075
1731141088.710704,831.7328639437883,802.4868130485307,799.6570524677572,813.2350751718036
1731141088.714592,872.1452062916934,793.0075567904172,802.1949872865328,829.956376154373
1731141088.7182553,903.7138181806514,783.7092292017242,804.4344905589442,841.94301762276
1731141088.71848,913.2191450439659,777.8336725520569,805.1890049756788,844.1842750481094
1731141088.719951,901.1708272456418,777.7602536590202,804.7761866317138,838.3474998520048
1731141088.7223675,882.6666684122397,783.9188906659692,805.5899521740172,832.654920954177
1731141088.7262554,876.3822567997886,794.5361223560159,810.939210015184,836.3200870862412
1731141088.7301433,889.5944009808546,806.3515611799302,822.5171242316646,852.1978994947917
1731141088.7340312,911.8136818394086,815.9756779133598,838.2383025240991,873.4645018255375
1731141088.7355306,923.2267051601616,821.2240069325873,852.3969868409725,887.594601135592
1731141088.7372034,911.4769269922479,821.7933891039419,858.6461902218787,885.250855475533
1731141088.737919,882.6680396307994,819.0338938340437,854.0467456948784,867.452641777368
1731141088.7418067,857.0673133409696,815.0362418482159,841.2220542651087,845.2656106343238
1731141088.7456946,852.9404616190419,811.5462973903695,826.8063911492504,831.9408967423564
1731141088.7495823,871.9333472807052,809.262989781517,817.2473769622555,833.5106267893506
1731141088.75111,897.9558734539623,807.8596923694658,815.170425104545,845.184909440323
1731141088.7531767,910.2197974937633,806.6281700624625,818.8953779296538,856.1535930703446
1731141088.7534704,899.6256885578321,805.2257017656059,824.8737921804349,858.5269414023161
1731141088.7560508,875.2878922996468,803.9673831015589,830.5089090394615,852.9998915953144
1731141088.757358,856.15915432458,803.5156721181551,835.0818286171605,846.9164177224824
1731141088.761246,854.8222374007735,804.306362205879,838.6916717608444,846.9145656186515
1731141088.765134,866.9943806831524,806.1780266616935,840.8630854554629,852.746506921449
1731141088.7666898,875.7308059557389,808.4045585387938,840.3164013968475,857.6316926355021
1731141088.7690215,866.9905184972777,810.0193774611903,835.9771949890536,854.7758207915823
1731141088.7729096,843.2454736986668,810.2435147207125,828.1933550966925,844.303577153862
1731141088.774898,822.9533436370835,808.8846425665598,819.1014082402313,834.330772001424
1731141088.7767973,825.4969476538447,806.5308448681028,811.7949770899249,834.7512316428674
1731141088.7806852,853.8014673477421,804.2999421095329,808.7487107315656,848.584205135981
1731141088.7822692,889.4470516491513,803.1222876373919,810.4285307309974,868.1590247533268
1731141088.7845733,905.2145180827142,803.0108737951568,814.9560993384392,879.7566756694162
1731141088.7880988,885.6727888813945,802.9974262781117,819.0894686796662,873.420469215757
1731141088.788461,839.4974706094036,801.9656198578397,819.990371725074,850.283078241253
1731141088.7923489,793.5454974890628,799.7759671205437,816.7901837994309,821.7330024410188
1731141088.7937455,773.2503253548082,797.6609947875289,811.0828564928654,801.3600030850863
1731141088.7962365,784.7660691147022,797.3814294147196,806.0257928956601,796.1350767362072
1731141088.7978487,812.5836875655942,799.7088702305963,804.4664052230647,803.2107852178866
1731141088.8001244,833.6139073116389,803.4890589758353,807.1687336769746,813.7650750801288
1731141088.8040123,835.6229743920657,806.1746305266045,812.3574562675082,820.0601180213598
1731141088.8079002,825.1208187822712,805.5430208724974,817.0171354604711,820.2928166868031
1731141088.8117878,819.1957631412071,801.3152201877822,819.0019690939312,818.2545143986379
1731141088.812593,829.1493169098774,795.4248946009183,818.2438000540889,818.8775705507294
1731141088.8134286,850.0461635956117,790.7277925372504,816.145867594861,823.554444556278
1731141088.8156755,864.7870632880158,789.120832124958,813.9791805456774,828.9735333245773
1731141088.8195636,859.0825723266638,790.4375611608502,811.976009365393,830.297889488195
1731141088.8230207,834.7466629887105,792.858637975973,809.9045571171548,825.8861044412505
1731141088.8234515,809.9666454506312,794.4471448973569,808.2398217251257,819.290047099414
1731141088.8273394,805.5804635168976,794.631048836824,808.4418158007778,816.4539369268349
1731141088.829008,827.8828689342421,794.5666221720319,811.885745463528,820.3341867771453
1731141088.8312273,861.9819643791174,796.1940279219739,818.4509659363871,827.8120828432859
1731141088.8314404,881.9630394999396,800.7280953510677,826.1289564129823,832.073653227138
1731141088.835115,870.6571865183138,807.6399284768614,832.0174662900096,828.7192588451894
1731141088.8390028,833.3782246950555,814.7707845008407,833.8479972820809,820.1284624488097
1731141088.8428907,794.0978364730022,819.4673065147548,830.9118697623207,813.7787397743375
1731141088.8445878,776.6472377767286,820.00997329694,823.9839079587277,815.616367525883
1731141088.8467786,786.1225821967888,816.448268668706,814.6962793572177,824.3168967252229
1731141088.8502877,805.731362654024,810.36341436927,804.9747191288651,831.7699818645917
1731141088.8506663,811.5116598400153,803.8183792678001,796.6959651153641,829.6681854865591
1731141088.8545542,792.6155693332341,798.2819953747728,791.355021486521,816.6581430351216
1731141088.8579426,760.5272951559482,794.2113125962217,789.6374259269842,799.9908111682479
1731141088.858442,739.8562356832377,791.3843296925428,791.105630690012,790.2673986167002
1731141088.8601673,748.2808330992405,789.5421348341813,794.3105367190028,793.5372982831316
1731141088.86233,781.8777249975362,788.8085378304861,797.4540759660944,806.9888835192905
1731141088.8662176,817.7726918208504,789.6339268427851,799.4046989172624,821.4345452392307
1731141088.8691351,832.1372115749527,792.3613059791857,800.5260419173015,828.3920020685099
1731141088.8701055,818.9527220696309,796.7340361542158,802.6174352873124,826.1040130780018
1731141088.8739934,794.0832190508809,801.6990632347566,807.6306504423109,819.9342303176965
1731141088.875747,781.330379103435,805.7056824227178,815.7975541825293,817.2358676245948
1731141088.8778813,792.3830472442863,807.4071695428405,824.6910710122219,821.1911393369703
1731141088.8817692,817.6347734541391,806.3777151999113,830.4335811888837,828.660433009235
1731141088.8856568,835.1512735908761,803.3581653818619,830.4970946237005,833.4216366514676
1731141088.8879826,829.4111434839078,799.7882221917288,825.7588401620296,831.5999108618511
1731141088.8895447,803.7526094204939,796.896420054606,819.7489658383874,824.5544298693933
1731141088.8913264,776.7632910776797,795.0293373694218,815.5776063013698,817.0666470660492
1731141088.8928645,766.6033238923972,793.7775794583728,813.4108960358604,812.7806681221676
1731141088.8934326,776.6018881679206,792.7818684295444,810.920702560807,810.9333467360418
1731141088.8973205,793.6292379035622,792.4451746501423,806.1477147315697,807.0942003911252
1731141088.9012084,800.0977268464474,793.8055098515015,799.8129844247911,797.3194604501701
1731141088.905096,789.4448248259188,797.5934785789916,794.785696506275,782.3748395911067
1731141088.9068298,772.0380931350969,803.3024791873685,793.326509556527,768.4082300538166
1731141088.906906,766.2087087593499,809.1464011302927,794.8212742523764,762.9670152615134
1731141088.908984,781.7234475492667,813.0121990773335,796.0830452910695,768.9975319725443
1731141088.9128718,809.9074091587671,813.6709412320785,793.8593036233601,781.6039994188702
1731141088.9167595,829.3902969549692,811.3580266910933,787.3461752433329,790.7141913805084
1731141088.9206474,823.1457015945365,807.4219968005987,778.7568601733215,788.1841866824643
1731141088.9224856,792.7498659500316,803.4590644075633,771.7892836610072,774.0359508810977
1731141088.9245353,758.1464786694775,800.6049030083235,769.4412801519637,756.9370886351439
1731141088.9256773,743.190144651077,799.3710331131567,772.7154692248035,748.4156851549774
1731141088.927786,758.2986103145286,799.9177929912935,780.5836796298586,754.9332220153588
1731141088.9284232,793.153004802595,802.3203170923173,790.5506147097367,773.3296639043127
1731141088.9323113,824.4736995438465,806.4432973490465,799.2701521862367,792.7382878209471
1731141088.9361987,832.9324955682484,811.4984995451349,803.4393512735575,801.734126629012
1731141088.9380653,816.7518267578945,815.8555042460999,801.3121810762642,795.904110613842
1731141088.9400866,791.8876697290411,817.6439314560778,794.1963999610367,780.515125846188
1731141088.9439745,778.6957776660788,815.9564533928731,786.4095292872171,766.2598454320815
1731141088.9445248,785.5844545860547,811.6713348482396,782.9091045529635,761.2098769243108
1731141088.9478624,802.7806388681164,806.98167099821,785.9794468191469,765.1550685806521
1731141088.9517505,811.2107781329216,803.7979257975558,793.7148666907796,770.7008150243406
1731141088.9536448,799.039374162092,802.3146953519495,801.7105159344812,770.0557877392027
1731141088.9556382,772.1208582972779,801.032931964983,806.3798253371165,761.8497672275694
1731141088.9595258,749.7943175716374,798.2894977014621,806.8407239157298,752.430003413186
1731141088.962708,749.5533073382046,793.9996816639876,804.0531947990092,750.7288163674773
1731141088.963372,773.0570139162696,790.1218075905051,798.9107691708723,761.0275336241516
1731141088.9634137,804.7099160702628,789.4448090005872,791.8659147028885,779.5031495035831
1731141088.9673016,823.9428683419934,793.6450908219126,784.4600316214197,797.216439693171
1731141088.9692245,821.3530258087917,802.0370900830108,780.4447225158491,806.9015755346693
1731141088.9711895,805.5561845067281,811.8328406745355,784.2168252077513,807.8775344643033
1731141088.9750774,794.9372788491818,819.6620092056588,797.2190300414283,805.166385090589
1731141088.978965,801.0844809948486,823.3331733321961,815.6439773486338,804.0184138835439
1731141088.9822197,818.1442059164864,822.7248239117022,832.1337743947034,805.0148471634884
1731141088.9828527,827.6728201860988,819.3121055596082,840.574245658449,804.1479709838383
1731141088.9848042,815.1966479658531,814.8365810784624,840.1104333833703,797.5378359545409
1731141088.9867408,784.2232554428925,810.2772634723683,835.1314847996707,786.19516219209
1731141088.9906287,755.3008731725533,805.9174508741605,831.4961819312197,776.3158540865087
1731141088.9945164,750.4167542774178,802.1639165726963,832.260222532905,774.6848791970082
1731141088.99763,775.4908322522795,800.0110617329003,836.0718546307795,783.0487990779425
1731141088.9984045,815.2825801346446,800.4913015374057,838.836467897895,796.1459744049903
1731141089.0003836,844.6569580867509,803.6172208358948,836.8366382384526,805.0462216403123
1731141089.0010667,846.8359504746483,807.9218485882196,829.0443648623786,803.2488990390951
1731141089.0022922,824.0061356956548,811.1485650319074,817.526256428834,790.9278002574952
1731141089.00618,792.6969394671835,811.5955840336132,806.1798925368806,774.2640363636604
1731141089.010068,769.6579713815704,809.1258878032121,798.7048717458548,760.7347390005552
1731141089.0139556,761.2052296839287,805.2221302767526,796.8159363281382,754.3424814070735
1731141089.0159633,763.3013795621123,802.1623114896232,799.534190974097,754.3095107845335
1731141089.0178435,768.5268386413102,801.8163446093951,803.9251100962105,757.2795097585354
1731141089.0199144,772.0336543679331,804.6472034355509,806.8913252941576,760.2855633330961
1731141089.0217314,772.9099246337316,809.4543068944266,806.9556349989798,762.1471201798008
1731141089.0256193,772.4408606639629,814.1323145563449,804.9018502236404,763.1128374408255
1731141089.0295072,772.0320744140515,817.0187771224383,802.8337819648865,763.8655994214465
1731141089.0315428,772.2558857364161,817.7858582549646,802.2861599292354,764.8402889220424
1731141089.0325518,772.9666735991921,817.2225906149223,802.7702498579478,766.0909562487783
1731141089.0333948,773.8005470009111,816.3486572567542,801.9433586142292,767.4734532804025
1731141089.0372827,774.5269856438035,815.7475321776963,797.4179795327435,768.8483512696088
1731141089.0387616,775.116809088548,815.4837138828765,788.868689109638,770.1653990063339
1731141089.0411706,775.645641095756,815.3690934910976,778.723013301418,771.444165683635
1731141089.0450585,776.1869497423024,815.2280245993113,770.8207827369961,772.7221153059103
1731141089.0471225,776.7674276284515,815.0011099208976,768.119467966764,774.0211137537981
1731141089.048946,777.3770435345596,814.7164077770864,771.2331168414767,775.3427816910162
1731141089.052834,777.9963113521488,814.4221612232435,778.6475520285917,776.6791482622451
1731141089.056722,778.6139204763298,814.1451899442186,787.9156740755467,778.0232241104769
1731141089.057609,779.2292071060576,813.8863653877635,796.6500172456415,779.3729330978479
1731141089.0606098,779.8465655539397,813.6348702099265,802.9800216239806,780.7297326106628
1731141089.062702,780.469887111046,813.3816276746129,805.9815995280553,782.0958128515949
1731141089.0644977,781.1004855083513,813.1239850296591,806.2806939365041,783.4724352423001
1731141089.0674736,781.7378172368309,812.8637119200285,806.1544665099642,784.859798609881
1731141089.0683854,782.380953042949,812.6033763071017,808.4211817909583,786.2576455741838
1731141089.0722733,783.0294526928092,812.3442875134969,814.5096647513418,787.6658079907861
1731141089.0761611,783.6834363562405,812.0863981100473,823.0949056261271,789.0843850302036
1731141089.0764563,784.3432657820126,811.8291090160379,830.4184845982084,790.5136517297052
1731141089.0782816,785.0092570276902,811.571959706565,832.1721332664333,791.9539088237989
1731141089.080049,785.6815869388163,811.3148377748931,825.8178390910392,793.4054017896588
1731141089.0839367,786.3603423687978,811.0578511137351,812.113927858774,794.8683212358774
1731141089.0878246,787.0456001931844,810.8011352284506,795.1187847672885,796.3428382620136
1731141089.0917125,787.7374684114769,810.5447532368535,780.5875907875059,797.8291306820538
1731141089.093861,788.436080222804,810.2886978603402,773.3607140352302,799.3273842743149
1731141089.0953038,789.1415678124182,810.032934993281,774.9621775519288,800.8377784126109
1731141089.0956004,789.8540473256779,809.7774367915848,782.7502299343596,802.3604769220077
1731141089.0994885,790.5736332930005,809.5221898367183,791.2539899704095,803.895641782464
1731141089.1023955,791.3004769073449,809.2671905953573,795.1068247800882,805.4434688855491
1731141089.103376,792.0347928398959,809.0124434934754,792.0405587083733,807.0042150309724
1731141089.1072638,792.776821329775,808.7579639006311,784.3056182346351,808.5781633884566
1731141089.1094408,793.5267002397886,808.5037740203052,777.6208438269983,810.1654977395999
1731141089.1111517,794.2843174577806,808.2498785530748,777.9774576237335,811.7661493189576
1731141089.1141512,795.0493327029569,807.9962269783116,787.8818005166587,813.379803221741
1731141089.1150396,795.8215604033333,807.7427023448569,804.2941536870222,815.0062662040732
1731141089.1189277,796.6016345217422,807.4891910363273,819.8691813132867,816.6461396896475
1731141089.1228151,797.3913620828232,807.2357407336992,827.0564485789296,818.3012237924961
1731141089.1250205,798.1928383508667,806.982693650204,822.4730080221563,819.9737078358202
1731141089.126703,799.005967225786,806.7305678071344,808.6080653006238,821.6637141526754
1731141089.130591,799.825875817316,806.4795242498745,791.9016166824221,823.366581106896
1731141089.1329987,800.6438409664844,806.2286454245739,778.8797217607287,825.0734887809166
1731141089.1344788,801.4550391776407,805.9758234671866,773.0442350570876,826.7789515746653
1731141089.1373172,802.270905017081,805.7192302007269,774.0649668089154,828.4933945070488
1731141089.1383667,803.1242454934267,805.4603306583844,779.0108479861394,830.2492741238577
1731141089.1406,804.050065564569,805.2061083908436,784.4293543137081,832.0832812474439
1731141089.1422544,805.037757125407,804.9662265040095,788.0942665848921,833.9887649142026
1731141089.1461422,805.9861628161857,804.742547238844,789.6229767202796,835.8680237021428
1731141089.15003,806.730640299561,804.5161510979154,789.8819229778755,837.5536053615543
1731141089.151846,807.1982606986305,804.2475390132115,789.9171793681717,838.9590803589201
1731141089.153918,807.6353999768455,803.9076119562596,790.2780769702329,840.3115149259525
1731141089.1561797,808.67258568248,803.5364525735073,790.9830928310618,842.2350078091935
1731141089.1578057,810.9154578831742,803.2851289957517,791.8194052928958,845.3629982885038
1731141089.1616936,814.0247983946485,803.3688892653058,792.6104921890071,849.4077196754162
1731141089.1655817,815.9358715105658,803.9181137569236,793.3066238926547,852.2883112731599
1731141089.1694694,813.5079732486813,804.8658047643968,793.9439359095135,850.5671827119252
1731141089.1706934,805.4687408955776,806.0569226412201,794.5729917671936,842.0014027679002
1731141089.1717591,796.1451612036318,807.4969651846886,795.2190000009291,828.823330263599
1731141089.1722393,795.4512314101313,809.355024106019,795.8805373187744,818.239051682295
1731141089.1733572,811.767734029799,811.5329707692957,796.5456343480643,818.0927084979679
1731141089.177245,842.1759940876276,813.2010671842352,797.2052778781564,830.5601339403216
1731141089.1811328,870.8139965802835,812.9444457620939,797.8573675350852,849.678155665411
1731141089.1850207,880.2599554340097,809.6757092251104,798.504097806401,865.5500756344127
1731141089.1873388,867.0442242114855,803.6840103999953,799.1481500190746,871.968282110584
1731141089.1889086,846.3750859709755,796.8868459625875,799.7907520007475,870.947162930334
1731141089.1895409,840.2472507024521,791.8883248959901,800.4317525859476,870.2310048279915
1731141089.1927965,858.5097917121382,790.4321182230071,801.0705154867303,875.8987770122537
1731141089.196684,889.5188740351955,792.4124058444156,801.7066073532259,886.4668337590967
1731141089.200572,909.0725083703362,796.1794831341039,802.339968668892,893.7082154075048
1731141089.2029183,900.4771668189209,799.7559686370583,802.9707566018308,889.7160696744207
1731141089.20446,868.8852058009148,801.841064948556,803.5991440989987,874.3166011396002
1731141089.2071607,837.8169927657677,801.9084866547583,804.2252215052255,856.3823711501425
1731141089.2083478,830.6002336738453,799.8207565913223,804.8489980234918,847.4780585158524
1731141089.2083883,851.7086901013662,795.8672030572759,805.4704442387663,852.6743377970463
1731141089.2122357,882.9678147154729,791.3627679015784,806.089537183023,866.0638705780071
1731141089.216123,897.79908350392,788.8379290203534,806.7063019440277,875.0723518802722
1731141089.218498,882.4073581133439,790.8727489748256,807.3208433032876,870.5003959352603
1731141089.2200112,847.0475577757372,798.0289902969847,807.9333311523799,854.1490375943727
1731141089.2238991,818.0409798797482,807.6715109764182,808.5438928546877,837.5180519798768
1731141089.2272356,816.6662476079524,815.1145814804406,809.1524302668473,832.524925030599
1731141089.227787,842.0697623571946,816.56042390277,809.7585179919046,842.0958013298332
1731141089.231675,872.3267451906465,811.5980394198198,810.3616374444678,858.5248869914116
1731141089.2340777,882.7382102598522,803.3250078265042,810.9618551006907,870.5825194281334
1731141089.2355626,866.0739226018475,796.1634259659781,811.5605511721454,872.8362427649845
1731141089.2394505,838.1064196396754,793.2209318655874,812.1602073310097,869.2252474896126
1731141089.2420828,824.3165107459694,795.052585009805,812.7623133736452,868.3965215206703
1731141089.2433383,839.0696633953531,800.2011920682993,813.3639397640226,875.3838461564285
1731141089.246083,874.1241291582024,806.5015518981578,813.9561883677508,886.8441879513329
1731141089.2472262,905.2701826837924,811.9963217141894,814.5292652893805,893.6248689605379
1731141089.2496572,911.3929686991105,815.2007833995127,815.0855870946124,888.2853934303341
1731141089.251114,890.710364003462,815.2300866326812,815.6525278859757,871.3301199891093
1731141089.2550018,861.405741857138,812.1776361451803,816.2758103917519,851.1122036421353
1731141089.2588897,846.3652896348752,807.4268544792669,816.977502435513,837.5301646075343
1731141089.2627776,854.5700471319584,803.2576327849428,817.6928205479655,834.6728984641096
1731141089.2649305,874.4464172925352,801.6513267173892,818.2497842147335,838.4003280735338
1731141089.2652366,884.5160537468807,803.051330467092,818.4790273580137,840.6972076608996
1731141089.2666657,872.1569479128435,806.065870136761,818.4695224919229,836.9368194684868
1731141089.270553,844.5402798827513,808.424370902001,818.8004284524757,829.8039348696532
1731141089.274441,822.5864975500613,808.5259098973618,820.4061858340169,826.5949772577457
1731141089.2770047,823.1972593626609,806.4696739982139,823.8639293208042,832.3370346073291
1731141089.278329,844.7848154550003,803.8521368427135,828.5014095826817,844.717419180786
1731141089.2808163,868.1855376068104,802.5275989123301,832.3008624240547,855.2441542904317
1731141089.2822168,872.1855601963496,803.2906515692084,833.1569050633736,855.807927776438
1731141089.2837777,850.8673682272592,805.4730985147309,830.6673434466655,845.2677734010219
1731141089.2861044,818.4776284993212,807.6805660408775,826.774421655233,830.4927823083225
1731141089.2899923,797.6681625365511,808.9368155082759,824.3865625469637,820.6943328583167
1731141089.2938802,800.735069194681,809.2342213894245,824.9581655747007,819.5654196893288
1731141089.2963958,819.6142435427424,809.1690052474017,827.1311183166252,822.0495542159412
1731141089.297768,833.2751692028243,809.2305933551147,827.7774834089861,819.0157295127176
1731141089.301656,826.2733360872912,809.4710057572419,824.678736446289,806.1325803854243
1731141089.3026252,802.3992682397859,809.6740716033245,818.5208776478352,788.9566181100666
1731141089.3055437,781.4984974784257,809.6217756286316,812.3794985585428,779.118773309941
1731141089.3094316,782.124017924899,809.1804491932163,809.0669966413985,784.4048411195573
1731141089.3119264,804.8769729389866,808.3293890532158,808.6718921820143,801.25351414317
1731141089.3119757,830.655599480341,807.287736615303,808.5302828323836,816.3405772021688
1731141089.3133194,835.4948249951747,806.575948738627,805.7142368716568,816.1737755801656
1731141089.317207,809.9828049585224,806.7410066628895,799.8020089755349,796.9740532078852
1731141089.3210952,767.531805394258,807.8345450266322,793.3910833165082,767.1953109621186
1731141089.3214726,734.7817825058161,809.1274551206999,789.8893512418574,741.2723677825547
1731141089.324983,731.680428104016,809.4313121828471,790.6155299064454,729.9086396598375
1731141089.3275552,756.8530259211791,807.8458319541344,793.7595631057147,734.0554285573218
1731141089.3288708,789.4746057097361,804.358520330309,795.9050655149658,746.1019447215139
1731141089.332759,805.7674366498095,799.8712142214312,794.5482423589106,756.4036420420322
1731141089.3366466,796.9643034401777,795.6914841535275,789.5204928176319,760.1183892657918
1731141089.34032,774.8420965168195,792.8591178545955,782.6260177858062,759.7767628251343
1731141089.3405342,761.0181890534335,791.7245737045913,776.4248206103142,762.1390899779038
1731141089.3431346,768.9651138751389,792.0374250235927,773.3070631997929,771.7843116809325
1731141089.344422,793.1354629727548,793.4692793717741,774.9869481964222,786.3103523005524
1731141089.3468482,813.6889556077683,796.0904264227756,781.8510449108135,797.1625220298221
1731141089.34831,812.8888528547666,800.241112810715,792.1824044189008,795.975619706922
1731141089.352198,789.925729689995,805.7933469734343,802.2582148708564,781.6651083011777
1731141089.3560858,761.9917014638672,811.5598431645964,808.0683463187576,762.2623971245634
1731141089.3587143,750.3622248702289,815.6575549428982,807.797986787379,749.370823827443
1731141089.359167,762.6753735561306,816.7170182774121,803.0522132446184,749.3714507004727
1731141089.3599734,786.2577436588758,814.8774203923086,797.6473643563398,758.6779369718469
1731141089.363861,798.548205376834,811.6312834024335,794.9532981095009,767.1977307103592
1731141089.3677492,786.2649263460319,808.6980615990667,795.99177282819,767.125464855827
1731141089.371637,757.2010470951877,806.9885202110983,799.580988214548,759.4921860504545
1731141089.3742938,734.443040585822,806.4560397623088,803.8674943360628,752.8343281594754
1731141089.375525,737.5498086368782,806.6433730158066,807.5944923514551,755.2497826724359
1731141089.3780148,766.1746254158228,807.1781096785805,810.1623438836954,766.8407833740366
1731141089.379413,799.5939619690315,807.8316391274253,810.950653327044,779.156236712674
1731141089.38177,812.6653125594023,808.4068558654309,809.0411567875294,782.2369685196952
1731141089.3833003,795.5847243708115,808.8270367889935,803.8990333349835,773.3812921179614
1731141089.3871884,761.7333673528037,809.3318688982341,796.4340070221565,760.1202507331452
1731141089.3898735,737.1821084440855,810.3514820766571,789.2837202753951,754.5072938351689
1731141089.3910763,740.0015972028183,811.943064685122,785.6917940959909,763.0869002483782
1731141089.394964,765.9804395514374,813.3138139386915,787.5692214789921,780.8576945652553
1731141089.3968625,792.4911885152331,813.105102607574,794.1842262903406,794.6175489367743
1731141089.398852,797.4589933817169,810.4408761388079,802.587797333056,793.3835379969927
1731141089.4027398,777.7577640372073,805.8781148160259,809.5023025092057,777.520524099876
1731141089.405453,751.708121665317,801.3107335791063,813.1689017224983,759.0381700888454
1731141089.4066277,743.6174351264244,798.7822887698322,813.7761466112069,752.6266554280809
1731141089.4105155,763.2692899539645,799.1852941769145,812.4852889615607,764.4310277302422
1731141089.4144032,797.3315457762737,801.9079205048107,810.2739868277029,787.2410597356062
1731141089.4157095,819.7312520682945,805.5500022199468,807.6194808459065,805.6553679323175
1731141089.416692,812.7183735697663,808.8712957039561,804.8684844164892,807.2712849483597
1731141089.418291,781.9071519973083,811.1370299257142,802.4683878280548,791.7456904103655
1731141089.421033,753.1574825860159,811.8693957785173,800.721268484513,771.2533551328734
1731141089.422179,753.0028375780835,810.6678947656426,799.5286218831218,761.88073249654
1731141089.4260669,787.3014744511786,807.5129129208544,798.6176774642531,771.8660177588727
1731141089.4299548,835.0619962025104,803.2110573508719,798.0292257314156,795.1678670992591
1731141089.4338424,863.2801090880506,799.3184650142068,798.2298551365255,815.4258958186705
1731141089.434557,851.8814764148799,797.3408799215889,799.6764784665835,817.7703058276365
1731141089.436612,809.0934384008096,797.7236129595055,802.3731110149588,799.7058947799653
1731141089.4377303,764.8549017357889,799.4136920670451,805.9413397223133,772.7293457295465
1731141089.4416182,747.6941631773924,800.4118997083532,810.0118610874166,753.551439292828
1731141089.445506,763.8083780901223,799.0325572712925,814.3318999707348,751.9982001041783
1731141089.449394,794.5785031608569,795.0287213797342,818.437468056242,764.9675866889705
1731141089.451614,813.0401486345754,789.7504802626228,821.4259582527989,780.3974273095095
1731141089.4521918,804.8128343389051,785.1881837461078,822.3434243786949,787.0193017691215
1731141089.4532816,777.0624742178439,782.6369949047457,820.9687508732944,781.8231387576474
1731141089.4534044,750.3497910462071,782.0293985235835,818.2189124305515,770.2638190837425
1731141089.4571695,741.8996034385987,782.3930886612786,815.6799336127019,760.6265983015442
1731141089.4610574,753.9239581369278,782.9262779426381,814.6006849810273,757.9376574188293
1731141089.4649453,774.7433367898606,783.722325997153,815.199964831552,761.854844389934
1731141089.4677713,789.7962504552607,785.5793883120713,816.8113943768742,768.9710553543041
1731141089.468833,792.8021905275161,789.1323465233316,818.591460187059,776.5783374919342
1731141089.4722517,788.7649570709326,794.0254379947805,820.0818579472823,784.5430345126958
1731141089.4727209,787.878883472411,798.7461668665321,821.22558287359,794.2190651619597
1731141089.4766088,796.3426329818232,801.3025594688337,822.034314555367,806.0066160349961
1731141089.4804966,811.4822089322593,800.429843324494,822.3342494936677,818.0265644917248
1731141089.483351,824.286358437351,796.6178793228669,821.780856769278,827.0219246851734
1731141089.4843843,826.5811378232879,792.1897514151751,820.0450877819134,830.5313794366907
1731141089.4865355,817.1355873080857,790.1730799371803,817.0271327564556,828.4600842038617
1731141089.4882722,802.4894728000642,792.5850417719956,813.023141437936,822.9220506472277
1731141089.491099,792.3481113511044,799.2764466450793,808.7439107822063,816.682485900167
1731141089.49216,792.9755120671651,808.0946766843099,805.038797451641,811.445912839165
1731141089.496048,803.1306275062566,816.1357167778489,802.3487310437835,807.1548035860588
1731141089.4989307,815.3187977505621,821.1699478066482,800.2637418473572,802.692129788031
1731141089.499936,821.4570504696608,822.4667984708889,797.6881939164135,797.4428424789825
1731141089.5038238,818.7470189102601,820.8388984406967,793.7087952265318,792.5268272327988
1731141089.5077114,811.2353945469579,818.1056321443259,788.5800166826914,790.5829129264117
1731141089.5099466,805.9409116929107,816.2111774323821,783.9607703764791,793.9368325297274
1731141089.5115993,806.9432920643948,816.2851241295156,782.0263602928356,802.3594166929381
1731141089.5145102,812.4490000614014,818.1073652641365,783.9791776209021,812.3094757886657
1731141089.5154872,817.04827205056,820.3587714871118,789.0294651974609,818.6793037910466
1731141089.519375,816.7839243278996,821.5139711570918,794.6513259381755,818.0540715971339
1731141089.5214574,812.4644443933826,820.7237077543585,798.0370302374622,811.0616937759211
1731141089.5232627,808.6009157357793,818.124232182121,797.821880934634,801.949773306367
1731141089.5271506,809.3168179717172,814.5951831195971,794.9234029644101,795.6977345595773
1731141089.528794,814.9403388628231,811.3742725181808,791.8826894615046,794.8469338150302
1731141089.53009,821.9683942688938,809.7519018837916,791.0785129558262,798.2433034701177
1731141089.5310383,826.0208758006935,810.7098253798398,793.001303960238,802.2427485733723
1731141089.5349264,825.0967405644319,814.408114249304,795.8474978589801,803.1892958491854
1731141089.5388143,820.6183009173495,819.8124348543787,796.8367326140801,799.4479541868619
1731141089.542702,815.8338433286613,824.9055877854719,794.3627539798197,791.9721430466549
1731141089.5456693,813.1850531841822,827.5429883759219,789.3572695166476,783.4306237998846
1731141089.54659,812.7285909016799,826.4735735145841,784.7614743826413,776.6094143191482
1731141089.5476413,812.6041981431371,821.9094670432612,783.4429993085773,773.0255049385806
1731141089.5504775,810.9123196228579,815.3631442280946,786.1372259023519,772.4921059364597
1731141089.5543656,807.3568387556336,808.9157208322026,791.0184243513335,773.7466239204285
1731141089.5563793,803.3193986391428,804.3305985177385,795.2356384871581,775.5044870463616
1731141089.5582535,800.5044145388381,802.4451361110547,797.1430204257896,777.1080787780809
1731141089.561249,799.5949032833493,803.1060827190352,797.3488001373194,778.494941009267
1731141089.5621412,800.0776081233398,805.5981862256972,797.7111509325587,779.833334200657
1731141089.5660293,801.0057920079277,809.1991767499314,799.2446981632418,781.24525038448
1731141089.5664887,801.7375893707917,813.4410703723527,800.9379532480807,782.7397763290536
1731141089.569917,802.1306495090969,817.9682620183593,800.6842757792764,784.2664305706234
1731141089.5738049,802.3357183614085,822.2878639842778,797.520960044519,785.7790263849661
1731141089.5768285,802.5319415961122,825.7835424337122,793.018644403161,787.2616474922453
1731141089.5776925,802.7976756647543,828.0092603726612,790.3641701825504,788.721293172106
1731141089.5815804,803.1186935707577,828.8921038076821,791.8717015265779,790.1705276215577
1731141089.5853362,803.4498081654261,828.5402684445125,797.1828074801647,791.6165879604655
1731141089.5854683,803.7607853018552,826.8557092564744,803.7074552998077,793.0600459063187
1731141089.5893562,804.0467623777871,823.5075105804032,808.6913078616988,794.4984027820259
1731141089.5913012,804.3168830265898,818.5192352803859,810.9600773037163,795.9295554565333
1731141089.5924082,804.5806642584681,812.9769889314617,811.0882038959396,797.3530399711113
1731141089.593244,804.8419053115418,808.9875407960665,810.3749595146318,798.7695426889853
1731141089.5971315,805.0996434152815,808.5471443813952,809.8004128020602,800.1799727498665
1731141089.6010196,805.3515410594833,812.0268306943136,809.6654842817178,801.5849262792051
1731141089.6041834,805.5962018053874,817.5367431249686,809.8145499742246,802.98465365168
1731141089.6049075,805.8335785051254,821.8874563399085,810.0005942777276,804.3792612628184
1731141089.6079876,806.0643064771167,822.6119860142577,810.094132481648,805.7688840484448
1731141089.6087954,806.2889912123707,819.5936426019975,810.0979046926915,807.1537350856263
1731141089.6126833,806.5079215592065,815.0549805089753,810.0700305858182,808.5340756912772
1731141089.6165707,806.7211449583846,811.8872342382754,810.0561998633243,809.9101839085047
1731141089.6204588,806.9286512448334,811.577629535946,810.0682350319235,811.2823577686397
1731141089.623031,807.1304882263794,813.2719647840368,810.0960194366136,812.6509285755913
1731141089.623567,807.3267756787144,814.5659547492032,810.1263260143844,814.0162279304271
1731141089.6243467,807.517666889882,813.2792400851778,810.1528513994781,815.3784828809777
1731141089.626223,807.703311645456,808.8393128738693,810.1762015562747,816.7377079159842
1731141089.6282346,807.8838429177431,802.3899813041741,810.199567728555,818.0937610854968
1731141089.6321225,808.0593820171248,795.8057097377387,810.2252519119298,819.4467068705103
1731141089.6360102,808.230048416587,790.5389766386139,810.2537284967419,820.7973640714466
1731141089.6391468,808.3959654025642,787.123979906011,810.2843823322104,822.1474838335122
1731141089.639898,808.5572603572895,785.4298365627362,810.3165061802185,823.4988056226707
1731141089.6418784,808.7140625134691,785.140223088059,810.3497864075748,824.8508743317918
1731141089.643786,808.8665009817075,785.9632785772467,810.3842652226941,826.1991488460793
1731141089.6476738,809.0147040839748,787.5481239696645,810.4201015028377,827.5365388009595
1731141089.6515615,809.1587996212544,789.4049720168825,810.45739448256,828.8606832312677
1731141089.6547265,809.2989153319132,791.0256099701044,810.4961446155601,830.1840065782768
1731141089.6554494,809.4351791021826,792.112977027505,810.5362978410824,831.5356171241141
1731141089.6593373,809.5677188952525,792.6907456947173,810.5777980317611,832.9414651252702
1731141089.6607256,809.696662560573,792.9930135813698,810.6206101823782,834.3827609624814
1731141089.6611447,809.8221376678664,793.2569969673035,810.6647165336364,835.7642486202682
1731141089.6632252,809.9442714127431,793.5972991922922,810.7101034860473,836.9514885144179
1731141089.6671133,810.0631905695784,794.0120982792763,810.7567527249205,837.914372205373
1731141089.670306,810.1790214519041,794.4532273723333,810.804639677806,838.9087849976723
1731141089.6710007,810.2918898588075,794.8835235850069,810.8537360549236,840.4817771342261
1731141089.6748886,810.401921007149,795.2940394902239,810.90401254573,843.0550297937936
1731141089.6787765,810.5092394587612,795.6936281409811,810.9554399493078,846.1217259322116
1731141089.6795733,810.6139690501565,796.0932846665081,811.0079890476662,847.6776699740068
1731141089.6826644,810.716232826851,796.4980581349027,811.0616301275583,844.9203085155611
1731141089.6858857,810.8161529806284,796.9072840679303,811.1163325727313,836.5612703025948
1731141089.686552,810.9138507872821,797.3182523255216,811.1720643449665,825.0512755262841
1731141089.69044,811.0094465435322,797.7290611849514,811.2287911844096,815.8188367151182
1731141089.6943278,811.103059503585,798.1393388304859,811.2864760740889,813.104958755071
1731141089.6960666,811.194807817215,798.5495976466021,811.3450802421575,816.1648955784531
1731141089.6982155,811.2848084714586,798.9604044034359,811.4045665165263,819.9185289326964
1731141089.6984203,811.3731772360397,799.3719896640089,811.4649034117473,819.6535155446992
1731141089.7014654,811.4600286085624,799.784289670778,811.526065001389,815.301724206954
1731141089.7021036,811.5454757520747,800.1971476333584,811.5880211455741,811.3213901256654
1731141089.7059913,811.6296304203557,800.6104580325464,811.6507194719243,812.4151634460716
1731141089.7098792,811.7126028793197,801.024197525953,811.7140743825527,819.1243833253876
1731141089.7137673,811.7945018510067,801.4383895359498,811.7779884278433,827.3615239777944
1731141089.7170448,811.8754345102323,801.853062782336,811.8424179576675,832.2362400629945
1731141089.717268,811.9555065287008,802.2682296975565,811.9074463916976,832.5527653808998
1731141089.7176547,812.0348220869689,802.6838797130932,811.9732687427819,831.8061937415372
1731141089.7215428,812.1134837172879,803.0999776911466,812.039992205622,834.8074968295222
1731141089.7254305,812.1915919060549,803.5164720205748,812.107298741033,843.0288799148382
1731141089.7293184,812.269244641105,803.9333265917437,812.1742771339482,852.774466747367
1731141089.7309885,812.3465374165831,804.3505744131533,812.2398935225933,857.7057676074021
1731141089.7326243,812.4235642247769,804.7683480951783,812.3042633931345,853.6385075319553
1731141089.7332065,812.5004193334806,805.1868103865385,812.3699391509188,841.8971181901878
1731141089.7361152,812.5771982400648,805.6059497803601,812.4413621737463,828.7795381067882
1731141089.7370942,812.6539952578455,806.0253573837779,812.5208408221768,821.5178090507576
1731141089.740982,812.7308967125086,806.4442844444013,812.6022919855188,823.5003251532228
1731141089.7448697,812.8079737537693,806.8622699436962,812.6688749298576,832.0225909879824
1731141089.748204,812.8852846616564,807.2801827667037,812.7031129816047,840.1291705013155
1731141089.7487576,812.9628958317911,807.7007135434756,812.711331864118,841.2368577458133
1731141089.7526455,813.0409156558213,808.1268708554809,812.7458097754744,833.259914168849
1731141089.7549627,813.1195090970944,808.5580198765199,812.8891870019638,819.4960625172462
1731141089.7565334,813.1988461125702,808.9859602973479,813.1730659396565,806.1143094304152
1731141089.760421,813.2789710945119,809.3967921888808,813.4597759854886,798.459725819882
1731141089.7637837,813.3596783058581,809.7835201255231,813.403988234753,798.6816114169894
1731141089.7643087,813.4405822931769,810.1652709101394,812.636431997858,805.6116682000702
1731141089.7659104,813.5215395194688,810.5938173381243,811.1373694382614,816.1035972861495
1731141089.7681968,813.6032741567504,811.120642288459,809.4271208866453,826.5403551850266
1731141089.7720847,813.6875691167799,811.7187138721929,808.1680954895938,833.8255532849846
1731141089.77381,813.7761678659855,812.2084151038492,807.4273321335228,835.9481740166251
1731141089.7759726,813.8682732546398,812.2879122710165,806.4737580743902,832.4365851497844
1731141089.7793632,813.9584182445082,811.7226651870205,804.507149323872,824.6943695083985
1731141089.7798605,814.0382974266709,810.5689246770486,801.574379177242,815.8146989083489
1731141089.783748,814.1051518123238,809.1961230132304,798.6351320802407,809.5239953526442
1731141089.787636,814.1732137199315,808.0763845881054,796.6891809242555,808.5228826427345
1731141089.791524,814.2756417692434,807.5844485946352,795.9025140431438,813.1489329636279
1731141089.7926574,814.4415426889051,807.9459773382752,795.6206768233309,821.2497802131072
1731141089.7949429,814.6485112995074,809.1646554984465,795.1843885269894,829.3420132757255
1731141089.7954118,814.7874397960898,810.8102913852388,794.670786903303,834.2902869489631
1731141089.7992997,814.7077508187463,811.9301216359966,794.844257691035,834.5844238721946
1731141089.8008325,814.3862063689172,811.4427312726214,796.4290171907838,830.7265463834705
1731141089.8031874,814.1446598750371,808.911512537894,799.4342404330337,824.7175170811076
1731141089.8070753,814.6861614631339,805.0697768898285,803.128473343599,818.9293584442725
1731141089.8105223,816.7206645761107,801.5531996793627,806.5985302404455,814.9020371372268
1731141089.8109632,820.3101857309367,799.9701949305629,809.3095903604368,812.7568763145454
1731141089.8115048,824.5651987864909,801.0033585031636,811.1628953260309,811.6455097370645
1731141089.8148508,828.2516145984391,804.1436577376038,812.0836447892468,810.9004584143696
1731141089.8187387,830.9346683566642,808.1039741885812,811.6286213275145,810.8899157225
1731141089.8226266,833.456053753777,811.5128703080551,809.0812222779098,812.7173459361771
1731141089.826102,836.9969220521081,813.4525520184336,804.0592854492269,816.8888300676958
1731141089.8265145,841.447243773112,813.6452495469753,797.1868168043304,822.0925978909588
1731141089.8303523,844.736544353961,812.3445009229961,790.2485747959537,825.3496101104695
1731141089.8304024,844.1086019931643,810.1049654611056,785.569333920639,823.7805911132461
1731141089.83429,838.541721345037,807.5814468830652,784.9205321623834,816.8261708786579
1731141089.8357542,830.2219419112505,805.4129355462102,788.6217443665538,807.113975883374
1731141089.838178,823.4638974143701,804.1590733174025,795.3556126924282,798.9991087190796
1731141089.8416817,821.5583789688492,804.2249725164144,802.6983449629374,795.6705724253192
1731141089.8420658,824.0235844733152,805.7473425797144,807.9898302616147,797.1059145763977
1731141089.8459537,826.7783540217715,808.487149789677,809.2153291977885,800.6492215001076
1731141089.8491995,825.480512692399,811.8120605462668,805.7714992093753,803.7396497514347
1731141089.8498416,819.4191670267261,814.8155301933036,798.9294958404466,806.2918770953796
1731141089.8537292,812.4772432888324,816.5539749948946,791.5767175905505,810.4528858246641
1731141089.8572612,809.9034265461806,816.3479628070435,786.9574057017076,817.868220786422
1731141089.8576171,813.3421686979739,814.0610628168275,786.875078269025,826.9491327008893
1731141089.861505,818.5516708565909,810.2120029221154,790.5744503240941,832.7765504278696
1731141089.8653927,818.4394111503507,805.7960085247767,795.340144127586,830.1583188525179
1731141089.868047,809.5540357277599,801.8849934515432,798.5450215135726,817.7795275866312
1731141089.8692806,796.5990555804223,799.2752435228326,799.5271958542129,800.2659236098631
1731141089.8706758,790.2228419737207,798.3750418124667,799.6815772622655,786.1018990608453
1731141089.872841,798.5389632074457,799.2325733198182,800.7132611719471,782.1743835195673
1731141089.8731685,818.8466397858306,801.4974271677864,802.7055522910656,788.5791543125952
1731141089.8770564,837.4095970124914,804.3538984631923,803.8434058286356,797.9547266492668
1731141089.8809445,839.31438208419,806.6977851458563,802.0719696934262,800.7038611103214
1731141089.884832,821.2438800869471,807.6535176220965,797.1227424225774,792.6002791394512
1731141089.8868945,795.8638953831971,807.1035262867265,790.9762908466831,778.5956455382235
1731141089.8884203,782.5968275234575,805.7594296314844,786.32090327512,769.2238359713799
1731141089.8887198,791.5264277937705,804.6612871303961,784.4809628166195,772.2144407714109
1731141089.8926077,814.1684693613154,804.4856196464663,784.7520277082081,786.266439284828
1731141089.8964956,829.7271118568048,805.1792470547342,785.6335779108384,802.2130285638934
1731141089.9003837,822.1964442527243,806.1159442911309,786.5579891059081,810.4325278511681
1731141089.904,794.0396563621931,806.5448958255831,788.2982305949206,808.1038615497367
1731141089.9042714,764.8562461018399,805.969502050272,791.6889526129352,800.4017933821675
1731141089.9055977,756.0096515247886,804.3165669417383,796.0798608256024,795.2021348564281
1731141089.905742,773.7178659142338,802.0004891320181,799.2389744944085,796.2446868531008
1731141089.908159,804.2026529130515,799.9457343672481,798.993206174664,800.526576146067
1731141089.912047,824.7278247541617,799.4103483134244,795.1801070394789,801.7656771349235
1731141089.9159348,821.6527963371904,801.446376274415,790.1067642813172,796.62668279234
1731141089.9195795,800.901349479465,806.1851943677193,786.9842912481906,788.1796516950402
1731141089.9198227,782.2598462638331,812.4920045081387,787.5698946212694,783.4752075314376
1731141089.9237103,782.2680837534615,818.4142262107821,790.9547103579075,787.2335117812366
1731141089.9245892,800.167607525814,822.2272584442659,794.4764958211417,797.1836107407069
1731141089.9275982,818.8503806912731,823.3113001265808,795.9389524370723,805.368951756181
1731141089.931486,819.9054203215766,822.1909317945051,795.2461920800807,804.618767265514
1731141089.9351592,799.8373304116991,819.8262698056863,794.1685228176732,794.8035925587031
1731141089.935374,773.7105051982161,816.9226224092591,794.6824270132017,783.5226901623992
1731141089.939262,763.2478647687213,813.8961170163088,797.5169319476937,780.496613457479
1731141089.9405196,779.2681095699598,811.3210101789552,802.0567186296167,790.1134408725833
1731141089.9431496,812.6117360516416,810.0907426313862,807.2312051379154,807.9689646032075
1731141089.9434366,840.552737316891,810.8326230273054,812.1766096520356,823.968476117811
1731141089.9470377,843.5489642836693,813.0242645191669,816.1094259732845,829.5250896210604
1731141089.950739,819.5565374128261,814.7980337270468,818.0086488761776,823.4712931749608
1731141089.9509254,785.2787447626009,813.9540984110894,816.9051183902891,812.405834775931
1731141089.9548132,763.6412437196187,809.5908987532076,812.6855807130162,805.3536876197023
1731141089.9587011,767.1234489510676,803.0494563864049,806.5479633647842,806.852895920913
1731141089.962284,789.5583935461208,797.2947327358296,800.5237134774422,813.761888267317
1731141089.9625888,812.1664524745013,795.0960085193949,796.3990102606743,818.1221622109645
1731141089.9663184,818.3157736148781,797.3094648197343,794.8733212665925,813.5502359690197
1731141089.966477,805.1033801915212,802.419572873277,795.4982972753924,799.9476170440136
1731141089.9703646,783.4038673979569,807.5160340551814,797.2945685011675,783.0865963165123
1731141089.9742525,767.875561290658,809.9643219620563,799.4933199437136,770.0691251590388
1731141089.9754417,765.8757354465262,808.7716496912376,801.8047179663786,764.6887794522462
1731141089.9781404,773.6754989896489,804.9796797047024,804.0090041075389,766.0094260596863
1731141089.9811313,781.5206076919563,800.9505195412155,805.3386740958143,770.3322751805806
1731141089.9818978,782.2959643991261,798.9297350555238,804.5035812238774,774.236184190634
1731141089.982028,776.7499138641626,799.6886780908976,800.7009159538071,776.314231186711
1731141089.985916,771.7058578849903,802.1440696020051,794.802587618871,776.9603316130119
1731141089.9898038,773.2553884767889,804.3134075903404,789.3556347025856,777.1797981140438
1731141089.9936917,780.7312278558488,804.9280300672663,786.9783503978468,777.6509308201368
1731141089.9974775,786.7413662347697,804.3485150523246,788.4323042327811,778.5000976597557
1731141089.997579,783.7470214278088,803.9541278275444,792.1918394973437,779.541506602425
1731141089.9999788,771.861979904761,804.6132100892781,795.8743264410201,780.5725783053479
1731141090.0014672,760.660262297239,805.7638605853567,798.0235270136805,781.5105058843944
1731141090.0053551,762.2704546816004,806.0017941235888,798.6702334774486,782.3758265949112
1731141090.009243,780.7749013131136,804.5092303098228,798.6463459102118,783.2206957077648
1731141090.010363,807.0874885341212,801.8429807626112,798.689185569451,784.0782723735556
1731141090.013057,824.6894581183739,799.3754822921787,799.0610383319002,784.9528260181913
1731141090.013131,822.4792422457687,798.1115497335135,799.6647056236261,785.8335340429671
1731141090.0170186,804.2842013760543,798.0795639692502,800.3120227073438,786.7098434535144
1731141090.0188262,786.4877334666253,798.6561074163245,800.8942386119222,787.5779065866825
1731141090.0209064,784.8401656357167,799.2263796350913,801.4050199477294,788.4391587674967
1731141090.0247943,801.0792445095178,799.5375180057707,801.886146584629,789.296407182097
1731141090.0286367,820.9987411348868,799.6448078892854,802.3740431668313,790.1512949750681
1731141090.0286822,826.3625958749565,799.6996776627386,802.8801221608692,791.0039431091205
1731141090.03257,810.9906353709567,799.7996892729792,803.3979563363871,791.8537534053224
1731141090.0364578,787.1186800159184,799.9581046251772,803.9175061584506,792.7002064669896
1731141090.0376737,776.024470209947,800.1436037149514,804.4334912171386,793.5431510977427
1731141090.0403457,790.3648662496324,800.325253752907,804.9460141868303,794.3826855198159
1731141090.0442164,822.9769677907988,800.491609597556,805.4574648509588,795.2189388742137
1731141090.0442336,851.7140905414179,800.6467516939608,805.9697597826128,796.0519696666577
1731141090.045285,856.6571462869317,800.7988839189248,806.4834515163866,796.8818179827044
1731141090.0481217,835.7959368164287,800.9528569874356,806.9981985892024,797.7086119845582
1731141090.052009,806.398751836721,801.1090504717799,807.5135269898558,798.5325769730309
1731141090.055897,790.938411733335,801.2656863585047,808.0292397435821,799.353846898788
1731141090.0565207,799.1747890791914,801.4211719481143,808.5454163821613,800.172153911617
1731141090.059785,821.1754913314625,801.5749914395288,809.062234014371,800.9867184698412
1731141090.059796,836.8001839778079,801.7274166117979,809.5798257473607,801.7967649845506
1731141090.0636728,833.2460142770517,801.8788907003544,810.0982534675928,802.6027283120922
1731141090.067561,815.6222250684449,802.029656777831,810.6175599848413,803.4073019818262
1731141090.0714483,801.8412648783203,802.1797234274126,811.1378244904569,804.2145913710017
1731141090.0753362,806.6833647673147,802.3289968394242,811.6591573741973,805.0260915244118
1731141090.0753684,828.8586690494724,802.4774019002459,812.1816166841279,805.83512772087
1731141090.0753756,851.8705812288326,802.624922886843,812.7051028469605,806.6258028304753
1731141090.079224,857.6745208700448,802.7715841752455,813.2293635854188,807.383959959392
1731141090.0802069,841.6799419937237,802.9174172156037,813.7542374381406,808.1201621854506
1731141090.083112,816.7547163125179,803.0624422348459,814.2800864831225,808.8872253411336
1731141090.087,802.8380307776241,803.2066676973628,814.8080351508895,809.7595939530889
1731141090.0908875,810.455121211669,803.350097729982,815.3394117610005,810.7539348586297
1731141090.090955,831.6894196750001,803.4927383248296,815.8741499696715,811.7284343355275
1731141090.094216,846.4669705695936,803.6345991347008,816.4090961447665,812.3790315216246
1731141090.0947754,839.4241652527381,803.7756922453035,816.9385586887597,812.4669364778277
1731141090.098663,813.4017806842008,803.9160304079412,817.4592741480035,812.254371042856
1731141090.1025512,787.907556845012,804.0556261368831,817.9784293150437,812.793998398026
1731141090.1064389,783.3424795429722,804.1944917343473,818.5171313744008,815.4654721623634
1731141090.1065347,803.9280225761294,804.3326396901942,819.098243617175,820.4595078479549
1731141090.1103268,833.5396228730633,804.4700829842307,819.7155313896097,825.0951903381638
1731141090.113063,847.9795095601006,804.6068351487644,820.3041811039784,824.1640198522454
1731141090.114215,833.8544207780109,804.7429101797718,820.7573793582382,813.6878977962626
1731141090.1151288,799.1351468647364,804.8783224290132,821.0259801400185,795.7076683320558
1731141090.1181026,767.217155018582,805.0130865456357,821.2666818955524,778.9729412495032
1731141090.1219904,759.1597102752347,805.1472174655257,821.8879316842331,773.3546151045838
1731141090.1221142,777.9075945716163,805.2807304175492,823.2919917491137,782.1969440743507
1731141090.125878,806.7994931550962,805.4136409226776,825.2876404709135,799.5282331575188
1731141090.129766,823.4329448922521,805.5459647801717,826.5982418451601,814.9069280290109
1731141090.1319106,817.5543241672701,805.6777180466672,825.2391272863202,821.6967745707641
1731141090.133654,798.2811120261788,805.8089170152992,820.0053696875048,821.4275188665961
1731141090.1375418,784.9340099288953,805.9395781974813,811.9349698253882,820.6213114909988
1731141090.137694,789.7240871069682,806.0697183054081,804.1108372739874,823.5327124725139
1731141090.1414297,807.3514524575442,806.1993542322753,799.6806886028352,827.8935870642504
1731141090.1453173,820.2206961633716,806.3285030302833,799.835906257418,827.5599961019423
1731141090.1492052,814.275071655447,806.4571818916719,803.4536303485115,819.2121580748117
1731141090.1500506,791.5618352195277,806.585408140463,808.4050985608502,806.5238051410674
1731141090.150758,768.904548350321,806.7131992363168,813.1212373112096,797.7855274023065
1731141090.153093,763.9994115372635,806.8405727755262,817.1168845455028,799.0279992843969
1731141090.153273,780.6024993597402,806.967546458429,820.3798376544825,808.6275981989126
1731141090.156981,805.0840354606768,807.0941380009049,822.5293474939758,818.054199504283
1731141090.1608686,817.3433286059776,807.2203650197042,822.6315985722798,818.3316880036131
1731141090.1647563,807.2944695060708,807.3462449992102,819.8097077210806,807.1581118546868
1731141090.1686444,783.3064175297598,807.4717954718897,814.1021535200367,791.0359961911006
1731141090.168853,765.4025426535646,807.5970344097992,806.8778539950315,780.6187803844947
1731141090.1696053,768.7412239080983,807.7219805145784,800.4498000990728,782.8155082047442
1731141090.1725323,791.1745595758688,807.846652826744,797.0555893672225,795.8027141491497
1731141090.1764202,815.2434896643613,807.9710692968262,797.7913367539352,810.7938949148501
1731141090.180308,822.7258435587014,808.0952449964237,802.1330281113875,818.9758781045902
1731141090.1841958,809.4283426456797,808.2191920707974,808.2888007248498,817.9022920016469
1731141090.1844325,788.1147196004964,808.3429237914617,814.0760365886217,812.2967613256477
1731141090.1849723,777.6205972290752,808.4664622363646,817.7490768458413,809.0180365453676
1731141090.1880836,787.3643910953696,808.5898432259042,818.3997229139346,810.6941314891347
1731141090.1884527,809.7056538586065,808.7131076806398,815.9701138021272,813.3686520784544
1731141090.1919715,826.1057533408671,808.8362739342164,811.1496231466108,810.0733371616836
1731141090.1958594,822.2461484666719,808.9593059696949,805.2937775999237,797.4552997574878
1731141090.199747,800.1416395136399,809.0821183303399,800.2074237143239,780.0193632681105
1731141090.2000122,777.2177929134552,809.2046592011249,797.5711520289067,768.1053684340002
1731141090.203635,772.4403942288859,809.3270545681919,798.1314871973925,770.5156091877212
1731141090.2073002,790.4302715011305,809.4496849017903,801.2094721213676,787.285031740567
1731141090.2075229,816.9187581227416,809.5729933675113,805.0640357893344,808.593751427096
1731141090.2114108,829.9713185733939,809.6969482200449,808.0106457515652,821.2885640363238
1731141090.215299,818.0980410911051,809.8204821447878,809.4641605680697,818.2907183063817
1731141090.215592,790.1662748821587,809.941692981347,810.0172211907865,803.5689358331506
1731141090.2191863,768.6296012793151,810.0595240194883,810.4833839203645,788.7782262418543
1731141090.2198942,771.4729224878199,810.1764438958419,810.8288093290832,784.3224194367752
1731141090.2230742,797.6342380511048,810.2995562373588,810.089053180969,791.9147726406007
1731141090.2261477,827.8236037386135,810.4364426446004,807.4399791131254,804.2438330689735
1731141090.226962,840.1946764667093,810.5847946251089,803.3993091575442,811.5541017966509
1731141090.23085,828.2886002129974,810.7226641846794,799.8833643098171,809.6044582911277
1731141090.2311714,806.5658538153226,810.8143168282448,798.8784008362643,802.6896226971113
1731141090.2347376,798.6019649878835,810.843846194567,800.8395110166422,799.5946382086402
1731141090.2386255,817.2525895611925,810.8644211520186,804.2377911944818,806.0501727578646
1731141090.2425134,853.1641380279325,811.0120335781847,806.6221044903657,819.9093178405444
1731141090.2449949,881.5011108892388,811.4158136364003,806.2476273764928,832.8337050772205
1731141090.2464013,881.6983548040099,811.9954432159439,803.0369850547878,836.8897229656267
1731141090.2467513,854.1418270394096,812.2822868854482,798.4381141389788,830.5932643164488
1731141090.2502892,820.1920485303657,811.5307705183608,794.5821470616238,819.6645582976598
1731141090.2541769,805.6047292015552,809.2663585706576,793.278731968636,812.2663065866666
1731141090.254816,820.7100678742215,805.9309919829454,795.127807015848,812.9412844081237
1731141090.2580647,852.9933102728537,802.8980592945938,799.0061424316509,820.1332319738846
1731141090.2619526,877.5762834536406,801.5650698516612,802.359639449294,828.650348348444
1731141090.2623303,876.9413610730153,802.2382819464535,802.5251461113013,834.1211768241076
1731141090.2638423,854.2069934219852,803.8667733525024,798.5417975461221,835.4870571851395
1731141090.2658403,829.6178175768239,804.8926852737046,792.2025476933882,834.3088945646005
1731141090.2697284,823.3366115794213,804.4622474817088,787.2668931980807,832.644286551406
1731141090.273616,838.634265868509,802.9959461118206,786.9963598502072,831.6168260858525
1731141090.277504,859.3330388184977,801.7514611780526,791.6765637473579,831.2914952376524
1731141090.2779102,863.6834875712825,801.8597609607116,798.1972897666599,831.2522454407926
1731141090.281392,843.0794801417848,803.6169191625238,802.338633524949,831.1409629400645
1731141090.2826898,809.8101475381239,806.4153582936298,802.0692483323552,830.8497243465456
1731141090.2852798,787.2630967027671,809.1328732246797,799.0371981331573,830.4460623831799
1731141090.2891674,790.8408553715133,810.635877921184,796.8717788804443,830.0308721012337
1731141090.289738,815.5928384270923,810.2557688109438,797.8176793215205,829.6563775504168
1731141090.2930553,840.6675465097425,808.1927305244407,800.8281200851451,829.321245212274
1731141090.2934897,846.3506829318515,805.6144908368431,802.8663933784077,829.001934411535
1731141090.2969432,829.0050688349858,804.1357960166016,802.0558509048742,828.6800423138878
1731141090.3008313,801.687987835,804.7714804123109,799.5376138888602,828.3508436526728
1731141090.301537,781.4597588232624,807.0881097509451,798.2426797275562,828.0184121877071
1731141090.304719,776.1161765113998,809.3867724990059,799.913544849121,827.6880231227715
1731141090.3086066,781.6479265832884,809.9719682419216,803.4357215211459,827.3621345152355
1731141090.3090694,789.4634937877781,808.514553127239,806.1098596491028,827.040418943783
1731141090.3124945,794.0056855823764,806.292714992189,806.4410304410857,826.7215171437205
1731141090.3163824,794.7131712755047,805.0643272677585,805.5397899634872,826.4044354462728
1731141090.3202703,793.669920008221,805.5858864730967,805.7790356930192,826.0889138412955
1731141090.3203845,792.8426162570496,807.0730539449345,808.187078946666,825.7751172307118
1731141090.3241582,792.9342097604605,807.9586564058642,811.2414154549252,825.4632277408147
1731141090.3246489,793.6702629005345,807.1674200620516,812.2174875841891,825.1532576889024
1731141090.3246598,794.5293178855858,804.8557017516671,809.7261110066551,824.8450923070607
1731141090.3280458,795.2100615705867,802.1830190454649,805.0051393457105,824.5386187174514
1731141090.3319335,795.694209059855,800.4417948451897,800.7843349895526,824.2337960158612
1731141090.3358216,796.0965693825092,800.202011132752,798.8163333744632,823.9305944796042
1731141090.339232,796.5173999009428,801.0030896661922,798.3575107340304,823.6288366397714
1731141090.3397095,796.9880239887542,801.7518211538517,796.9746938694377,823.3280896642118
1731141090.3402286,797.4905238059483,801.5490592700253,792.9416716900931,823.0278220233134
1731141090.3435972,797.9969704838311,800.3830885295354,787.0910143754699,822.7279171619218
1731141090.3474853,798.4925405590509,799.2004501837596,782.4866453982221,822.4292518188867
1731141090.351373,798.9772625174767,799.2805072714574,782.1534833770306,822.1335815940918
1731141090.3552608,799.4574865216814,801.3094408639167,786.7114968646194,821.8419875092701
1731141090.355808,799.9382668901709,804.7522155046279,793.8245702467159,821.5522391514157
1731141090.3580792,800.4208973125766,807.9532993964663,799.9087316725314,821.2574727940679
1731141090.3591487,800.9042024529657,808.9825455016398,802.7401168477177,820.9498498621474
1731141090.3595817,801.3866383447021,806.7992744949476,802.8785847204041,820.630482822043
1731141090.3630364,801.8674268307136,802.0530850075165,802.7734891899387,820.3195132408072
1731141090.3669243,802.3465609056608,796.9480483213937,804.3295225728373,820.0518960131908
1731141090.3708122,802.8243147503828,794.1039609205973,807.0241174267504,819.846065043125
1731141090.3713875,803.3008464080921,795.0292648626717,808.2227798010066,819.6550810203462
1731141090.3747,803.7761029388896,799.2087218444966,805.4599463321591,819.348111449341
1731141090.376927,804.2499432836288,804.4950952826775,798.7703402301727,818.7896231823443
1731141090.378588,804.722297741211,808.5624079443598,791.1326994229134,818.0314647709843
1731141090.3824756,805.1932145258049,810.3366934660148,786.675744782294,817.490453754925
1731141090.3863635,805.662728333962,810.3596106324793,788.0679331227509,817.8405178491394
1731141090.3869674,806.1306141073258,809.9862430953506,795.0251109174204,819.4173240920928
1731141090.3902514,806.5962533192162,810.2696913023341,804.85181404057,821.4150745168552
1731141090.3941393,807.0589273966592,811.4398664169438,814.3331253189396,821.8145020521433
1731141090.3945034,807.5186457026821,813.1309449665182,821.4085124542264,818.8205531210874
1731141090.395774,807.9769998087863,814.8442965788079,825.5146036855263,812.9847460960302
1731141090.3980267,808.4368400869408,816.1658770398875,826.7863307103972,807.6974993198538
1731141090.4019148,808.8996908963592,816.7379017544698,825.2541038028892,806.7283584633952
1731141090.402547,809.3616675500595,816.2764382927422,820.9198769341882,810.5188761996767
1731141090.4058027,809.8118439588951,814.7663564784241,814.4712952097982,814.7600254951861
1731141090.4096906,810.2386931651175,812.6379336440276,807.6185223555077,813.2099635096096
1731141090.4135785,810.6459454736662,810.6511958322122,802.4442916279527,802.9271689668739
1731141090.4146216,811.0673033202529,809.4784595324571,800.2684962480117,787.5406705749583
1731141090.4174662,811.5571050807364,809.2960340166695,801.079573263047,775.3811602951779
1731141090.4181266,812.1386039062821,809.7307075528347,803.9673797606862,773.4696352425655
1731141090.421354,812.72881784579,810.2060703515773,807.950831402879,781.9859332684381
1731141090.425242,813.1180997807937,810.3766661859983,812.3209449273689,793.7714374907705
1731141090.4291298,813.1066602084076,810.2589080794733,816.3458270967224,799.5789321270813
1731141090.4294252,812.8076187723867,809.9539993641798,818.9746095044266,795.1673640760804
1731141090.4330175,812.8964386492138,809.265899257016,819.1162667567355,784.6296517985375
1731141090.4334688,814.3714549016709,807.6633353773947,816.3130155403219,777.0657511617096
1731141090.433706,817.5202565772381,804.7367785833338,811.1160536972554,778.9844364950283
1731141090.4369054,820.5262326116192,800.7979704587503,804.7805504014774,788.5485329576397
1731141090.4407933,819.2180988616526,797.0553132035233,798.6275651043359,796.6984803553444
1731141090.4446812,809.7027408154405,795.1255053967816,793.7149064536987,794.6757098090989
1731141090.4485693,793.4482218111003,796.1983472045388,790.9756913647151,781.8513257124207
1731141090.4492855,780.1803644605784,800.4016375924722,791.2900172257717,767.0664157087962
1731141090.4523163,782.8477146112637,806.6700942284261,794.9361148396727,761.9596994559255
1731141090.452457,805.9288606351233,813.0886827398625,800.70509117253,771.6126052817607
1731141090.4563446,837.7269507623051,817.5727296898866,805.7688432165155,790.2649299556552
1731141090.4602325,856.3172874407869,818.7126835251462,807.0603873447444,805.7108559424665
1731141090.4641204,846.1808865290673,816.4339086532216,803.4752047594772,808.84471491082
1731141090.4643471,811.5599277703211,812.0151003283537,797.0313686939086,800.6718862352051
1731141090.4648652,774.5206413098879,807.3281706546364,791.6531176173206,791.2266176425455
1731141090.4680085,758.4995564610974,803.7670287772975,790.2691038412695,791.334176803518
1731141090.4711635,770.3158666492998,801.626036348216,792.6020183047754,803.7745412356951
1731141090.471896,795.1997010086491,800.3253974385824,795.6367636256568,820.841143440748
1731141090.4757838,809.144737958093,799.1831751593204,796.4422811329664,830.2761897559642
1731141090.4796717,798.8510230112026,798.0407763696782,794.8430432343735,824.9112840709032
1731141090.480445,772.9167187065942,797.2770616068063,793.4847668019166,808.2507079858476
1731141090.4835596,754.7044875214749,797.3353142415099,795.1966759751235,791.4281474861899
1731141090.4874475,762.5322413686533,798.2864414457767,800.0803965503994,784.1069666843055
1731141090.490011,793.7689792630756,799.8254125061419,805.0743714299713,786.9799352620956
1731141090.4913352,826.3250320852769,801.6112671084452,806.5129214562527,792.0488829850025
1731141090.495223,836.3592823915546,803.5111651247058,803.4481445752127,790.1313529003666
1731141090.4960244,817.4769581439965,805.4469626037603,798.7257724444958,779.0410983960743
1731141090.4991107,785.7274715166727,807.0246774921327,796.7094483047342,765.6826520466701
1731141090.499269,766.6544871394544,807.4449352810492,799.4814085768405,760.6137649564683
1731141090.5029988,775.1575979149698,805.9815368814633,804.783304291055,769.6886968196036
1731141090.5068867,804.2990845473998,802.7395481901136,807.6328679530059,789.4104422633313
1731141090.5088584,831.6783374485861,799.0184792836378,804.4964239942234,809.4500663566913
1731141090.5107744,837.9322847195764,796.8200865426635,796.628563771162,820.2079444634602
1731141090.511604,822.3280343912421,797.7139466995277,789.6726095236269,819.532763222221
1731141090.5146625,802.7703499230771,801.8322818368232,789.5855110870557,813.4734784286568
1731141090.5185502,800.1915174191408,807.7159070976041,797.9956774064096,810.6084091461191
1731141090.522438,820.253473915471,813.1096560799773,810.634891467022,814.5698249715061
1731141090.5263257,847.7768065182828,816.1418463370892,820.0574438242302,820.895736882844
1731141090.5271835,858.8622192675338,816.1574389935605,820.5897038477863,820.9222565560086
1731141090.527706,840.8886295747166,813.8484072982134,811.9966735043837,809.6535052105336
1731141090.5302136,803.9032311465096,810.7978223033743,799.5270886971656,791.0770136075536
1731141090.5341015,773.8387689206698,808.7375593422374,790.5239763343836,776.1914831628243
1731141090.534191,772.6682926937152,808.7683574200629,789.867173107212,774.8318970090716
1731141090.5379894,801.1860868260384,810.7849184031928,797.098933481896,787.6378937099952
1731141090.5418773,838.1985207909822,813.4177331590888,806.9838570237229,804.8370536509718
1731141090.5427632,856.9252697717916,814.6830763294874,813.0420715600085,813.2884489228998
1731141090.5457647,845.5682118590679,813.1017293740739,811.6182362572362,806.4542933226312
1731141090.5465531,815.5523163624148,808.6162566328924,803.7708772887642,789.3007746032772
1731141090.5496528,791.0027362770463,802.6627375439283,793.9774118378093,774.1049971318106
1731141090.5535407,788.5153720939716,797.3127797087604,786.9801199296205,770.6470888811524
1731141090.5574286,804.2158138888477,794.0650936946067,785.1613410269473,778.9079465025413
1731141090.5583427,818.6275460584678,793.102068117123,787.9492100165029,790.0957637969733
1731141090.5613165,814.5587128723348,793.4742097039993,792.9697756932801,794.6307058471593
1731141090.565204,792.3897417868076,794.0181951350633,797.6143050384761,790.0225809832865
1731141090.5654006,769.9327203515797,794.3071334839877,800.0201275036895,782.2122542406207
1731141090.569092,767.4051098659497,794.9050560781003,799.40998733639,779.8768756492377
1731141090.5691123,790.2629856799578,796.7030225419036,796.1929530874265,786.956080529702
1731141090.57298,823.926082818139,799.859957259562,791.94290624568,799.5938471813294
1731141090.5739224,844.6018349909607,803.3010666557122,788.9799932306773,809.6531489347831
1731141090.5768678,837.6735627664403,805.3795268692098,789.4058593086075,811.6001718539392
1731141090.5807557,809.1629802939195,805.3073170283907,793.9870714137071,807.0177052292808
1731141090.584248,781.0490798894803,804.1170147748588,801.6318280230389,803.0429689679444
1731141090.5846434,773.9022605804513,804.1036363031387,809.9247002196281,806.0095297074749
1731141090.5885313,790.6166515445871,806.9564562252432,816.4287176623618,815.6090245672578
1731141090.589502,814.4272239412361,812.0828465657235,819.854782294695,824.5989437914986
1731141090.5924191,822.8749247303749,816.6783915272667,820.3092796483735,824.5027795367317
1731141090.596307,806.3086103764068,817.6882863121541,818.6397643783583,812.6823685784445
1731141090.6001947,775.8994305313779,814.1417214218818,815.6764654369443,794.9974878787939
1731141090.6030955,754.9018024527751,807.9709356412175,812.112639249425,781.9412972627316
1731141090.6040344,760.407230488774,802.6961866561674,808.9053528333931,781.3391315649618
1731141090.6040826,790.0379974769313,801.0743112381533,807.3608926935982,793.1133334393583
1731141090.6050816,823.7577056739607,803.4745149087391,808.3598319803468,809.7185904152408
1731141090.6079705,839.1825336964623,807.97021418946,811.2355655450287,821.5739811885751
1731141090.6118584,828.4794462833685,811.78590803544,813.5084163396465,823.3953738223566
1731141090.6157465,803.7076999597866,812.9405892429759,812.1747339541326,816.9706793478298
1731141090.619634,786.4346973469263,811.1133742303214,805.9118670229019,808.7061529176759
1731141090.6206613,790.0271044960866,807.5049095020851,796.5647701048393,804.1859679705005
1731141090.6219428,809.0782588765907,804.0624845431605,788.5603968991164,804.106555657859
1731141090.6235218,824.612812147501,802.530550116601,786.3574260278533,804.6188989363723
1731141090.6274097,820.5801567242828,803.6159359997275,791.5880598058297,801.4295467269892
1731141090.6312976,797.7318901790385,806.5149330068585,801.8879490797513,793.9936565289725
1731141090.6351852,773.2766091587353,809.1417160184177,812.168625013614,786.2202056246391
1731141090.6362407,766.7321515601637,809.2417974603669,817.323417567236,783.1596643147719
1731141090.6389563,783.8834761524608,805.9749539611814,814.6165495539332,786.5786123199898
1731141090.6390731,812.102229690114,800.9159799318691,804.6939236186795,793.2827590883967
1731141090.6407902,830.7127106683508,797.4702397596994,791.2238718435818,797.7562326784567
1731141090.642961,827.7546568916401,798.7240016333882,779.5687819640264,797.0213053552967
1731141090.646849,809.3206149137031,805.1091235386356,774.77526613705,793.5613011644522
1731141090.6507368,793.6870339073613,813.7323457535614,779.3521232022573,793.4886840585801
1731141090.6518204,795.065530925409,820.1076768240023,791.8371048761885,801.0768336272708
1731141090.6546245,810.8204311029406,821.0921247455512,807.2136510699783,814.1990546731864
1731141090.6585124,823.4746455076901,816.7923545689471,819.3046694704514,824.966929875343
1731141090.6596377,816.222516243366,810.0939597873441,823.919095917001,825.6462867367295
1731141090.6624002,788.6643175918539,804.4362789620005,820.8916405546635,815.1822046759273
1731141090.666288,758.8537785798759,801.6856895446844,813.8064618457805,800.7292545890926
1731141090.6674,749.3417740549361,801.5137059473669,807.6636527435063,792.570000323267
1731141090.670176,768.6119671060607,802.2914707927309,805.996338636075,796.3349012192023
1731141090.6738782,803.3216532740662,802.5085882353812,809.1771476913996,808.7260855322211
1731141090.6740637,827.9323412314973,801.6849844124004,814.7890363238705,820.1292218169225
1731141090.6779516,824.2462047007666,800.3377592664964,819.582494434112,822.034537674613
1731141090.678485,795.4433615762077,799.2772342400463,821.5792878497065,813.4942710250642
1731141090.6818397,763.5129334122464,798.9255347709427,820.9235213302687,801.6887694051741
1731141090.6829796,752.0215576718211,799.1641598124044,819.0618165328035,796.2702271791538
1731141090.6857274,767.8076906450456,799.628936423471,817.0520015632002,801.9456385595339
1731141090.6896152,796.1850190637423,800.0400988487952,814.4093813199516,815.0832847265217
1731141090.693503,813.4974067966606,800.3167694703252,809.4968680288559,826.927665953022
1731141090.6973324,806.8035760154047,800.5101326776098,801.3059360649997,830.7410415235972
1731141090.6973908,784.5812572790207,800.6948730188104,791.2901501459867,827.0465764822967
1731141090.698559,769.6568449085623,800.9086996787763,783.5496880170224,822.7293653955792
1731141090.7012787,780.1427551625139,801.1497390748962,782.6452211970861,824.8182891547309
1731141090.7051666,813.967814358291,801.4002387474113,790.2832173893123,834.1583101993109
1731141090.7088,849.6268625323318,801.6467074493169,803.5697494847581,844.2727307250079
1731141090.7090542,862.6308068730848,801.8859190923687,816.7054772434158,846.462739817196
1731141090.712942,844.5407045440911,802.1210826268834,824.9307063856486,837.0789671401475
1731141090.7141387,809.4430933507487,802.3561760205192,827.2466218637732,821.0201384485916
1731141090.7161798,782.7267229965605,802.5930306681333,825.8447008528792,808.3673247695425
1731141090.71683,781.1099879451422,802.8314194732515,823.583552009768,806.5143615669041
1731141090.720718,799.9576190789293,803.070380931702,822.0974326009351,814.0204918440749
1731141090.7246058,818.1966865072532,803.3092473755047,821.5626130011063,821.4433618009766
1731141090.7284937,816.7864808521017,803.5479038949494,821.4476045479564,818.9270104869944
1731141090.7297184,795.3136742482103,803.786554825043,821.2582388805872,804.5432856312856
1731141090.732381,772.6966032389768,804.0254237613086,820.8282246805361,786.3802269660416
1731141090.7350273,771.3434148718188,804.2646110472978,820.2370943420046,776.4216169299394
1731141090.7362692,798.032978726223,804.5041070385895,819.6206624775006,781.1781779779525
1731141090.7401571,837.410330871068,804.743865492798,819.0541698141385,796.7389907927223
1731141090.743722,863.4238196883108,804.9838618926419,818.5398322848617,812.0782730258956
1731141090.744045,859.4247939091632,805.2241147175245,818.047093748017,817.5571523679823
1731141090.745298,830.8781049616442,805.4646769731362,817.5503963929801,811.5738753835094
1731141090.747933,800.744374007096,805.7056055907514,817.0422890564886,800.3848012604848
1731141090.7518206,791.4352612364596,805.9469142334576,816.5277462948441,792.072316851477
1731141090.7538743,807.8197671208363,806.1885334393518,816.0139615783233,790.218619966266
1731141090.7557085,834.7162664956585,806.4303316449783,815.5045730139766,792.3913565424391
1731141090.7595963,850.4385360319153,806.6722456479656,814.9994024968122,793.9356768948071
1731141090.7608776,844.8651002222412,806.9144807776089,814.4967277324363,793.0641307431523
1731141090.763484,827.017157745258,807.1575867753331,813.9952229551257,792.5903324353635
1731141090.767372,816.2264780735126,807.402135793412,813.4945437990192,797.0138296218456
1731141090.7712598,824.8747365936766,807.6479421305664,812.9949632716863,807.8201193253665
1731141090.772722,847.4941881770301,807.8933488390843,812.4968279875244,821.25189509442
1731141090.7751477,865.2263268351609,808.1357062562247,812.0002797405574,830.5252277761214
1731141090.7764573,861.6625346045022,808.3739278986061,811.5052688794688,830.7050039309297
1731141090.7786436,836.8955619070465,808.6121641740484,811.0116852638296,822.3494925754563
1731141090.7790356,808.2531329205093,808.8607364708336,810.5194501209867,811.0711625888922
1731141090.7829232,796.9102799711798,809.12933949013,810.0285178977159,803.3461359853673
1731141090.786811,810.9692393658663,809.412136697381,809.5388268740475,801.8065615121435
1731141090.790699,838.7745068679011,809.6756603032262,809.0502740702497,803.7144949748996
1731141090.7915697,858.2710615538488,809.8708223537014,808.5627717658471,803.8827114656106
1731141090.7920368,855.0364404371569,809.9835502336583,808.0763717768463,799.6992172829945
1731141090.794587,834.0874151063815,810.1016425289516,807.5913394782515,793.9984858986709
1731141090.7984748,815.458916794873,810.4220752053053,807.1079985846698,793.0869368745673
1731141090.8023624,817.1396552041814,811.1088379222908,806.6262761785885,801.2530604568044
1731141090.8062503,839.6905177530734,812.008749074861,806.1452202035823,816.2856236420345
1731141090.8076162,865.4550434711138,812.4470889888496,805.6631577438205,830.0209491008341
1731141090.8101382,872.9672938469494,811.4697429899751,805.1791131831825,833.9366511912235
1731141090.8104167,854.6283021441118,808.6339014728183,804.6950938178176,825.5870621470618
1731141090.8135655,823.3191001407479,804.7954098496886,804.2170696790814,810.7788766522395
1731141090.814026,802.7069192928271,802.0323532766306,803.7514907104168,799.5832604980732
1731141090.8179138,808.8662053368416,802.4656892627584,803.2964842407056,799.0545884981151
1731141090.8218017,837.5764427320026,806.7438283832058,802.8334705658377,808.1697627496096
1731141090.823196,867.342245635315,813.3285896657085,802.3319334231331,818.9057850771981
1731141090.8256896,875.9677828917874,819.1636399499735,801.7778411478649,822.6283968412541
1731141090.8292642,857.6607815285287,821.3399936098508,801.2157152762508,816.7415168652986
1731141090.8295774,826.9719147618556,818.7020600659305,800.7611079642987,806.3355032217123
1731141090.833465,806.4833834489873,812.3900070452687,800.5255191441843,799.6725946422085
1731141090.837353,808.5614680945781,805.0366207694041,800.444973956008,801.3762269631598
1731141090.8387754,826.2604443594157,799.2304443341438,800.1281970640819,808.9176930522717
1731141090.841241,840.3634039995709,796.2848429464882,798.9542869645256,815.0492257562744
1731141090.8451288,835.6776632605361,796.0136701903526,796.557187456212,813.8307394538701
1731141090.8481116,812.3235562490573,797.4148893260844,793.4237794725693,805.0708409424508
1731141090.8484874,783.2713405805001,799.560281919669,790.9485604001054,793.6923328139319
1731141090.849017,762.3664884545349,802.0104831302494,790.5702980975881,785.2380412440317
1731141090.8529046,754.727253322027,804.5991574099818,792.5408232413647,781.9695932898981
1731141090.854355,756.5548986921041,806.9772197556433,795.4646473543182,782.5599708448743
1731141090.8567922,761.1752973557303,808.457150354954,797.2138545190307,784.3924490657357
1731141090.86068,764.2607051666745,808.3721562159974,796.5557937015944,785.6884406047324
1731141090.864568,765.0049610956241,806.6523660111221,794.0561663760695,786.0621756169511
1731141090.8669589,764.5572205892887,804.063855415556,791.4389569762703,785.9420770404178
1731141090.868456,764.1689261793557,801.8122804123809,790.1017015939829,785.8306252763844
1731141090.8699346,764.3470500195009,800.7847279038184,790.2364839967057,785.9455816843837
1731141090.8723435,764.9597372143428,801.0518612810881,791.1447689735674,786.2455074061209
1731141090.8762314,765.6823138367519,802.0098776739547,792.0674491650274,786.6032822847808
1731141090.880119,766.3099396047012,802.9477133523847,792.6716636916972,786.9344163469261
1731141090.8834093,766.8172698568857,803.5048321574592,793.0139778190742,787.2256264691692
1731141090.8840072,767.2719946828414,803.7213473144236,793.2824087226212,787.502646592594
1731141090.8855145,767.7395611408608,803.8107880532423,793.603789763149,787.7920184607569
1731141090.8858063,768.2436275617342,803.9393101249202,793.999325442016,788.1041649034293
1731141090.887895,768.775178767211,804.1526283769679,794.4315289734998,788.4361857329991
1731141090.8917828,769.3168603171523,804.4173408670009,794.8610829068563,788.7813834146859
1731141090.895671,769.8586490871772,804.6873046167674,795.27242772523,789.1357292102681
1731141090.8995583,770.4000083983482,804.939859386402,795.6699175627549,789.4989739035697
1731141090.901094,770.9448872494344,805.1766376892622,796.0637261048049,789.8727625450506
1731141090.9034464,771.4967684112688,805.408705530953,796.4601530244881,790.2586393666888
1731141090.9046538,772.0568316677711,805.6442716907,796.8598785664717,790.6572520630588
1731141090.9073343,772.6246037435963,805.8851868586748,797.2607248818932,791.0685687852617
1731141090.911222,773.1992709903604,806.1294103507458,797.6606290406772,791.4923948159847
1731141090.91511,773.7804566251539,806.37450121756,798.0588495786155,791.9286950842065
1731141090.9166734,774.3682819185789,806.6193684917208,798.4556603739273,792.3776314237397
1731141090.9183311,774.9630811203396,806.8641795453237,798.8515861136651,792.8394536395449
1731141090.9189978,775.5651457711546,807.1095339497642,799.2469182373819,793.3143958092899
1731141090.9228857,776.1746421392985,807.355837860693,799.6416523899471,793.8026402539529
1731141090.9235013,776.7916557635391,807.6031557638057,800.0356437798073,794.3043341669987
1731141090.9267735,777.4162631128168,807.8513604781218,800.428758225278,794.8196189237192
1731141090.9306612,778.0485680864114,808.100317847875,800.8209307622027,795.3486447795242
1731141090.9322531,778.6886959757501,808.3499703255526,801.2121571065704,795.8915657137819
1731141090.934549,779.3367689360355,808.6003232130681,801.6024700170874,796.4485247025159
1731141090.938437,779.992892052354,808.8513959966979,801.991918303201,797.0196462119452
1731141090.9423249,780.6571678602489,809.1031898318689,802.3805299379861,797.6050502815505
1731141090.9423485,781.3297349064298,809.3556875581446,802.7682480351535,798.2048878534232
1731141090.9462123,782.0107962099846,809.608875831387,803.1548841206284,798.8193698439399
1731141090.9478326,782.7005837680219,809.8627659274057,803.5401882122643,799.4487394554025
1731141090.9501004,783.3992307782453,810.1173876421539,803.9241011777116,800.0931544794277
1731141090.9532528,784.1066183575757,810.3727435104046,804.3070705824836,800.7525325922957
1731141090.9539883,784.8223862902843,810.6287458058267,804.690054821328,801.4265356049463
1731141090.9578762,785.5463085996355,810.8852059201733,805.0737931050035,802.1148993437561
1731141090.961196,786.27897061997,811.141958068631,805.4574264205456,802.8180874789624
1731141090.961764,787.0221625790189,811.3991129286736,805.8376126646726,803.5377481726474
1731141090.9634123,787.7780413522405,811.6572439372035,806.2100783123938,804.2760479903172
1731141090.9656518,788.5466449218029,811.9171465489081,806.5745836927829,805.0333619313362
1731141090.9695396,789.3231874997384,812.1789547147457,806.9406122060964,805.8054967796338
1731141090.9734275,790.0987761942831,812.441046724931,807.3264726415973,806.5838649137396
1731141090.9773154,790.8680458759301,812.7000516069112,807.7443793054935,807.3622695449606
1731141090.9789915,791.6417903614195,812.9534065442092,808.1745906516691,808.1492076884986
1731141090.9800434,792.4528554296589,813.2041314625457,808.5516644701501,808.9751250425132
1731141090.9812033,793.3377879982235,813.4638209634427,808.7988152799728,809.8773787070598
1731141090.985091,794.2887562821439,813.7471390216517,808.9240284074272,810.8551926252903
1731141090.988175,795.206194051743,814.0545459956436,809.1194877445564,811.820270956828
1731141090.9889789,795.9219595339337,814.3527522411118,809.722191245184,812.6090718511108
1731141090.9928668,796.3528507200199,814.578281201505,810.9027639198172,813.1206000893714
1731141090.9945714,796.7341361499024,814.6895690294641,812.1555055940472,813.545627095546
1731141090.9967546,797.6994584203084,814.7560989940404,812.0095520671085,814.4745176511449
1731141090.9988906,799.8862291464696,815.0036622229484,808.533156944606,816.5631568654721
1731141091.0006423,803.0078247963893,815.6903274276794,800.761168474171,819.6480328324595
1731141091.0045302,805.0251801004846,816.7644759986289,790.2383126740674,821.8403521500343
1731141091.008418,802.7266912412034,817.4994569766005,781.2533420918903,819.8088616271081
1731141091.010151,794.6579509092771,816.5635402021593,778.8971208123343,811.1728680241339
1731141091.012306,785.002186360234,812.8735349703298,785.7368025527464,797.9011654057036
1731141091.016194,783.9169764116753,806.8161896222537,799.4222581610971,787.2800213276138
1731141091.017738,800.763661039935,800.6298990729679,813.4021080242856,787.8578581694336
1731141091.0200815,834.1829206670544,797.1690966497662,820.7780892123768,802.5769853057989
1731141091.0230966,869.3033548730606,797.8620184787728,818.7284911596618,825.1971500256441
1731141091.0239694,887.3660827894323,801.620204792139,810.1966847675186,844.0384458602448
1731141091.0257306,880.5112757675187,805.646944483993,801.5308804451159,850.516156361371
1731141091.0278573,858.466274057211,807.4529626770864,797.9092272220432,845.3691504809465
1731141091.0317452,840.760224271572,806.4735658552966,800.0369162341399,837.3105886888584
1731141091.035633,840.8770279136979,804.1170400711732,804.4034269395434,835.3636390627692
1731141091.0365856,855.7989200494306,802.3663794204708,806.4712006790234,841.5184457456196
1731141091.0395207,869.714595286638,802.1518380911712,804.0652246246624,849.8743432780662
1731141091.04131,868.4801100035623,802.7740232907405,798.5431898850557,852.6571406175273
1731141091.0434086,852.2992704021804,802.6956907214,793.389684048224,847.5661087938145
1731141091.0472963,835.8146063155829,800.8927685823046,791.7170102948687,839.9640732141635
1731141091.0511844,835.6818761656708,797.625544173269,794.468941761302,838.1653241169392
1731141091.055072,856.231984566162,794.1514842891254,800.1877009946685,846.1674068294493
1731141091.0554328,885.1614324261578,791.8303674650475,806.0987259166956,860.1850482888757
1731141091.0568898,902.7327704921627,791.4051020689359,809.7098693396847,871.7344525764382
1731141091.0580184,897.1404938952409,792.8331599083776,810.1110592176049,874.3605468968384
1731141091.05896,873.9915482105927,795.4917183314803,808.3940292324974,868.3813839854489
1731141091.062848,852.3510514360021,798.4498670509339,806.9524076030472,860.0859449250413
1731141091.0667355,850.013414712555,800.730110619971,807.9276785188027,856.4356489666468
1731141091.0706236,869.2622257957731,801.6248682564473,811.6474349957099,859.7091846757652
1731141091.0724697,894.6823019128358,801.008714722851,816.129968041937,866.2937330104822
1731141091.0742805,905.4504016029925,799.4359074310174,818.1872891935492,870.3479331895574
1731141091.0745113,892.5767301320113,797.8884178819106,815.5322608839277,869.1038441051315
1731141091.0783992,866.8365049542948,797.2788808476519,808.440120652662,865.2883912352146
1731141091.0822873,850.3736759292274,797.9820503181377,799.7419278816335,864.6092042805266
1731141091.086175,858.5755517590176,799.6522651408669,793.1555628156729,870.4536588197464
1731141091.0880487,887.13660301419,801.4310950538409,791.1746904119444,880.3541121787581
1731141091.0900629,914.9718074481655,802.4507580503683,793.9326538476939,887.3483272429468
1731141091.0929403,920.5935163542282,802.3736001438889,799.590994724591,885.3503328916297
1731141091.0931275,898.8206907576488,801.649274734016,805.7064930940697,874.3431579239582
1731141091.0939505,864.669405204749,801.2741041872429,810.5315998284327,861.1567203849119
1731141091.0978384,841.4518694753986,802.1013593762804,813.4897996766266,854.8267826545157
1731141091.1017263,842.515745137938,804.0826771841023,814.7835352490058,859.7553676874421
1731141091.1036286,861.2549847942089,806.0101244045526,814.7073322128273,871.9551528930022
1731141091.1056142,877.5732663125783,806.1378338549989,813.3366342430274,881.6379017566958
1731141091.1095018,875.3941247172194,803.4638399715302,810.7878811482568,880.4668009393421
1731141091.1119752,856.2656726863039,798.8136067479262,807.6171053329318,867.8576399136716
1731141091.1133895,837.3102728095769,794.7705182267331,804.7682719692607,851.2745960501016
1731141091.1172776,835.4094400156965,794.221183165964,803.0177106417078,840.2673762235204
1731141091.119208,851.5869485891712,798.3931521095673,802.4887400170448,839.0702408537826
1731141091.1211655,869.297993194192,805.8376302796386,802.7228543413628,843.6919906276464
1731141091.1250534,868.1500612259724,813.2250085423541,803.1418379574972,845.6645895415506
1731141091.127862,841.3514176470161,817.4312861593954,803.4125911616115,839.137537601953
1731141091.1289413,802.1897722214227,817.362003311791,803.4944727553458,825.3857176315722
1731141091.1308224,774.1296772705482,814.2210896059536,803.4911128719942,811.1884956462877
1731141091.132829,772.5542926512002,810.2486681596666,803.5011894723444,802.7933290040908
1731141091.1347878,792.8629820963997,807.1129480436219,803.558883260789,800.767549087469
1731141091.1367168,814.5113832340323,805.1614843886985,803.6490713867527,800.0359635351348
1731141091.1406047,817.7896647301457,803.7854939558171,803.7448229325071,794.8553455276526
1731141091.1444926,799.7186063793816,802.2437794206551,803.8309448554886,784.2971348859486
1731141091.1483805,775.925764141233,800.1923861651717,803.9067850302768,773.4356254261985
1731141091.14967,766.8416802326168,797.7194554876454,803.9783567010348,769.1213431295681
1731141091.1503673,779.7808039176774,795.1833706153487,804.0507901359265,773.8750004378386
1731141091.1522682,802.137145028209,793.1446309156589,804.1256401041576,783.1550049095046
1731141091.156156,811.6419792981413,792.3474495066077,804.2019625923392,788.5259759360259
1731141091.160044,795.2121722059647,793.5295473365344,804.2783390902792,784.3010380071262
1731141091.162784,760.6159419702768,797.031046636784,804.3540436988777,772.2076383149717
1731141091.1639318,731.1119969247824,802.4704073075336,804.4291124900224,760.1641905109036
1731141091.165947,727.2917825898254,808.7693823115022,804.5038966184774,756.1304275862525
1731141091.1678195,750.834153776245,814.5179075415901,804.5786708850596,762.0797452025225
1731141091.1685174,783.2899583575718,818.4253794905208,804.6535096688415,772.9662139741065
1731141091.1717074,800.8480596476761,819.6552228498224,804.7283577132371,781.3184871375723
1731141091.1755953,793.1383899095524,818.0263941998539,804.8031473811529,783.4088002423432
1731141091.1794832,770.8280151340712,814.1023923800285,804.8778700123567,781.7458601378131
1731141091.1815264,755.8911454987222,809.0876623503518,804.9525806484374,781.904526684807
1731141091.1833708,762.7645678007734,804.4668643901285,805.027349617147,786.6481906668909
1731141091.1872587,786.2032396535584,801.5235601053695,805.1021865587298,792.6746844077293
1731141091.1873646,805.9200276667614,801.009506382226,805.1769847144809,793.0579110776831
1731141091.1911466,803.9063212150859,803.0897697644962,805.2515613117803,783.5074090743567
1731141091.1950345,779.872863870292,807.413031620047,805.325848226708,767.1551941295963
1731141091.197106,752.1110308443192,813.0978841250655,805.4001571284682,753.5570479644643
1731141091.1977055,743.1229863116884,818.6852243368229,805.4752403612919,752.1648427671807
1731141091.1989224,761.500091776832,822.374166139131,805.5517935783761,765.062204321705
1731141091.20281,794.4130448219,822.735611902209,805.6293836244622,784.6797457097148
1731141091.206212,816.8833034853803,819.5802317070913,805.705596224741,798.636526067242
1731141091.206698,810.9877052975799,814.2595502861168,805.7769323709974,798.353327093837
1731141091.2105858,780.0944637147022,808.9603542723278,805.8424693261395,784.9554480773038
1731141091.2126856,746.6504860172311,805.4197274588432,805.9086317278359,767.9428710828728
1731141091.2144735,734.8773587033467,804.0698322101696,805.9896098856502,757.7635848392478
1731141091.2183616,751.9888686536354,804.2051877256492,806.097042723883,758.1685746151599
1731141091.2222493,782.9643859614368,804.8036916306646,806.2197205913108,764.1826210544842
1731141091.2250595,802.9846681000605,805.2100593249063,806.3095691054897,766.9255626797776
1731141091.2261372,797.3590534811123,805.2862107678573,806.3026037859952,761.2389478363324
1731141091.2282653,772.9494522483917,805.1864278772533,806.1907303982173,750.1376878954385
1731141091.2300253,752.2231197836362,805.0889840411828,806.1072997021299,742.6739152494029
1731141091.2326276,755.0043077380875,805.0693607170873,806.3197867883747,746.8108014367251
1731141091.2339127,782.5778342240221,805.1111376343769,807.0154805462884,762.7740495898606
1731141091.2378006,816.7234765525717,805.1684729724452,807.9123651120016,782.216172810933
1731141091.2416885,834.3200215710599,805.2114646879369,808.0142562623945,794.1799474082987
1731141091.243845,825.6937452929642,805.235728026598,806.0122644396907,793.364969309311
1731141091.2439067,801.8151286937518,805.2505811395401,801.4671701682406,784.0901599836341
1731141091.2455764,784.5085669825258,805.265409241683,795.8998780793651,776.7158242531101
1731141091.2494645,787.9138527611387,805.2837631446592,792.3762325005409,779.4936398379311
1731141091.2533522,806.8305673978815,805.3044687168657,793.4167087248126,792.4913842924296
1731141091.2572398,821.7709058010151,805.3250562850636,799.020138946318,808.2532769620747
1731141091.2594244,816.2773361152584,805.3440443077571,806.634512813527,818.1740944789416
1731141091.2611277,791.634888666392,805.3613036459196,812.9288768154765,819.1800466684731
1731141091.2627542,766.4931467634324,805.3773692129029,815.7547769844815,815.5619793873894
1731141091.2650156,761.7383485335084,805.3927292851913,815.0507824006227,814.8871677876517
1731141091.2675495,783.1190035224622,805.4075492740911,812.5355378661746,821.3800994558827
1731141091.2689035,815.8304294671273,805.4217548374978,810.5787077951145,831.962594930015
1731141091.2727914,835.6372497246838,805.4352175159677,810.7247000038534,838.2585490056973
1731141091.275004,827.9186841360068,805.4478684469957,812.5784433298496,833.4196809397142
1731141091.276679,799.4601211728727,805.4597101151827,813.9340433154106,818.5221604859755
1731141091.2805667,773.2245287477883,805.4707769354724,812.3971763162727,802.921735014231
1731141091.2816017,769.9577303166003,805.4810984738598,807.4580255453344,797.4645571340158
1731141091.2844548,791.5174005366198,805.4906867843695,801.3010150823364,805.6481632243136
1731141091.2883427,819.7422014216446,805.499542026749,797.5379848617607,820.1756327771715
1731141091.2905836,831.8165671403893,805.5076624350609,798.8097571547739,828.1925395513719
1731141091.2922304,819.2163792847979,805.5150499303908,805.1120959673216,821.2056277623223
1731141091.2961185,794.4574184808125,805.5217103533686,813.9466597250349,801.7273192882917
1731141091.3000062,780.343335290248,805.5276512329782,821.855390273504,781.4479103711135
1731141091.3004491,790.8988149189291,805.5328798836144,826.0605659595094,772.5356082277451
1731141091.3024712,819.5257324929327,805.5374028348439,825.3410063500818,778.7819655953045
1731141091.303894,843.7045857700386,805.5412262129541,820.1751777477161,793.115124438939
1731141091.3061633,842.5307709853164,805.5443563311727,812.5486663760469,803.1616355064438
1731141091.307782,813.5346387934218,805.5468000206497,805.4744954580736,800.6148152397438
1731141091.3116696,775.5338861638118,805.5485645933994,801.9384773078654,787.220931863364
1731141091.3155577,754.6751876251477,805.5496575319218,803.3455817667599,772.6327732014247
1731141091.3192964,764.1337319362842,805.55008611327,808.3595777296592,765.9272511817533
1731141091.3194454,793.7330081985011,805.5498572965689,813.2917724292577,768.0741502629522
1731141091.3217428,818.3139087550469,805.5489782315343,814.2610658644907,771.8974460765747
1731141091.3233333,818.2440846238334,805.5474574042644,809.8059178969422,769.3048480523139
1731141091.3272212,795.084639320489,805.5453056124887,801.9218139010171,758.9928037182802
1731141091.3311088,769.5056317408972,805.5425351662118,794.5350990677355,747.6902965096176
1731141091.3349967,763.6422411843646,805.5391561488206,790.5238922400855,744.1797078136017
1731141091.3373225,782.9003855807333,805.5351712794312,789.721526402104,751.7256577409834
1731141091.337393,811.9716294438648,805.5305749820229,789.5780804667,765.4415047232015
1731141091.3381438,827.6470330596586,805.5253635868507,787.8624616218839,776.4472879310614
1731141091.3388846,817.6357770865177,805.5195565983465,784.978065099545,779.0358944016385
1731141091.3427725,790.3215226606757,805.5132127931298,783.8033773450148,774.9662028606868
1731141091.34666,767.7964432844336,805.5064108901242,787.1964058836669,771.5466100283113
1731141091.350548,767.7962558825889,805.4991758967994,795.391830882771,775.161283705586
1731141091.352902,789.2583903862004,805.4913861382913,805.5487445994137,785.6124691242508
1731141091.354436,813.5773143554384,805.4827704941903,813.7325832882351,796.1369482362945
1731141091.3569913,820.644688877642,805.4731195217485,817.5710641881427,799.2723416012024
1731141091.3583238,806.06225,805.4626872833021,817.495277089286,793.6060368296087
1731141091.3622117,784.7454548494173,805.4524527186683,815.8574454018808,785.4377063840561
1731141091.3660994,777.8646417290526,805.4436742887113,814.8970020117345,783.7019367050898
1731141091.3684816,794.4126647389711,805.4364478047125,815.2021662065721,792.3870467049935
1731141091.3699872,823.0600131784025,805.4280416219875,815.6948787932612,806.861387784255
1731141091.3723147,840.9688691924783,805.4131340255094,814.8924610418476,817.1627214742407
1731141091.3738751,832.1496831917786,805.388131184546,812.2749211459906,815.5638332602674
1731141091.3758385,800.5095326957028,805.3587021462221,808.6784071075915,802.4448247304746
1731141091.377763,767.2694212187705,805.3438461620071,805.5614253753096,786.0044652323983
1731141091.3816507,754.7429410239365,805.3659838860071,803.8961718657672,776.123122970562
1731141091.384061,769.1291161593876,805.4229498028964,803.590584414873,777.1117760763638
1731141091.3855386,795.9877367030477,805.4586310830332,803.7653953912675,784.9512039654239
1731141091.3894265,812.2802455982038,805.3732606662065,803.5109996718448,791.1884915862464
1731141091.3933144,805.4198974171903,805.1113773341875,802.4920893983901,790.3257640988572
1731141091.394686,783.5897602179505,804.8037613803091,801.0226208716549,784.5263114693533
1731141091.3972025,768.4702625323577,804.832145992483,799.6769204626644,781.5423857947093
1731141091.3996408,776.2824493322984,805.6310543189093,798.7877013712744,787.5255970203527
1731141091.40109,803.1785573782963,807.1995307439,798.1839200905989,800.9545152328953
1731141091.4049778,827.5765247507638,808.6836557504731,797.3283403713599,813.1474021484538
1731141091.4072368,827.7939969804869,808.6019727600326,795.7692734853754,815.1742023698064
1731141091.4088657,800.3687509543396,805.8188521856407,793.6184640460986,805.3410164016898
1731141091.4127536,763.7180539541208,800.5513188656109,791.6936901073377,790.8274894149137
1731141091.4135334,743.89007190515,794.528766758431,791.1240092220165,782.1049105332753
1731141091.4152205,753.9840845807307,790.1629916913064,792.5927190042263,784.9840271299853
1731141091.4166417,784.0716039001358,789.3613971518964,795.7378988498053,796.9814418791725
1731141091.4205291,809.8031209821654,792.7012064475585,799.2244309683508,810.5191088586288
1731141091.424417,812.4476398785981,799.2636336628525,801.5690770260728,819.2724214374222
1731141091.428305,793.6846464505306,807.0545726562801,802.2087596938583,821.8642220486968
1731141091.4308,773.0305451887067,813.7948895087125,801.9915283560289,820.7929748925068
1731141091.4321928,770.528002114875,817.7797097306471,802.573849719465,819.1756900398744
1731141091.432381,789.6052901838792,818.4292558972832,805.0504434765661,818.6178798459623
1731141091.4360807,814.409082056833,816.268562656921,808.8988166953053,819.1190137940733
1731141091.4399683,823.4096589487297,812.4341696800615,812.2184120599916,820.0038662770776
1731141091.4421587,807.6373025459826,808.1129054602857,813.1885778102395,820.7341577136536
1731141091.4438562,778.5168633325326,804.2475451978628,811.5598386386131,821.168519458103
1731141091.4463797,759.05400931345,801.4912607511677,808.9103177537053,821.4251487275036
1731141091.447744,765.5741582983122,800.1785656967123,807.4489849184368,821.6602384882341
1731141091.451228,794.6864146749298,800.2232250488769,808.3368916097551,821.948886977056
1731141091.451632,825.9589408554214,801.1085174087083,810.7951401326457,822.2845441352612
1731141091.45552,838.237423754064,802.1357339150978,812.5771085271972,822.6297790233057
1731141091.4594076,826.4676228437015,802.8288394497172,811.4184638334107,822.9573932598968
1731141091.4619591,805.3384889753236,803.1925245618606,806.5321948719248,823.2616984728961
1731141091.4632957,796.8107130852992,803.6317717179924,799.2480833792314,823.5499235177625
1731141091.4671834,811.8586503588715,804.6231645752359,792.3499130492223,823.8304498312443
1731141091.4700756,841.3873652755383,806.3687849309784,788.3978368134885,824.1070342567018
1731141091.4710712,863.5498876588068,808.5852095814308,788.0830057531927,824.3792158551523
1731141091.474959,861.3439393847298,810.4863088771358,789.8647360006155,824.6451281064235
1731141091.4770806,836.3717603227705,811.0329070239266,791.318300311882,824.9035891572237
1731141091.4775388,807.95163655396,809.4792687972424,791.2045445239174,825.1545744400445
1731141091.4788468,798.2954711418109,805.9902770418112,790.5168808308273,825.3986931833576
1731141091.482735,815.272428878846,801.8550804854816,791.5314221582441,825.6365563872414
1731141091.4866226,846.2562976312373,798.978021746328,795.6211348261772,825.8684917640355
1731141091.4889233,868.0576092778916,798.8785687213625,801.7362031482133,826.0946008026157
1731141091.4905105,865.2143119858698,801.8631838000086,806.9317284964284,826.3149580057025
1731141091.4931183,841.973245738325,806.909049481411,808.5614337112872,826.529769687451
1731141091.494398,818.1891524463146,812.2643889956191,806.2707578586147,826.7393874460973
1731141091.498286,812.5815095723799,816.315284145917,802.0709545233449,826.9441435109389
1731141091.502174,827.3582819556833,818.1975789539833,798.5625781544601,827.144078301457
1731141091.5060618,846.9584694407697,817.8892967469008,797.0848678049136,827.3387901608564
1731141091.5077703,851.6119925717712,815.8820399456331,797.3297575421225,827.5277401959718
1731141091.508698,834.0784461928986,812.7751226398271,798.2394603895108,827.7111443589156
1731141091.5099497,805.6996709167621,809.1084634120125,798.9929501606952,827.8909324548239
1731141091.5120022,787.0583060722595,805.4663785558275,799.3508423394336,828.0704789094095
1731141091.513837,791.0989482837871,802.5826975565077,799.4625693360223,828.2518765795485
1731141091.5177252,812.5867858223112,801.1535152228868,799.5478248834607,828.4314604243166
1731141091.5216131,832.7192830872043,801.3807740047262,799.7181031451681,828.5977650950884
1731141091.5242774,835.3395664509122,802.6406693009119,799.9683669031335,828.7381117271034
1731141091.525501,821.1751915494688,803.6989646095732,800.2465287718346,828.8556947621926
1731141091.5266178,807.4951696525616,803.4883244376397,800.512795665978,828.98625997367
1731141091.529389,812.690142091839,801.962712917806,800.7575211274648,829.1895921136155
1731141091.5332766,838.7334248911196,800.387832592099,800.9900508122946,829.4947861449544
1731141091.5371644,867.2166316960584,800.7336604866989,801.222064042949,829.8175996889382
1731141091.5398571,873.4104232896221,804.3850666217625,801.4589564791189,829.933138064586
1731141091.5410523,847.0214963745186,810.8807653755019,801.7000628152965,829.6174183579471
1731141091.5449402,802.0878848461674,817.57630160048,801.9425397750751,828.9773942916884
1731141091.5454652,767.4237484837805,820.7747895493721,802.1843960931046,828.7438359129385
1731141091.546924,765.1678474549142,817.9513700051388,802.4252625892109,830.0647969147278
1731141091.548828,794.4286673920952,809.6994034631107,802.6657096940994,833.4766842600941
1731141091.5527158,832.5255344203397,799.8350475348233,802.9063670521747,837.5785381006083
1731141091.5554366,852.4194903203867,793.2222664007716,803.1475081393156,839.0175888584928
1731141091.5566037,842.7346077293707,792.6838704044972,803.3890942861194,834.9023507638183
1731141091.5604916,815.1776781099637,797.3071879303541,803.6309886442069,825.9226287794587
1731141091.5643125,794.0349889551803,803.4821757634298,803.8731094917304,816.5451621464279
1731141091.5643797,796.3148724944704,807.7876183865097,804.1154616616735,811.2106251320039
1731141091.568267,818.3554420069682,809.3330937537801,804.3580959332355,810.0088312535822
1731141091.5710163,839.4329470326619,809.7618960648609,804.6010628196285,808.2679342659493
1731141091.572155,839.1251415727562,811.2281621561795,804.8443928082188,800.7768038665968
1731141091.576043,814.127257842217,814.2986522669968,805.0881003035167,786.9956342442532
1731141091.5799308,780.9902353603421,817.502244555004,805.332195281577,772.6577129185442
1731141091.581846,762.9712339428413,818.6159842438842,805.576690964364,766.1535515759733
1731141091.58316,771.8967136753992,816.3832547638052,805.8216049749443,772.3031357296182
1731141091.5838184,799.4282954503856,811.3303710922462,806.0669569533644,788.2555930723531
1731141091.586596,824.2474499962881,805.3599476225264,806.3127661233607,804.8385121922736
1731141091.5877063,829.1125794142663,800.7233637340287,806.5590503419979,812.7236174493195
1731141091.5915942,814.1285193525661,799.1111356272831,806.8058263717764,808.9863154402193
1731141091.595482,795.6272750752879,801.1641182220935,807.0531105111279,798.933846852628
1731141091.59937,791.6643851434964,806.3232807731601,807.3009189926629,791.5415446500044
1731141091.6020074,806.2697597640524,812.9248429916188,807.5492680224336,792.1155811910303
1731141091.6021757,825.8576556427186,818.6256376722216,807.7981735859652,798.3259282833367
1731141091.6032577,831.0239567590016,821.2304323470117,808.0476511807115,802.9068017908318
1731141091.6071455,813.7658409308833,819.6655787747216,808.2977156175676,800.4503055223876
1731141091.6110334,785.3422959289976,814.5150428074378,808.5483810561632,792.1909056273926
1731141091.614921,767.8093355929096,807.6562708148745,808.7996614086858,784.6813733976994
1731141091.616768,776.0276948819669,801.157369739293,809.0515709930467,783.7957699647535
1731141091.6177552,804.9682528233562,796.2065881514347,809.3041248401782,789.4961945633673
1731141091.6188092,832.8952107450216,792.8350325112411,809.5573377659723,795.9118663038505
1731141091.6208546,838.2370377397073,790.5229500878099,809.8112219100685,796.5770160885623
1731141091.6226969,816.9096489388326,789.0533587636611,810.0657842621927,790.276714866243
1731141091.6265848,786.085696994232,788.8497583847536,810.3210277313628,782.4376703535604
1731141091.630473,770.774903331335,790.5742292244305,810.5769588863959,780.7356547321464
1731141091.6333346,783.5148132763312,794.4176208348946,810.8335999553512,788.5400179429356
1731141091.6343606,813.7862318208544,799.7011652640906,811.0909932843491,801.8214739518161
1731141091.6382482,836.3802254417448,805.0708234692468,811.3491817669272,812.3084752189121
1731141091.639702,832.1698316297566,809.1117730196182,811.6081618144106,814.2692027994304
1731141091.642136,803.9667383597855,811.0009257242511,811.8678408068301,809.0916205659872
1731141091.646024,774.0865865683576,810.8614308475969,812.1280668218183,803.7643996258391
1731141091.6489143,765.7202112657309,809.6378587564478,812.3887833073334,804.6624364296783
1731141091.649912,783.8020216454039,808.527552597799,812.6502496000127,811.9478366531678
1731141091.6516898,811.2321710501885,808.2695171937149,812.9130940786337,819.1794766267337
1731141091.6537998,823.2929432699893,808.7444363765603,813.1779006803863,818.3581435899993
1731141091.6576874,808.0786973457954,809.1675949247849,813.4443108627501,806.3681475307421
1731141091.6585495,776.0402594253009,808.7164841167406,813.7103037219373,787.784635683953
1731141091.6615753,750.9264501771502,807.1052507717852,813.9729371043263,771.8254144850903
1731141091.6644938,749.8875810767524,804.7222070774109,814.2314104371552,765.738993992385
1731141091.6654632,769.5612822576535,802.364119747283,814.491076710835,769.788045391916
1731141091.669351,789.8752098054816,800.8799821662637,814.7638304771831,777.8085473588336
1731141091.673239,792.0975844798676,800.9201001312374,815.0595003535409,782.7640440722437
1731141091.6771266,775.3718407043622,802.7173956648377,815.3688253593375,782.5212431382383
1731141091.677397,757.4457084355486,805.8270573191942,815.6515963164638,781.0077594679587
1731141091.6800735,759.1830917791901,809.0361921409979,815.8540476494867,784.0645413677241
1731141091.6810143,786.2879138696236,810.7735724864904,815.9690032331202,793.8496784822144
1731141091.6849024,823.5992872874303,809.978221291679,816.1080090962929,806.6031978680127
1731141091.6866114,846.4712722440831,806.8509603779153,816.4963464964974,815.4870846938811
1731141091.6887903,839.8602665152242,802.8699116027163,817.2954156281041,816.0344035321374
1731141091.6926782,809.9704736558114,800.040211790918,818.2802836539854,809.8108854734273
1731141091.695653,779.5044099561359,799.9442791538745,818.6446848166524,803.3768091765088
1731141091.6962442,770.3580788378013,803.1343039340654,817.3372709225462,803.239630492563
1731141091.696566,787.1807284616049,808.9396223372439,813.9524829544579,810.6319386060252
1731141091.7004538,814.5030254569442,815.5418732498913,809.3974942451767,820.3082651523952
1731141091.7043417,829.5968874391818,820.3998537739346,805.3674626452377,824.5673604844433
1731141091.7082295,820.7659976365827,821.2137659378898,802.8104581021557,819.4448185025971
1731141091.711233,796.3491105674834,817.1665178900669,800.9295212068783,808.0520545128015
1731141091.7121172,777.4267986997959,809.6255471025883,798.0102398622655,798.3171642736314
1731141091.7150917,780.8706568093129,801.6372062013404,793.4661918557787,797.060346262283
1731141091.716005,807.1002566161279,796.4231307962831,789.0209754990467,805.270725171978
1731141091.719893,841.8851736021562,795.83760725298,787.6242028049845,818.135994424766
1731141091.7215333,868.7019534720807,799.675882116764,790.9120467786954,829.1879728838888
1731141091.7237809,879.8774308706339,806.0537528881626,797.4930999562118,834.711318543305
1731141091.726812,878.3241167461555,812.483937097596,803.6307535889921,835.078912490894
1731141091.7276688,871.64269758558,817.0557130964505,805.8086888125698,832.9570976397555
1731141091.7315564,865.7344151477711,819.1441075856048,803.1692501396038,830.78736371395
1731141091.7339392,862.4692966288325,819.2825247695625,798.0344591368801,829.5669622379439
1731141091.7354443,860.9418367206001,818.3410895428043,794.2217314462374,829.1071051023737
1731141091.7393322,859.660151989155,816.7322107944177,794.4144455643765,828.8459832608374
1731141091.7423918,857.825750661065,814.3756927734187,798.4187894002267,828.4186067154608
1731141091.74322,855.4413926841062,811.3733575050611,803.4322442125836,827.7746304394501
1731141091.747108,852.8538888111775,808.5380370781205,805.9858532806326,827.031056323311
1731141091.7509956,850.3416628593187,807.0718086974157,804.0777539764285,826.3039199639886
1731141091.7527864,847.9798979217054,807.6688027650237,798.0707602393061,825.6364063073738
1731141091.7548835,845.7094639425121,809.9535334120875,790.0659242948208,825.0134240683991
1731141091.7564552,843.4504349698932,812.7387800256275,782.6028107705557,824.404266809747
1731141091.7579713,841.163864204811,814.733410969258,777.6818795083302,823.7907003974686
1731141091.7587714,838.8527253815453,815.0837725699741,776.3765300726199,823.1712394033453
1731141091.7626593,836.5361186963447,813.5599268728774,778.7076385487256,822.5525174668223
1731141091.766547,834.2281035353799,810.5434788269392,783.6105815551402,821.9405024707048
1731141091.7704349,831.9317514612216,806.8746089363821,789.2465677537176,821.3371348147642
1731141091.771634,829.643465681366,803.4950511681753,793.7932697431354,820.7413990754018
1731141091.773551,827.3590178922452,801.0283746350804,796.2773295325304,820.1516336072731
1731141091.7743227,825.0765381097078,799.634416361345,796.8290481887611,819.5669284790479
1731141091.7782106,822.7962938242658,799.2372423769099,796.2802807462654,818.9872522882058
1731141091.7820983,820.5191962448303,799.8034714559504,795.6021462802739,818.4129440556022
1731141091.7859862,818.2457113789687,801.331869894102,795.5932102620493,817.8442457118036
1731141091.7891307,815.975732230077,803.6378178938933,796.7429955264408,817.2811583866983
1731141091.789874,813.7091005244826,806.285048458574,799.0465500927182,816.7235636211491
1731141091.790481,811.4461265874863,808.7807704365531,801.863659325017,816.1714169261525
1731141091.7913773,809.1875035570781,810.7805019501379,804.1375416790302,815.6248319564805
1731141091.793762,806.9333858463689,812.0625668976008,805.0131894426034,815.0839488963882
1731141091.79765,804.6821576511338,812.3690204258698,804.4153118618214,814.5486202341159
1731141091.8015378,802.4303150668712,811.3907189751802,803.0627604413153,814.0181623884733
1731141091.80471,800.1750195690114,808.9927905622244,801.8939890034192,813.4915938707411
1731141091.8054254,797.919062294637,805.4945592245385,801.4371533684088,812.9686223029911
1731141091.8093133,795.6741854292529,801.7294301433415,801.6378125155505,812.450921126665
1731141091.8093288,793.4557644560014,798.7365953640456,802.1355949784856,811.9422259562501
1731141091.8132012,791.2651459156478,797.1793146200316,802.6162294051127,811.4455536896784
1731141091.817089,789.0689557375861,796.8591882177277,802.9641158732941,810.9577767520766
1731141091.82029,786.8014410839612,796.7976743131738,803.2155838859153,810.4659328937927
1731141091.8209767,784.4169935212793,796.0199324008618,803.4477119171978,809.9529358720346
1731141091.8248646,781.9830713012594,794.5169764573178,803.7063265784375,809.4168548673914
1731141091.826299,779.7320536485004,793.5174408603202,803.9949878777832,808.8937370718795
1731141091.828176,777.9422438727174,794.6781128926713,804.2967962004657,808.4555034771074
1731141091.8287525,776.5945964284808,798.7571555489972,804.5965921118965,808.1529316840393
1731141091.8326404,775.007376071369,804.8265790679832,804.8894249180821,807.9138311680535
1731141091.8358693,771.9527336551864,810.626523202874,805.1778183580093,807.4851895636781
1731141091.8365283,766.7316714647028,813.7638307896643,805.4659264037864,806.562321193896
1731141091.840416,760.9365520330449,812.9534292528801,805.7560029177731,805.1671880804134
1731141091.8443038,759.3140794110195,808.6449841452965,806.0480713641655,804.0621508254399
1731141091.8470235,767.4748772714262,802.7931200956917,806.3411763530536,804.6621680212596
1731141091.8481915,786.192598383298,797.8995515917336,806.6345333382835,807.9615480830936
1731141091.851449,806.877602601398,795.7881995040312,806.9279164383915,812.8936837267099
1731141091.8520796,815.1090156867665,796.7967670035615,807.2214763066092,815.9091125148083
1731141091.8559675,802.4529370347376,799.8759152209465,807.5154258781905,813.3429781124172
1731141091.8598552,776.2042057434197,803.4474145382637,807.8098642558056,805.1054716388079
1731141091.8612206,756.0490984385419,806.3159117957225,808.1047695226371,795.6605365853984
1731141091.8637433,758.820433163443,808.0074100155792,808.400071048257,790.4439989415391
1731141091.865871,784.3882024291271,808.5182797547644,808.6957163930547,790.8667993808085
1731141091.8670285,815.1989871661237,807.9598734705718,808.9916990158426,792.8557047518918
1731141091.867631,830.2430079955552,806.5184096401081,809.2880479921346,790.551539806548
1731141091.8715189,821.9939361085516,804.674758192695,809.5847891817239,781.92312985303
1731141091.8754065,802.2393660456688,803.2685202217158,809.881892367867,771.2168838830887
1731141091.8792944,791.7825870345357,803.1096371566189,810.1792400391173,765.8719596568204
1731141091.8826082,802.4849164856976,804.3380190630919,810.4766754797704,770.3900458399523
1731141091.8831823,826.8048926221228,806.1295307635896,810.7741619378075,782.3952208745126
1731141091.8847182,843.8800173612124,807.1878443851381,811.0719730544918,794.2948130878052
1731141091.8870702,837.208476049302,806.7692785979065,811.3706841090022,799.1703388367046
1731141091.890958,809.0898862582765,805.3746170080062,811.6707147195116,796.0201986413886
1731141091.8948455,779.6549975773802,804.3973027620082,811.9714923770425,790.1821101342356
1731141091.8961425,771.1415915354399,804.9377756073648,812.2709485674726,788.814455161072
1731141091.8981876,790.1607029634882,806.8255705746228,812.5665203264277,795.1649785990683
1731141091.8987336,822.2177570923386,808.7472369397932,812.8581981237195,806.0477127797262
1731141091.9026215,842.8759649987057,809.3291888345071,813.1519040710317,814.3153241859163
1731141091.9035656,836.7702870223479,808.1158506137307,813.4587277169961,814.3540521661536
1731141091.9065094,809.4389240142756,805.5685987994925,813.7856344471558,806.4093223980855
1731141091.9103973,782.4810526951255,802.3030962462419,814.1198387549476,796.385132112111
1731141091.913767,775.8375344509861,798.583068471538,814.4211458753008,791.1972419346342
1731141091.9142847,791.6168937255089,794.6737348848665,814.6439367744608,793.3775728129874
1731141091.9181728,812.8332611574766,791.4869360020977,814.7960732251253,799.408090335549
1731141091.9220607,818.0420236523056,790.4368965243028,814.9978018682013,803.1890436018218
1731141091.922413,799.5227181827746,792.2894989652511,815.4542061826589,801.5842345691203
1731141091.9259486,769.8839502940792,796.1005599587099,816.2640444098953,797.1700701121231
1731141091.9293468,751.9065593566933,799.5332140402734,817.11805184443,795.8337664251628
1731141091.9298365,760.2219075977544,800.5579343250855,817.1547419007251,801.3631218042946
1731141091.9310644,789.614240142626,799.0883279399377,815.3186929978067,811.6554207426406
1731141091.9337242,819.0414176059917,797.0488174287282,811.2256815777981,819.7422261340109
1731141091.937612,828.0460817871519,796.8078352178161,805.9151401031789,818.9273639461253
1731141091.9412603,812.6502674758601,799.3896286947731,801.669576267513,808.0900032009046
1731141091.9415,788.1241799162765,803.9460317872142,800.7507449874676,792.9798490038733
1731141091.9449265,776.1583691070084,808.6802542258116,803.8815513221302,782.2992111140137
1731141091.9453878,786.5674603100293,812.1699184184013,809.627560594195,781.4283917781688
1731141091.9492755,808.6708805687454,813.9965409081574,815.1978463502161,788.6874800714282
1731141091.9531634,820.0475325592155,814.5030720774275,818.1313642780887,797.1637398854466
1731141091.9570513,805.8511348788421,814.2380360870243,817.6984526798898,800.6021237823154
1731141091.9601078,772.5342905517385,813.589987150479,815.0919112579755,798.4325079633128
1731141091.9605062,744.0878798562109,812.6771013514646,812.3596366700849,795.7739713605762
1731141091.9609392,743.3671296836163,811.3701026549771,810.8595343073526,798.5931147117253
1731141091.9648273,773.4833979898399,809.4343641153712,810.2885826010205,808.2702049004525
1731141091.9659865,814.3809914969983,806.7997878818468,808.9789556038988,820.1909347692715
1731141091.9687147,837.7147148858138,803.7878338508569,805.351793869552,827.5104594159399
1731141091.9726026,828.6096818468644,801.043946070706,799.5273136297282,826.8934867906742
1731141091.9760857,797.1662117206524,799.1657303474425,793.7261542233152,821.3104037993983
1731141091.9764905,770.3274267145897,798.3559326341468,790.8371376432044,817.3177167629892
1731141091.9789553,770.2825097001497,798.4405267999438,792.1049517398972,818.9753678526348
1731141091.9803784,796.7035296012214,799.2031235142728,795.9547658180901,823.771386829337
1731141091.9842663,827.37073576693,800.6194902963805,799.2271424307727,824.523097135215
1731141091.988154,836.7342076292223,802.6782124186127,799.907409161111,815.9635647272613
