timestamps,eeg_1,eeg_2,eeg_3,eeg_4
1731697658.87981,769.8185732182469,805.4968441248459,732.8299034736231,808.8722933597157
1731697658.8953795,759.9015391675028,804.2388070000261,713.5013024275526,804.2061557852765
1731697658.902712,761.7022049868604,803.0295493691068,693.8810760615906,802.1523597004106
1731697658.9109488,782.3358043914916,803.1864823106839,689.8456559489925,806.0113097642484
1731697658.921576,816.8374978955704,806.7819656020916,727.2600944929067,817.3690961734459
1731697658.9265182,843.1987108957067,814.4565901722484,814.1092431675693,831.9166961678781
1731697658.9307027,830.5600264510208,823.7221474533154,917.7296793607125,838.913399850741
1731697658.934594,762.6379438330068,829.9620969959414,976.5501311687764,828.0062980991323
1731697658.938485,660.2336450837163,829.922345859794,946.6087209903005,799.5905281529386
1731697658.9404402,578.3489891106863,824.7272169649884,845.5589512706504,768.7827519159389
1731697658.9420877,570.1090960740296,819.2867489357998,749.0758490008564,756.2889263350392
1731697658.9423757,641.5616258022886,818.0712353315602,732.0914224010037,771.3096018935092
1731697658.9462664,738.1063092392715,820.9159152422031,801.3327531754005,801.4599575447548
1731697658.9501574,782.6323200610009,823.0143673960603,883.4685082785779,821.2524076008503
1731697658.9540484,739.4475486416579,819.5497486449464,888.5746888924747,814.3503962018289
1731697658.957657,648.2250560493877,810.7463133639367,795.9649498512323,789.900241500649
1731697658.9579391,592.2201906316863,802.2392738129122,679.800888571183,775.842711602255
1731697658.959304,623.7067981294012,799.9791646841658,643.2290799326928,792.8323839035468
1731697658.96183,713.80400724363,804.4938770138308,719.4305106956425,832.6006937166262
1731697658.9657211,776.9919096770338,810.4187005088668,836.4992764774659,863.0735474564801
1731697658.969612,752.0055921887886,812.0946182445252,884.937278037255,857.9218637678131
1731697658.9732263,663.7052561969984,809.5929593068787,824.2304618209052,823.1921468195293
1731697658.9735029,603.5557768924434,808.6615726938084,722.2476444359954,794.0021529810531
1731697658.9773936,642.6862971145731,814.2873891842748,686.2119554451438,802.0960132378159
1731697658.9781682,759.4799754113617,824.5830250439917,753.9404690543473,844.3411814673523
1731697658.9812846,854.5820048263868,831.8329173101647,856.1359313895222,883.5206795390403
1731697658.9851756,844.2014943697252,830.1606678090375,889.2356186275517,882.8645797088282
1731697658.9887958,744.5922587496154,822.0050832952679,824.9346242480141,842.4932540262686
1731697658.9890664,663.8262995875549,816.3021555640574,743.1310122170178,802.0285541380597
1731697658.9929574,702.7593486995654,819.6163711436222,751.4704683510485,804.6207990791148
1731697658.996848,855.7558029239497,828.9809441626588,870.5952570767813,855.0149301921826
1731697658.9970322,1006.8651303091639,834.0076587901974,1002.11012677756,911.7839443052412
1731697659.000739,1030.206894054465,826.8150902860052,1016.6401534240148,922.9297023512054
1731697659.0043652,904.9185851023421,810.3991062310664,880.5187966299123,873.2624652345922
1731697659.00463,738.6201671552302,797.1884761201374,698.8449614587399,799.9959335432844
1731697659.0085208,675.6164132267133,798.7229470024604,629.8903146782427,761.4742685103204
1731697659.0124118,771.0916350912518,815.7372072467797,746.4951981836196,786.5877098401826
1731697659.0158963,943.663797409817,837.4354716001313,969.6249964218359,850.0253327986323
1731697659.0163028,1048.0090984546525,850.1715738528113,1133.2564513788377,895.2354271303127
1731697659.019935,1001.9443402848658,847.5550226579234,1122.3609894001424,884.2754124792756
1731697659.0201936,855.2467260293544,833.6618529955867,964.3283559415406,830.1747256733939
1731697659.0240846,741.4393019300354,817.9985394461244,799.3825566172418,783.7309692514707
1731697659.027975,758.5580489838131,807.9068356885992,761.2455425156023,787.5967039397333
1731697659.0318663,886.0308970234048,804.8337705147268,871.1549851582711,839.092486544934
1731697659.0347602,1008.8568924953805,805.9163888083118,1028.968924954075,894.123166585525
1731697659.035504,1022.5194724149682,807.663061741731,1099.4042990917387,907.0609353960281
1731697659.0357573,922.3506927820881,808.267640798227,1016.8652692234805,870.0510259761713
1731697659.039648,800.2684935723812,807.7035135630219,827.1789168110765,817.550437921205
1731697659.043539,758.0445941958917,806.7016981516576,642.9073666143408,794.1695500591629
1731697659.04743,819.0105694162065,805.8543276880954,556.3392168652285,815.9472683336129
1731697659.0510733,915.558778699956,805.3213246330864,579.1146317312495,858.9271404075071
1731697659.0513208,956.9710268229692,804.9760839527761,648.5684597766839,882.8376679648057
1731697659.0536244,910.7334463682256,804.6476759055294,687.3787595351293,866.6912694387942
1731697659.0552118,824.3422405755006,804.2528256546702,665.9833899350211,824.699726511922
1731697659.0591023,774.0560077033122,803.7979299089599,619.9962563978265,790.6215540131794
1731697659.0629935,793.4899299929339,803.3239129151553,612.1812557015479,786.9952169282791
1731697659.0666428,848.2218157145818,802.8609562343285,672.7458152470233,807.2926324798598
1731697659.0668845,875.0624933254658,802.4157542398863,769.553789589072,825.1860371112526
1731697659.0707753,844.117655025457,801.9807113507472,834.9549888330596,820.1125615195714
1731697659.0724883,784.3751032789105,801.5468233298345,825.8413954698403,795.0818731925862
1731697659.0746665,752.0052412806565,801.1100945738497,761.5851399412055,771.8513904880783
1731697659.078557,775.276598658471,800.6711693326478,702.984332422191,769.9930910391935
1731697659.0822122,829.2100228073588,800.2322774859242,691.0360458648865,789.8703737271965
1731697659.082448,861.6670380850571,799.7949313955311,705.1743466612734,814.0133894128949
1731697659.086339,843.2223208623914,799.359376789343,684.2394333814806,823.6892563730049
1731697659.0902295,792.8108207102114,798.925132998779,592.2624651138929,814.4847993578594
1731697659.0913525,756.6879311048476,798.4916678510145,464.526223469358,797.4157506397951
1731697659.0941207,763.1602116367395,798.0587340903962,385.58911140242117,786.4526327836386
1731697659.0977814,797.0490791485361,797.6263883415153,416.5326871252933,785.4446383096745
1731697659.0980115,817.1862743931588,797.1948744324283,539.4102169021905,786.582611552138
1731697659.1019025,798.566916020758,796.7644561086552,671.7681001323151,780.641949964984
1731697659.1057937,757.8401173659759,796.3351809586288,737.302997101008,768.0309224477755
1731697659.1096842,737.5787775064348,795.9066301674508,725.9577153184948,759.4766807294391
1731697659.1102164,764.5254340759648,795.4779237492867,689.5363461012769,765.607611470106
1731697659.1133509,821.8459839165412,795.0483367398864,682.8642520802485,785.5433118066752
1731697659.1135752,862.2713259076213,794.6184929199839,711.2153138375461,805.7441564577557
1731697659.1174662,850.7317358315322,794.1911982482402,733.6426048836652,810.9191720876604
1731697659.121357,797.3607097206234,793.770227488902,713.296477373722,797.4706101551913
1731697659.125248,749.8819924739237,793.3561016893613,659.5436155975461,777.0966945461262
1731697659.1289203,751.0732571229537,792.9409928998882,617.8138615578605,766.6649767150961
1731697659.1290803,799.3300621025732,792.5090021500818,618.8926630245599,773.0484075262366
1731697659.1291387,848.9649382133448,792.0485366876568,642.7054849014607,786.8762259330222
1731697659.1330297,851.8629775293736,791.5748487039251,637.5968954461305,791.6327777368763
1731697659.1369207,803.7531715219048,791.1434586197557,577.8097129047509,780.278726303317
1731697659.1408114,751.6079064350048,790.8228772824272,499.1163378707464,763.5730558140583
1731697659.1444898,752.0680235794957,790.6123488817851,471.4875280170155,760.9055441209728
1731697659.1447024,816.3084982135052,790.3514441337041,531.3861925351742,780.8024084874999
1731697659.1479445,892.6582454653106,789.7426868342882,639.922240758906,809.3864553978856
1731697659.1485934,907.3153841669816,788.6060191575322,710.880458746324,819.5337725272129
1731697659.1524842,831.1351198425149,787.3081314934418,685.6574228503413,794.9187581574901
1731697659.1563752,713.6763740045333,786.9911131862488,586.3905616304208,748.081095643819
1731697659.160059,650.4320287656031,789.0529149080885,497.9869278143267,714.663742544888
1731697659.160266,705.9059450736307,793.7995313449077,494.6911357780937,725.8491630671077
1731697659.1640952,855.3841834693819,799.3620288364078,576.2777995146996,780.9479128166637
1731697659.164157,996.577061957939,802.5450817749992,669.3779773131554,844.1908632321004
1731697659.1668086,1026.661673013482,801.6173056502596,691.8157801668689,870.9163400071097
1731697659.168048,925.0113004388261,798.3836340592759,623.4668458801572,843.3817538861356
1731697659.171939,772.9600565796184,796.8503848810949,522.1961789255403,786.462609157636
1731697659.1756284,690.3420926814007,799.2626787209919,471.62261469870725,748.4953298928016
1731697659.1758296,738.0603887257687,803.4439494140753,507.35031823631743,761.6278986259488
1731697659.1797204,867.9202983598773,804.4154251032567,587.0581909171343,814.6930990522728
1731697659.1836114,963.8494779501169,799.0215002567936,629.9468122077118,862.2840817200896
1731697659.1856723,940.9292430688233,789.1859870573115,588.8981014187847,863.0733200878581
1731697659.1875024,818.1137209740531,780.7219871499917,491.5809706954459,815.0529203110092
1731697659.191198,702.6534927600026,778.8893511636968,417.28093294205075,757.8079163998495
1731697659.1913931,699.6626053390208,784.7172868483725,432.4620173391656,739.9167540299608
1731697659.195284,823.1183805496503,794.919220147895,538.9408975193649,778.7151029121582
1731697659.19881,982.2543346248841,804.7618743568232,673.0073566777411,845.5911529171162
1731697659.1991751,1054.0850699525772,811.1357217673149,752.4197690017829,888.6452405430863
1731697659.203066,982.3643213261502,813.8035598007611,735.4390817038318,874.095623165006
1731697659.204537,822.5004897609541,814.7560844066894,650.8709812983443,812.9014834030002
1731697659.206767,696.160537052641,816.6070660714455,578.2427225044796,751.2750547187234
1731697659.2069569,692.3908013887793,820.7963910436222,589.6176803012493,733.0214790094916
1731697659.2108476,795.8514842237515,826.254962306641,692.2439022054898,764.5390824084219
1731697659.2147386,901.5949415429193,829.4945164729602,815.9272182253152,811.2461061258994
1731697659.2186296,905.0556908326024,826.7399317613463,860.8475550335918,828.2905012915096
1731697659.2223363,792.6095576865686,817.1104820776192,774.899807348804,799.6269203083035
1731697659.2225204,656.2245793077991,804.3486042169618,601.3215838825106,752.2978851407992
1731697659.2234006,618.7672215640902,795.1709600595283,455.53655769007923,733.6671514179372
1731697659.226411,731.3682852002015,794.9869997772826,443.78412324312353,770.6589461592423
1731697659.230302,927.4741541874322,804.1711694440012,582.4336662346758,845.1095457145407
1731697659.2335243,1071.5079000690846,817.9069058370782,779.5030335828229,905.927423552276
1731697659.234193,1063.514760821466,829.7256398019705,896.7544776885484,908.6384559503348
1731697659.237906,916.8063505258116,835.7266850513719,851.4728833349752,850.7277802157237
1731697659.238084,747.3575091090322,836.1413804322514,682.7289489285869,774.4021670233033
1731697659.2419748,683.2661677870998,833.7072123842079,526.3892941297116,734.1728013704512
1731697659.2422647,765.4482393699424,831.065705615437,510.5067765496955,754.6730154193485
1731697659.2458658,917.8404969076595,829.3793246149748,650.7445069133511,812.1963290948603
1731697659.2497568,1010.5588238738771,828.5175845171734,834.2177007189791,854.7760145551947
1731697659.2534754,965.3415436716865,827.8982547317603,911.392393548303,844.7334232830244
1731697659.2536476,818.5156588275222,827.116023881367,822.0734048891459,789.3850507769738
1731697659.2575386,691.0290097748805,826.0972392713662,647.5176853970798,735.1440472783019
1731697659.261129,690.438782077018,824.9575838889986,542.2832708722465,729.9671780136073
1731697659.2614293,824.4060873609199,823.8220786952598,603.8291716565692,784.5740187869969
1731697659.2653203,994.7342782429841,822.7417114952572,791.1232752953083,863.3862868275983
1731697659.268239,1075.2411834409597,821.7038056151872,959.4644960360719,911.9137344143337
1731697659.2690449,1010.2232561666481,820.6762387687337,979.4218497851389,898.5003927817125
1731697659.2692113,855.6100953000303,819.6385941518676,839.7261223059068,837.7012608073724
1731697659.273102,731.7324843973297,818.588233967376,650.9058640901033,777.5814835834267
1731697659.276993,726.9050738200951,817.5317997301958,550.146648132381,761.6188210281539
1731697659.2799926,829.6690920082308,816.475759818781,588.8950077085442,795.6321376727068
1731697659.280884,943.8540269620976,815.4224550242047,697.7249423642438,845.8466338682535
1731697659.284614,972.6334550394292,814.3709807002734,756.5289927785614,868.8888608586346
1731697659.2847748,900.5568114495074,813.3195985676539,706.7283363075081,848.3784061610256
1731697659.2886658,804.5846588615168,812.2672968164345,605.2847198790707,807.613616022653
1731697659.2925563,785.7376449358748,811.2140006400917,572.6585323102796,788.30154931906
1731697659.2964475,880.3600904822661,810.1600600298667,682.3464044706496,813.9774367562836
1731697659.2988567,1026.2781496780747,809.1057463543284,890.7562474430738,869.1586339589065
1731697659.3001835,1111.8008009184528,808.0510919935844,1067.7862237961785,911.4159799241424
1731697659.3003385,1066.6600137793691,806.9960253503654,1099.7667572117873,906.0643720285569
1731697659.3029535,920.5882317273451,805.9405803188753,977.892691214956,854.9911248293669
1731697659.3042293,781.8813369324231,804.8849555168449,802.0574152573503,796.1262852867497
1731697659.3081205,752.2829605186303,803.8293016381714,700.5298947499394,773.5933049208146
1731697659.312011,846.0852212272298,802.7733253737065,731.2209870485952,802.3116887184519
1731697659.315753,979.5409455344253,801.7160846540927,842.1573890668654,855.989962123396
1731697659.315902,1040.4259879388562,800.6565005601165,920.4405766101397,888.9327206659342
1731697659.317721,980.7552422554195,799.5947532353864,887.8365484634821,874.0161895290997
1731697659.319793,854.8879017621505,798.5336849150123,763.4749327233178,825.0701171150268
1731697659.3236835,770.8163541315824,797.4781804393997,642.2656288442531,784.6575806901088
1731697659.3275747,796.6539913734302,796.4307520248412,609.8903318784637,787.6289039375042
1731697659.3313224,902.5418403714907,795.3847187256855,669.504853601284,831.4578359212267
1731697659.3314655,986.8416418710915,794.3217069120946,742.9976819783907,878.2774333328622
1731697659.3353565,962.9394249034876,793.2228364432322,742.4998140416907,886.3924556899266
1731697659.3365848,832.7749489344849,792.0954860935066,647.8141492698484,844.6017705180092
1731697659.3376682,686.3823439845521,790.9974021782158,524.5674224363695,781.1587504680828
1731697659.3392477,628.8624901622821,790.0196018577718,471.0206234983923,740.614871406026
1731697659.3431382,694.9757315247638,789.1983331966841,538.8049890725827,747.8650041924413
1731697659.3468916,821.0485840524025,788.3901774716655,689.8232824055123,788.7676013490733
1731697659.3470292,897.6005397732895,787.2436118828849,821.428415575416,823.1037478159037
1731697659.3509202,860.0294144462325,785.4383238422566,840.8637687080172,819.0120668447363
1731697659.354811,741.9655270547684,783.2057034950154,733.8425969916177,779.889133524039
1731697659.3554487,645.791928466166,781.7657428806132,575.7423110748633,740.8215222062781
1731697659.358702,654.7624232816885,782.9923923153476,475.8224392154948,737.6142434560325
1731697659.362461,761.4629675605076,787.9489678683777,495.60184603104335,775.1346527729692
1731697659.3625927,873.3874988308854,795.2033631392158,603.1512065088768,822.185277145354
1731697659.3664837,890.2832138824836,800.8661662277822,698.2146492919566,837.1916072989839
1731697659.370375,787.7906820097434,801.1974447630266,689.0723813439184,802.9380212658334
1731697659.3723829,638.5973729567693,795.9043283843205,563.0229294044432,741.5529674450293
1731697659.3742654,555.3909644205241,789.0235842470321,397.69214318963714,697.7655977882958
1731697659.3743129,602.4601242216618,786.1437117772161,304.4904631604838,704.0855742805248
1731697659.3780303,745.3347409387894,789.8843212461541,345.4604785515934,755.3658355443638
1731697659.3781564,876.8580553640169,797.311134058874,485.69432021179057,812.5197074818494
1731697659.3820474,899.6322897073208,801.8675363153982,619.9265036708824,832.6808670837318
1731697659.3859382,801.5853422187104,798.8594740204428,656.4208470124955,802.5548031217721
1731697659.3898292,665.1940367191152,790.053134576442,592.3182176755737,748.592365725364
1731697659.3931768,601.439071740007,782.9053764928684,515.2257063792297,715.3755371502139
1731697659.3936,660.099866956572,784.3236558744753,524.9059377302888,729.272033337385
1731697659.39372,789.138123406985,794.171531101349,640.7747766203177,776.9826359820983
1731697659.397611,877.2860757499341,804.6853215230864,778.7643246621041,816.7289179388829
1731697659.401502,845.651801596621,806.9158952959789,822.279861115868,812.887251059518
1731697659.4053926,713.2788222827742,798.6758112847268,726.6427969616202,765.5132609921317
1731697659.4070976,582.8913329718786,786.7140671305141,563.5661083040522,710.6382390350578
1731697659.4091692,558.525548796611,780.9209758445876,463.7913573719401,691.3503193892284
1731697659.4092836,661.8723905888777,785.6364909429889,505.95463303472695,723.2474835516831
1731697659.4120407,814.8236573173532,795.86895331703,648.0119981535698,782.0686904005224
1731697659.4131744,902.7166193187768,801.9441080478517,762.3873155689175,823.5054900991584
1731697659.4170654,867.9067354034835,798.5797270757342,747.2429070792256,819.4583230618532
1731697659.4209564,757.1770815371344,790.210601552265,618.588545350813,781.2248948098797
1731697659.4247386,681.9995493002342,787.4137197403359,500.6710768226944,749.8549181896034
1731697659.4248471,722.6641652708336,797.2011780100112,518.7637033043271,760.7811010723536
1731697659.428738,856.7733313633901,815.8353638480835,686.105725024965,812.1894290077811
1731697659.4309049,974.5268365175888,831.0275437712714,885.5871914428891,864.5514167472397
1731697659.432629,969.9903489588063,832.0563733015421,964.9927595610907,872.7670184245412
1731697659.43652,832.0275229102277,818.9839224479606,864.3397993606508,824.455237004806
1731697659.440308,658.1383785766188,802.7400597659577,665.7773857306407,752.3016440707113
1731697659.4404109,579.0321924224835,795.9971819731207,524.8548257480088,709.7718529005379
1731697659.441812,655.4818921060139,802.9057196461305,543.7118830881161,729.5561806242399
1731697659.4443016,830.7218431837449,816.4740781814489,692.8046748153763,797.976253029898
1731697659.4481926,975.8134784297846,825.3326726691938,842.6769381253991,865.6355484282611
1731697659.449769,990.899600705006,823.4847238075166,874.1861397261757,885.8039651011688
1731697659.4520836,881.4036941975456,814.5654621056822,773.3280717165893,850.175331554666
1731697659.4558775,748.8622298551365,807.4584228105047,633.9392342322725,793.7238963648617
1731697659.4559743,704.8768276276876,807.7673309003098,570.74613422431,764.994205289267
1731697659.459865,779.1382807125746,812.9185928893091,619.8755367495988,786.1166884397519
1731697659.463756,897.3741935303658,815.0233113439426,712.0261136836087,835.3946835740239
1731697659.4676473,946.8281026273781,808.5947250583364,738.8878174814267,866.6690267372325
1731697659.4686327,873.4917820642601,796.0981185433798,652.6437795273403,848.9236536585852
1731697659.4714468,729.2010188972611,786.5252009787541,512.0377851371969,792.8334080372122
1731697659.471538,629.7033048967951,788.3773060362604,437.2289009089102,742.3262175350341
1731697659.4754288,659.1799651268624,802.9789655649142,513.1400111130096,738.5217564106084
1731697659.4765267,800.0290420741926,823.312699284204,720.1991877144297,785.8666829138288
1731697659.4793198,945.2114883843442,838.8532569057769,945.0012350145638,848.0780995493486
1731697659.4832108,983.452707794562,842.4733412542543,1060.027093500789,877.2146538605626
1731697659.4870162,888.8333946851643,834.5695978215051,1012.2428987791167,852.4121058938064
1731697659.4871016,742.088376808761,822.0176508876248,857.3741495131492,796.7707753441881
1731697659.487497,665.2814822732748,813.1218361533533,717.0584090072157,758.2871801166278
1731697659.4909923,722.0394400413983,812.1120683362388,690.634308417995,770.0792849432081
1731697659.4948833,864.9487456367907,816.8051971895629,785.2568617695522,822.6268641511485
1731697659.4987743,974.1848870787417,820.8409481768541,914.5361436113101,871.3589619695967
1731697659.5025856,956.3677130866541,818.7195858921324,965.2058077433386,873.7569673336313
1731697659.5026653,822.4708002807149,809.9021271682069,880.9132392211748,825.383589752757
1731697659.506361,680.7678521855513,799.0649498523775,701.2332648088706,764.8499134380921
1731697659.506556,650.5054934291447,792.5947471177578,530.0077276716527,743.2392220139104
1731697659.510447,765.9291017001672,794.0973831001752,459.92615940243496,782.6031525364538
1731697659.5112414,947.2418655221313,802.0818727691477,509.55218594154553,857.0916912374635
1731697659.514338,1061.5618933601293,811.2071405806124,616.6902961367476,912.2354037459507
1731697659.518155,1026.1666544108118,816.1201840282355,690.5768995791971,907.4553120979488
1731697659.5182288,872.9048283148579,815.3193542093991,683.5666561476899,848.0587908629296
1731697659.5221198,722.4409619275455,812.2761657333041,627.7509587324233,780.8738235896857
1731697659.5252252,688.0966148420011,812.5814117518454,605.7650137434039,756.6795157519406
1731697659.5260105,786.2920876753873,818.8221100281133,675.9205114890451,789.8199549311391
1731697659.5299015,926.5455619429669,827.3371336991781,813.0072624114382,848.1254793948804
1731697659.5337243,989.1033234728252,830.2882101928911,919.3555970753915,881.2321061030804
1731697659.5337925,925.1957465275333,822.1830400613077,903.6088240644287,863.1637539421421
1731697659.5376832,796.1740834598886,805.5246596570074,763.0582866742949,813.3091525686502
1731697659.5415742,720.139852776037,790.1901924099365,596.5045181255227,778.8641048051446
1731697659.5440893,772.5535022904521,786.253812298663,530.868070039121,794.5755524961969
1731697659.545465,923.8466725634754,795.8816210875426,618.6324518758672,853.7989838771731
1731697659.545956,1063.8352861406556,811.18403200383,790.6030598591939,914.0968912767325
1731697659.5492938,1091.0158431448292,820.2203669945974,905.9419095393073,931.6951290030014
1731697659.549356,993.7409661104966,816.6020257016345,863.1959378592097,896.3490289981509
1731697659.553247,858.139561114998,804.8846739453633,684.110153963486,838.7301364446969
1731697659.5571375,796.6720756726943,796.9934870329574,499.62265356563705,804.8214956214806
1731697659.5610287,855.5465799138772,802.2151126129746,445.483675155721,818.3785718732954
1731697659.5629532,977.4880926568349,819.0330127264873,552.5660335287583,862.2870090641321
1731697659.5648632,1051.4636785348425,836.0558195864219,725.608752801925,894.1907304502605
1731697659.5649197,1008.104448240922,841.6421204573724,829.7758256753026,883.208590973223
1731697659.5688105,880.1817936938008,833.9332582782232,809.0455882916203,836.767071387037
1731697659.5727017,776.4455365343645,822.2699335275928,731.0782112513057,794.8860370142374
1731697659.5765922,790.5229380453742,818.618743938243,719.455493552691,796.7260090086442
1731697659.580433,921.4115684020702,826.8033606647721,836.173393052014,847.3641546635588
1731697659.5804832,1071.6668435087495,839.3099165570114,1020.7637523955821,912.1610730478621
1731697659.5806706,1124.2188163102642,844.3322093859729,1139.2287588390384,943.0884176384578
1731697659.5818172,1035.0135420465965,836.3969285401517,1098.0369681752622,915.8285991234236
1731697659.5843742,867.4418983970509,821.0035409798675,923.9163416456017,848.5352848492337
1731697659.5882647,741.6800922322126,809.4242625477027,742.3692184086906,787.7655246008703
1731697659.592156,739.2912577886264,808.5678271109313,674.5280687292266,772.4666501795112
1731697659.596002,839.2725182992496,814.93479147975,739.835982957056,804.1354408124624
1731697659.5960467,937.7028942354926,817.9289607320184,846.1912115318813,846.9996037377684
1731697659.5999377,935.8267961715842,809.5717029043713,874.6851331306713,858.4188320898317
1731697659.6006813,824.1488076999448,792.056914053769,784.9829798301542,824.806981235244
1731697659.603829,691.9306081343103,776.428125343894,649.621795458915,773.2076912739973
1731697659.6077194,653.113708376844,773.4151635346643,587.8122340892627,748.5744396791201
1731697659.6115713,749.7712869300574,784.3613125159291,657.5986040679369,775.4709388790191
1731697659.6116104,913.3324346482619,800.0821749384495,801.2907583355507,836.0401638075964
1731697659.6153853,1016.3306187273536,808.513664038605,891.56866733926,882.720099969522
1731697659.6155014,973.4016773495242,804.4199751821908,838.0371402740813,875.7195869789937
1731697659.6193922,810.2162526087934,792.9638623866924,663.5874858870146,815.1379988000982
1731697659.6195452,644.5514823879989,784.6004037576786,487.970449178218,741.81553222416
1731697659.6232831,593.8810705129451,786.1678135738999,434.2343521167449,705.8748459104293
1731697659.6271408,682.9318609920388,795.7241025080534,534.4576708212101,727.7031923227605
1731697659.627174,825.5148336130858,804.8759911740165,707.7304380228619,782.4793364349168
1731697659.631065,895.9369119986288,805.9856465913781,824.1767228495374,820.9352638785725
1731697659.634956,832.6872603663795,798.1271982193797,803.2226500717219,809.9499476033549
1731697659.6384094,689.7740774885401,787.3033398285735,671.0105669883187,760.0279148004884
1731697659.6388466,592.8795284239966,781.2937783557988,535.5160145848254,716.8051361934091
1731697659.6427102,635.377627222108,783.5856440584672,501.4626734583798,723.0219643550319
1731697659.6427376,799.0862669376161,791.1378134508088,591.7979091005278,781.980873725019
1731697659.6466284,964.9476627815088,797.3226608330095,734.4705302496686,852.7474455046893
1731697659.6500998,1005.8402581110305,797.2372766501946,820.6467662959974,881.612161432564
1731697659.6505194,887.1685314579444,791.0891566168458,786.4515507968388,844.7244278013447
1731697659.6544104,694.543888218087,783.4453886535797,656.490160246063,767.5482556596472
1731697659.6572733,566.4205741949497,779.559848663463,520.4620784284057,705.3292959641213
1731697659.6582794,585.7109733619775,781.7843317583059,464.57423691524707,700.0607085196444
1731697659.658301,717.2760615955586,788.325598223692,509.5593578977989,748.3669265034317
1731697659.662192,841.3079414368688,794.7325267677952,599.4193480180031,806.0642830475331
1731697659.666083,854.7608541175829,797.0521294781603,648.2940236512677,825.4896531332477
1731697659.669974,756.7688015101077,794.8406176686719,611.1584787784765,794.7267190236294
1731697659.6738489,646.8355155305644,791.976599156489,524.1357244867163,746.1346460439961
1731697659.6738648,637.6858399137236,794.0975482001675,479.11069549924406,727.3351683895571
1731697659.6761372,756.8274880828073,803.9123093942727,547.4758466407752,759.5767190305877
1731697659.6777556,920.3266544673438,818.0632466074071,713.1659886310034,818.9450201291386
1731697659.6816466,1001.2825634559606,828.7781733652314,874.6522450812149,856.318813498598
1731697659.6848145,936.0663236940364,829.6078288224063,921.7986414809748,839.1824990531829
1731697659.6855376,779.601941604282,820.4453588189945,827.5216679368513,779.9710898744738
1731697659.6894183,662.5174799893188,807.2632603982103,674.8834907920801,726.7205079386503
1731697659.6894283,684.0575856104232,797.0356409300633,590.7387849598431,723.3155381530294
1731697659.693319,829.2101996574185,792.8974859402557,638.4287049563143,772.604325190298
1731697659.6950014,980.5219771075992,793.5120734823204,762.7255740439165,834.023041571588
1731697659.69721,1016.8009732904466,795.7686929364227,839.2824261768671,858.4735425353205
1731697659.7011013,916.2586146853685,797.4451598707014,788.9400690031961,830.8539232855462
1731697659.7049878,775.3471833142994,797.9945687525233,655.1756840246007,783.1153723355106
1731697659.704992,725.3459050562852,797.9008969260434,570.7293723901543,765.7956887698435
1731697659.7088828,817.3838005793441,797.7787706102586,637.7728105064112,802.472238125673
1731697659.7127738,975.2695798324353,797.9116739383179,827.7277930057645,867.1180473662171
1731697659.7138653,1057.8526810312346,798.2625740380139,994.5175484510768,904.7365379996168
1731697659.7166648,978.6604888328258,798.6794744694015,995.3819743618718,878.127665513481
1731697659.7195292,781.6536591292736,799.0558332817184,815.3092801015746,801.037202199099
1731697659.7205555,608.9004649988947,799.3711890587116,584.5705464945313,729.2874597133134
1731697659.720557,586.1729233248498,799.6548617099602,471.2421177211752,716.5301260041178
1731697659.7244463,720.6779700741579,799.9392531156794,540.2821240336934,770.7140481541933
1731697659.7283373,895.6996116112998,800.237851612892,700.8250059710005,847.2420426293395
1731697659.7322285,967.2231333959531,800.547597219313,787.2535528788114,885.0160414226056
1731697659.7327294,882.6004205036597,800.8602400159411,703.6965367713796,856.117747785766
1731697659.7361193,722.295537527218,801.170466564418,507.09383653228997,788.1884267058869
1731697659.7361264,630.1804949905968,801.4775573161006,357.95815079761024,741.0608467632636
1731697659.74001,691.633312091496,801.7832242712046,382.2328623893048,757.2498293453386
1731697659.743901,861.6695799424608,802.0891561122347,562.6290315687577,827.2609721835166
1731697659.747792,1001.7210207019857,802.3959764546071,750.7064220459225,897.5845811019074
1731697659.7515934,992.6486406362257,802.703473892449,788.1462530439725,913.7050698546038
1731697659.7516828,830.7389439729001,803.0112486181764,635.9787056495284,862.7679765243673
1731697659.751696,630.6526068167852,803.319128267132,407.08352581125206,782.5372868832391
1731697659.7542436,535.5774060341671,803.6271820610278,278.09013166061186,731.0883535005081
1731697659.7555735,606.848151096278,803.9354870016903,352.7826449114518,741.9374368921854
1731697659.7594645,779.0467788758599,804.2439083916652,584.6732756373003,799.4172296577967
1731697659.7633555,914.6065688256051,804.552131057992,817.1149659960445,852.8649960369844
1731697659.7672465,914.0927611750682,804.860038560568,906.0742089088874,858.0479284282749
1731697659.767265,793.8652594183145,805.168241566012,827.0062187783151,812.6769672845663
1731697659.7704575,668.288776655203,805.4781788764548,683.0460873092218,757.1456203416279
1731697659.7711372,651.3487216900292,805.7911192019249,613.034185782604,739.7074609444574
1731697659.7750282,759.5879561637403,806.1060929534981,677.6514642806198,774.9516497834626
1731697659.778919,897.5349923483291,806.4183524918267,815.5737901968799,830.5152621633868
1731697659.78281,937.5822872743404,806.7212935750629,900.4108700391656,853.5393118560637
1731697659.7828343,827.280255355118,807.0136260106152,846.4483206811818,815.0405591895209
1731697659.786701,635.3528265223656,807.3083273546475,675.7233441906557,735.5275717407619
1731697659.7889583,499.75006623637216,807.6327287122289,496.4267265703345,670.8711238516257
1731697659.7893214,520.5191891913228,808.0078456976181,416.39000401953257,669.6014340784083
1731697659.7905917,682.5027262352274,808.4094679083479,463.3410862667156,735.1772725523806
1731697659.7944827,867.9389389241526,808.7433644321679,572.0010910404916,822.7628971299149
1731697659.7983737,948.8180826220823,808.8893464013926,642.8119391209598,873.4512802047283
1731697659.798404,886.3396721974981,808.8413891177171,623.081892483999,859.4937923811227
1731697659.8022645,757.882068455562,808.8672846359489,547.2377356329612,804.4950062355725
1731697659.8061554,689.0382456290772,809.4808452517195,506.1362848868679,761.863444723415
1731697659.8081856,746.5094147391418,811.0159423344752,569.8456499323015,769.1473951523175
1731697659.8100462,881.7100401750795,812.8858333416002,723.9893311129009,816.6652219615862
1731697659.8139372,973.1797733328798,813.1636782338958,870.9385051831601,857.1251168333474
1731697659.8139734,932.0962652273529,809.4483314693794,899.2994660286968,847.8668932447932
1731697659.8178282,781.2510592273737,801.2409490473758,771.7056294825235,789.2958914250833
1731697659.8217187,640.2794229264483,792.0695065367603,562.2848889855666,726.4804127094473
1731697659.8236728,628.9372864230728,788.3811325495476,409.45155409267767,712.4696456644795
1731697659.82561,768.4119378618702,794.5527236320318,414.74515685839896,764.180144942414
1731697659.8270495,961.9981604252115,807.9594162407416,564.4912479471197,847.644741990325
1731697659.829501,1071.5973983431245,819.4538999973049,738.7154215757248,904.9322380212606
1731697659.8295429,1028.570681660031,820.2223592893218,805.4447063084614,900.7636060299719
1731697659.8333917,888.5775838656298,809.6981725846955,727.554787350397,850.5062397099275
1731697659.837283,784.2079112715703,797.2428002654291,593.1627895040829,806.16103841069
1731697659.8411734,813.1394966127707,795.1161149599294,539.9103687056439,811.6928826095683
1731697659.8450644,954.9193592171248,808.0848275759384,634.379175752173,865.1872394883098
1731697659.845112,1087.3495289510533,828.7018334670936,811.0506731591217,920.1258877755397
1731697659.8459136,1089.7933052317167,842.8760714449775,926.9335019034894,925.0413724316359
1731697659.8489554,946.66558349508,841.3536766586622,886.7584855624384,868.0872479346683
1731697659.852846,763.9218372176637,827.2654957760299,729.5570212698436,788.8504643657212
1731697659.8567371,684.3927216788367,813.1366197447213,599.3148932884772,747.3233449818358
1731697659.8583877,771.7750951037544,809.9875414141345,623.1124819994856,775.5760933777494
1731697659.860628,958.2687692880568,818.1399422183349,801.1515769294714,851.6516254701284
1731697659.8606815,1098.2294410885918,827.763112730533,1003.5618625362819,916.7474769281968
1731697659.864519,1084.3254316548362,828.439247317055,1077.62927232326,921.7081744078878
1731697659.8647776,932.7869523011476,818.9392391913595,974.8921595068755,865.5729303200608
1731697659.86841,769.2136079054965,808.2561218157196,790.3768151437346,795.4584492646018
1731697659.8723006,726.0828875474097,806.9224567194844,680.4265604560768,767.9489104835366
1731697659.8761916,834.7887480012994,816.5976196358736,728.8466456791575,803.1306714279531
1731697659.876251,1000.5921493096629,827.6832675351329,875.9213864723965,868.637314548381
1731697659.8800824,1081.6281110485133,827.542960914474,971.7742270501703,906.8256268351089
1731697659.8836415,1006.9841708298103,812.1866624770589,908.6226796235142,882.7390426637705
1731697659.8839734,835.8870322696778,790.8709306545949,717.7099966324298,813.2224940272865
1731697659.8878644,708.7651033208251,779.1360807552003,546.4112080288389,753.1315504013985
1731697659.891755,730.7724605876097,785.9898306761082,534.1912892401339,750.0870573015428
1731697659.8918202,884.0987400592197,806.2099550600051,693.3925090400618,805.0567397768355
1731697659.8931022,1041.334936470452,824.4226937705795,896.70799996869,871.0696666593509
1731697659.895646,1069.167609468854,827.5258127285582,981.8636154231688,891.154794311765
1731697659.899537,937.7644102537483,814.9673418413511,884.5984062845195,844.7121844697142
1731697659.9025056,745.8593036885991,798.386380302833,687.993322412941,764.4952584765267
1731697659.9034278,639.5868519560939,791.2881061159111,547.993423671744,709.9300190637425
1731697659.9073188,690.9462516402249,797.7978605586258,560.2125558006396,718.23780558598
1731697659.9073896,837.4589260052092,810.0038326988458,682.4426122958706,773.8484146087537
1731697659.9112096,935.4707336934521,815.7383127545446,778.2032474228546,822.1714172922414
1731697659.9151006,883.7187999089514,809.6365186663443,741.0760713160556,816.6527497709924
1731697659.9189916,712.6661695640639,797.767668512214,589.7700787187894,759.3944985345925
1731697659.9213698,563.0220798323576,792.0709492954096,451.3759094694486,700.628548725266
1731697659.9228823,570.3926497955246,799.7851313669875,449.4708953230766,697.0501295967215
1731697659.922959,751.4131477962096,817.1276601763143,595.5511118486461,763.5452017322941
1731697659.9267733,984.7828429436576,832.407531048266,776.464708225628,858.2558966310486
1731697659.9278166,1103.0601150452749,835.5501117074964,846.8080388041452,913.6876845145788
1731697659.930664,1022.4738554075124,825.9097222753003,748.2354119021427,889.3828256497054
1731697659.9345553,807.7255897234426,812.2292322982519,558.2499653107651,804.0161417710095
1731697659.938446,619.7149064890378,805.3707101115812,430.114970536963,720.6249947740757
1731697659.9385283,587.3966674917067,810.0251009023362,472.09048926207674,696.2842443950988
1731697659.9402337,707.2176649676205,821.7535089366341,660.6016475690095,737.090711421779
1731697659.9423368,852.5856574562288,831.0314272217701,855.2436537122153,795.7803807053458
1731697659.9462278,885.5093666286042,830.6113549063024,905.7065267562616,814.0813132545376
1731697659.9501188,776.4555555764587,820.443332752281,769.6141764977906,773.8748387702889
1731697659.9540095,630.3644753894275,806.7446110921204,549.3814694039805,713.220934153607
1731697659.9540975,595.9119372412702,796.6309306917293,416.5936522050399,693.1456735270143
1731697659.9579003,734.7465653450762,793.1643140734785,480.18060567402586,743.4718254587942
1731697659.959098,961.8921266787322,794.6340376774,700.543932235385,834.1818224450026
1731697659.9617913,1108.9908766447022,797.4653420669182,917.6266827219326,897.3564880506108
1731697659.962531,1059.959814696767,799.2395557398187,972.8059167693222,882.3058966486153
1731697659.9656825,848.2698011859125,799.5448705096369,831.0570270522774,798.5267182978827
1731697659.9695733,634.5177095586567,799.1114303097348,607.8446176817235,710.2668635295706
1731697659.9696672,579.2651860113824,798.7111555533675,477.8184330597822,685.6642408165305
1731697659.973464,713.3479499336437,798.6539184203873,535.9583825231414,741.4683249605273
1731697659.977355,913.6209855131917,798.8581162173537,722.4692513312957,829.5217641693876
1731697659.9779618,1006.7757797969031,799.1251000603872,873.6930864988938,877.2879712561173
1731697659.981246,915.5511870781122,799.3300987749533,858.5269718185815,848.9380288302151
1731697659.9851367,723.631995062971,799.4580672836812,688.0456480996074,775.2929445376733
1731697659.9852366,603.7566709644491,799.550517101789,507.3087237520456,727.123391487192
1731697659.9890275,670.3830181840005,799.6473187058186,476.0059739838314,754.681973815087
1731697659.9929185,881.81940357854,799.7627103253577,636.3712559782364,844.6996968819906
1731697659.9968095,1072.8731037790403,799.8910012456901,876.3000219242645,930.3666781321779
1731697659.996826,1088.756461100696,800.0214753725681,1017.0552038642936,945.0473642115053
1731697659.997246,909.5809725086654,800.1479372325119,954.62184012385,875.4219729985798
1731697660.0007005,666.4255443983633,800.2699905486743,741.8765044505177,771.9938641260865
1731697660.000806,538.6639567797699,800.3899643322177,545.9616449333441,709.7641775462877
1731697660.0045912,614.7324462748811,800.5098887896644,513.778187411715,730.4955097821071
1731697660.0084822,825.3587850692695,800.6303822646934,652.9077633902425,811.5399935959033
1731697660.012373,1001.2052802691509,800.7510553768071,826.2621042474968,885.3686862127372
1731697660.0156898,1008.8980595942758,800.8713152240045,868.2580076807263,894.1957127735038
1731697660.016264,856.1756717394126,800.9908392050165,727.7834793782482,835.865619214143
1731697660.0163753,681.0503305660874,801.1096100364426,516.0742790874033,763.8420745132994
1731697660.020155,634.7499306243642,801.2277385649398,415.0222056644334,741.6354111449543
1731697660.0240457,755.9006536774856,801.3453046173172,521.0538580117062,789.6537494639601
1731697660.0279367,939.7090084325555,801.462306323345,757.6714707941956,868.390921002925
1731697660.0318277,1025.8398109697284,801.5786935517534,933.2652482761346,911.186291048247
1731697660.0319448,930.9661899353123,801.6944245682272,897.603547660375,878.9217820689569
1731697660.0319605,717.6696378298874,801.8094986539533,666.8045435236836,791.9856232505806
1731697660.0345538,545.0518289877944,801.923942099764,412.9807647163101,714.1783813892029
1731697660.0357184,541.3263672563426,802.0377499221033,326.78720997519787,701.8167163459203
1731697660.0396094,700.1874121868478,802.1508202183838,465.3484439513111,758.6550108449961
1731697660.0435002,884.8649468979152,802.2629567992761,710.0851143458344,832.9266338932712
1731697660.0473912,939.1457367183333,802.3740140946499,868.5955694260595,859.7878952452404
1731697660.0475142,817.1145191914967,802.484156479925,834.857786414579,815.483520259179
1731697660.0512822,624.4006714838683,802.5940075431522,673.2390603418347,738.5442672442883
1731697660.053418,533.8377135636744,802.704329452732,557.4097131119829,699.2678397392099
1731697660.0551727,642.682133645637,802.8150774279037,618.953542084364,741.5816560070309
1731697660.059064,888.8385458860644,802.9243753384543,834.7207843885832,845.070746331052
1731697660.062955,1095.9476683180785,803.0287963963704,1045.149914004769,938.8511490078298
1731697660.0630836,1111.4786588274376,803.1262714941697,1084.2826619543898,956.4857327027769
1731697660.0666752,926.5675520449613,803.2208827405417,912.3994970709714,887.8563551879838
1731697660.0668457,682.2202264022644,803.3250746666027,645.1711768138631,786.7796259417206
1731697660.0707366,558.2256715590358,803.452643160807,460.1118136563663,728.7576186347246
1731697660.0722818,633.9022000300179,803.6004600286873,458.71920604360264,752.5427975341868
1731697660.0746274,831.1359479081859,803.7305559401461,595.0478190320168,831.6161435155179
1731697660.0785184,984.1146486393949,803.7790782112437,725.5358179281216,897.8998537857441
1731697660.0786529,977.9874837972441,803.7147370162605,735.4837498879799,898.2691656910982
1731697660.0824094,841.8304697770436,803.6273794203339,634.9007160478027,837.5689069899263
1731697660.0863,718.6231859755343,803.7577563478117,543.7918709994466,772.5878752802141
1731697660.0901911,738.4836084660399,804.3467670858063,582.3608432478217,762.3550868648085
1731697660.091146,903.8834915864406,805.282529845746,762.1446490365723,817.1425229304778
1731697660.094082,1084.9724902037685,805.7860334604691,970.1492258546191,889.5510553920705
1731697660.0942223,1128.700134392411,804.6308858355019,1057.0346571121188,914.9876671156765
1731697660.0979729,989.354569250663,801.2473574327386,955.3980256987002,867.0325390230279
1731697660.10139,771.2046865535286,797.1593046231249,733.9418121708641,781.0740455071103
1731697660.101864,647.3785533766563,796.0240921336281,547.0484551472562,726.3757310873854
1731697660.1057546,720.5971858320262,800.9643367162715,519.9667399763721,749.4601260023426
1731697660.1096456,938.9028135178833,810.8517734804143,656.7770189303958,835.3525531485161
1731697660.1097918,1135.6136206720953,819.5826539262898,839.6529821758578,918.8168766224929
1731697660.11001,1162.4964904240837,820.2116720875498,919.1178551504224,936.9118447610015
1731697660.1135364,1008.8238320474933,810.7877313460687,826.8247399491812,880.07113530767
1731697660.117427,808.955014395847,796.5496775121029,625.5741383061579,799.5546846950225
1731697660.1213183,731.1733463032471,786.2104960544247,459.20424510586736,764.6803323643114
1731697660.125209,838.3138921623283,785.2998742548372,441.79689619052124,804.8849479136187
1731697660.1253612,1034.8735385407394,792.0998448786397,571.9885158311936,884.5829030880968
1731697660.128874,1144.467876730991,799.4914593963435,737.9994165811955,931.7852023635094
1731697660.1291,1054.57246561091,801.1542573887562,808.5823664779393,897.1622922262615
1731697660.1329913,811.0424354659943,797.0602778873832,738.7352476784919,795.5366791911844
1731697660.1361043,585.9644802774603,793.6627648108462,606.4877520278538,696.247151065546
1731697660.1368818,543.9712853354046,798.2609490892087,548.9052192535991,669.8297780210551
1731697660.1407728,713.1171183531063,811.9155930518968,645.7079039923533,733.1680539623499
1731697660.1409304,963.296035012287,827.1558032118339,846.1477158517272,836.6034254041381
1731697660.1446636,1109.89199129986,833.3006869598821,1005.2896794391753,903.3700515602286
1731697660.147738,1059.513818168855,825.5531192576341,1005.180527001738,889.8896341151732
1731697660.1485546,879.5594260686623,809.8872790011483,858.4137353842489,818.3169433350658
1731697660.1524456,735.0089809642573,798.6730222823992,699.7438197150913,755.0301525102069
1731697660.1563363,746.0541281716831,800.1459772147804,667.2802333885965,753.3628812573529
1731697660.1565,886.8965954901894,810.8775376312847,776.2331714612974,808.8495297582036
1731697660.1602273,1010.828856550095,818.2931224349362,900.0789812716158,864.5324971413177
1731697660.164118,978.6886186633114,811.5361037653047,880.4456992044711,861.1005682249241
1731697660.166602,780.5172858924584,791.4586425891185,671.311431381123,788.7478865846548
1731697660.168009,548.0903270784906,771.010767276945,390.44439087195184,697.0206091802637
1731697660.170819,449.02528512948595,765.3138142299272,230.22344160303095,654.8510489757756
1731697660.1719,550.7471001472422,779.3722362699041,300.6122981829147,694.1697568286584
1731697660.1720693,765.5740821142232,803.5591536241159,535.9201560227814,783.3432482666539
1731697660.1757908,921.2760127628179,820.8883860232999,745.3985319452329,852.082761779515
1731697660.1796818,899.6400283942984,820.4018181822535,768.0279711436048,847.7141922936404
1731697660.1835728,729.9018434002548,805.6336394786425,602.8309053826821,777.0076157287615
1731697660.185466,560.2116523192044,790.9587096635814,404.4894474207439,699.1907275368806
1731697660.1874635,531.2162585683036,788.9401736813043,348.07907634248124,675.9809628457143
1731697660.1876388,658.0889698769502,799.6799659125202,479.4122877222468,720.4742074893265
1731697660.1913545,820.0248830438915,811.3891019203851,679.1714717563605,787.6282112127495
1731697660.1952453,864.5567695669638,811.370284635296,768.8392171206066,813.6305851654962
1731697660.1991365,737.2203804939645,797.4465269862732,664.0208621198851,770.2231146206475
1731697660.2030272,528.1286492186825,779.8149205938388,443.8229732899384,688.4814167026166
1731697660.203208,399.1194511804688,772.0656977548497,281.5163842948682,633.3445475353022
1731697660.2043302,453.4746460894626,779.5157201271995,299.6329152507607,650.9354890748425
1731697660.2055335,653.557200429471,794.9183378077627,471.0725085723417,731.4614170736143
1731697660.206918,850.7173977516162,804.977011977271,645.0367352304745,816.7426970527654
1731697660.210809,903.3281917631897,801.9474456644401,674.1936081117107,846.1610798708614
1731697660.2147,789.7787453042578,790.4503668151419,538.7698914815122,804.8518546565763
1731697660.2185907,624.9044596307663,783.6380453141963,365.20918347529613,735.3164841317484
1731697660.2187774,563.4437940544594,791.8065456600324,321.83077248289555,701.8102682186162
1731697660.2224815,668.0341131717339,813.049448723151,476.4263155618085,735.821606794197
1731697660.223194,853.3880165374079,833.9649410942312,735.0789804776582,808.5606430022633
1731697660.2263725,957.2169325859672,839.9771089231855,914.8682208493864,855.0897260408649
1731697660.2302637,880.1638054667181,826.8115734068897,890.9111820745248,830.6715062105003
1731697660.2341545,675.7502097296467,803.880739918373,696.9079346643542,751.3012531328503
1731697660.2343469,512.2949311254331,787.1153894108592,498.7824556831357,683.1078014282837
1731697660.2380452,536.7740097403562,787.1528382749462,465.3645953624782,688.6266255111661
1731697660.2402482,752.5817330520003,802.0011934420215,639.8415700442463,774.3098143654922
1731697660.2419362,1011.3855028934571,819.3202139180727,909.6880456124504,882.6062137235605
1731697660.2420585,1126.6974011751659,825.998347583667,1093.1561922710328,935.6449359706965
1731697660.245827,1019.6844656651251,817.6014108134245,1073.223432619659,896.1814607488315
1731697660.249718,781.6250823989307,800.929815048215,878.7101150027675,797.4403131658498
1731697660.2499163,601.9933661485684,788.3319634354359,655.2065293399386,717.4754236252907
1731697660.2536087,617.7091459786164,788.4159405150206,551.628698738074,717.5676355184319
1731697660.2574997,804.3413225761208,800.1207768289902,610.5753664021873,793.7554504507688
1731697660.2609222,998.6110441562831,814.2733746908932,745.6215103204567,881.0556438302704
1731697660.2613907,1034.787548760203,821.043060486066,819.7056921653384,907.3341717635199
1731697660.2652817,882.6633832933913,817.4254548293576,759.6854294366863,852.6912709763818
1731697660.2654855,672.8728738898161,809.1263063187538,615.509177395206,765.4873811648246
1731697660.2691724,589.2056781189658,805.5954692766092,518.3597232368764,722.2107534504823
1731697660.2730634,717.5243358961545,812.1333360942374,572.4897525229479,764.7271705625767
1731697660.274963,974.7326595237989,825.204059680051,766.8714676180392,866.2206945435537
1731697660.2769542,1173.8067400971854,834.7597678461875,976.9963332265386,952.6975118832568
1731697660.2797863,1171.040022584792,832.0899624440035,1057.6545216683044,961.8352642703267
1731697660.2808452,977.8644555629653,817.226278804029,956.3231125701308,891.7939154582474
1731697660.281055,749.1274142329779,799.7780123759297,757.2781670531556,801.2912081579531
1731697660.2847362,657.6245232355509,791.8882818015503,616.9413781793841,761.1548433552329
1731697660.288627,755.7163494784809,798.4745007254,637.6535417574407,796.6029439930695
1731697660.292518,936.9537591031176,812.7506944290731,782.0015778335139,867.7286586924871
1731697660.296409,1029.9946350469102,821.266928542461,902.0455608848798,904.8139437927742
1731697660.2966244,946.4711520578637,814.9103137626149,863.534743528726,869.057628115452
1731697660.2986505,757.6511962525966,796.9827364701034,662.9970898117282,787.0922205807078
1731697660.3002996,634.449539462594,781.3969538813699,438.33203531969707,729.4702986762743
1731697660.3041906,701.2747624929077,781.9293997980051,360.9586516004125,750.8995425871436
1731697660.3080814,926.7807992918625,800.9559513654448,496.424597938696,842.460211515111
1731697660.3096776,1143.2600316942812,826.9377332355855,748.4892864631058,936.0428228202935
1731697660.3119724,1179.6278640878481,843.0797057256866,935.0715497982899,957.9572790125866
1731697660.312194,999.942370732374,840.3487682264602,935.6723567289281,888.321722286828
1731697660.3158634,734.8221073045554,824.139548773921,787.844883314131,777.9868289083812
1731697660.3175144,579.1115794364177,809.0183530105476,649.7548967669527,708.7458685615252
1731697660.319754,636.9786610534006,806.132278691692,658.8145128126508,728.2699998149376
1731697660.323645,839.7493608191392,814.2566868686922,808.5677426406592,812.3388802281942
1731697660.327536,1004.910948198796,822.2132664696182,954.0586460796345,885.760915003563
1731697660.3277633,989.3298718107152,820.177607691849,944.1056521024643,885.487030506109
1731697660.3314269,809.8132877865386,809.3718027293422,763.8689387936404,813.7335776037164
1731697660.335318,629.553975706549,801.1836029241099,558.4796526447889,736.4957597302297
1731697660.3363783,621.3366886756816,806.4782175990473,512.9044674448572,728.516116301424
1731697660.3392086,822.0133695815529,824.8346360550863,691.0165815289373,810.6854446342146
1731697660.3430996,1098.9224998873744,843.5584399045921,973.3876561898059,931.6133573798573
1731697660.3433323,1254.6661330475636,847.6956345369942,1148.4399382910415,1007.8988750919348
1731697660.344392,1183.6847513426424,832.646222343655,1081.8614277512884,989.8312925499181
1731697660.3469903,954.4838451891831,808.5973140878615,824.6425343842083,899.7585807471113
1731697660.350881,753.0206642379858,792.7461627306068,571.3626790040408,813.1117490932211
1731697660.3547723,733.778441448811,795.5192191589663,503.2315933139855,797.818392155816
1731697660.3552425,898.1065705354566,812.2225958539008,644.8261820868778,860.7066071267516
1731697660.358663,1097.3644106274874,827.2354048942359,851.9643470551291,943.8218436458651
1731697660.358902,1157.7508246901998,827.3311794041502,938.5969094381919,973.3715303667741
1731697660.362554,1024.5093074536487,812.8682729806106,834.0839624181754,921.1603705262993
1731697660.3664453,807.0996434145641,797.354640387998,638.5791615513888,828.0739476911873
1731697660.3703358,688.6469180977404,795.8804924623203,533.5970370413098,770.4720208241665
1731697660.3741064,775.0546293927866,812.364812836189,627.7782111088027,797.4602875849436
1731697660.3742268,1007.8866472149364,836.2344192614239,867.6147245604833,890.6118689860043
1731697660.3744714,1211.0094323180874,850.8403138437669,1081.9927758562442,978.6242221707118
1731697660.3781176,1231.3616526852747,846.2663860723585,1117.6129535299322,994.3805233253751
1731697660.3791068,1059.669170798254,826.2802881704931,954.5765756712365,928.1014597563525
1731697660.3820086,835.2291690885429,804.5900142995828,715.0177700090233,834.1489363796316
1731697660.3858995,732.5686331326725,794.1253607558383,564.5280130761098,786.4987407724323
1731697660.3897903,822.0312174286462,797.9628053439953,586.6653286638641,819.0571049765155
1731697660.3900406,1016.909527619192,808.5020473729672,727.202197954627,899.269280556471
1731697660.3929703,1149.5032956960572,814.6674406634569,847.6418016770019,956.5744248159417
1731697660.3936813,1112.7799841641934,810.7717460375676,841.2581767943026,942.2231190096081
1731697660.397572,949.4913203429909,800.0058521845103,716.8193576113374,870.5702873351178
1731697660.401463,813.8833854768703,790.5342741646162,584.0921183752615,806.9179692441754
1731697660.405354,838.2963113759494,788.3395530648407,557.3912649973377,811.8099607464759
1731697660.40561,1017.5397112797043,792.9746276836155,659.6019170736042,888.6555636671854
1731697660.4092448,1208.6510822817395,799.0517533359847,804.63709102397,978.8269873858388
1731697660.4118345,1246.3665082079356,801.2902768099301,869.1345345857721,1008.4541519588774
1731697660.4131358,1079.0663986038128,798.6992151746746,793.3937881467151,948.4147870602909
1731697660.4138217,814.3848340145477,794.9901047761747,631.7980499865947,838.7194777964559
1731697660.4170268,637.2320754880811,795.3728731542509,513.5241507874384,757.6125049679172
1731697660.4209175,665.0838534395882,802.1631631191144,542.2303502034515,760.0460869768611
1731697660.4211795,856.141194581767,812.3249477781297,711.0354543024064,834.8237346756451
1731697660.4248085,1045.0054099798053,819.0550586028262,901.6336026391316,915.093268829776
1731697660.4286993,1077.889812993429,816.8345320754855,973.848847052204,933.7488957346136
1731697660.4306984,936.710096713873,806.3184981848469,877.5883458735892,878.0793437838794
1731697660.4325902,748.9651329658219,794.7098053578885,694.8624478790967,798.173939496507
1731697660.4364812,675.4963263266673,790.4618784201698,573.0943567401112,762.3786836114621
1731697660.436749,771.7853596596855,796.1803978505544,602.3316096583167,798.0842854418416
1731697660.440372,940.7353898461577,805.8171505888927,738.9604731128422,868.3923738171006
1731697660.444263,1016.0281381798466,809.0820819946472,840.8668220719169,904.0287100383924
1731697660.448154,904.1591727943185,799.8871048220856,785.4538796677838,862.7178838329974
1731697660.448536,665.6112595144538,781.9533648782658,573.2335801079063,765.798878202603
1731697660.4495623,468.68714795097276,766.7206415498763,332.20378347787283,681.9438521810906
1731697660.4520447,454.7687203595354,764.7676730560167,218.50419779624127,671.8090620364319
1731697660.4523182,624.5092170518378,777.2979554845552,291.8676574143729,738.8494712093517
1731697660.4559357,836.9629575501343,794.6988137085066,466.70073938584255,826.2505488888347
1731697660.4598265,923.2855800067931,803.9728898107445,582.3728445465938,862.8296649481446
1731697660.4637177,823.4609089870081,799.4436205850891,538.8993489604358,820.8001846648442
1731697660.4676085,633.4105081043356,787.6178865594975,383.8644519436838,737.7201004659223
1731697660.4678876,522.162056180821,781.4299029179547,271.41309533331344,684.0612975795258
1731697660.4684265,587.7357162455512,788.4665454088199,324.1513017595896,703.6477083198722
1731697660.4714992,773.2744407896445,803.7217553687981,518.5580607632103,777.426240354353
1731697660.4753902,914.436681794625,813.7551418973308,698.1534905566009,840.682375437485
1731697660.4792807,877.9736494112066,808.7497496369452,706.3752611898276,837.3803191803764
1731697660.483172,675.201616313611,791.6104916011411,524.2077875021339,763.9469655906373
1731697660.4832506,456.5664364879138,775.8963853321343,292.9080546934104,666.4597976187014
1731697660.483457,392.6959460696665,774.4024210698431,201.5944064164259,598.6912379831463
1731697660.4870627,538.5626285472488,788.2824743958539,333.0899634957735,582.3036408446118
1731697660.4872906,788.4112299664263,805.8785708651652,594.0306754048734,601.9025069265084
1731697660.4909537,956.2885793176772,812.1999124055344,785.9395171590182,629.0798822571227
1731697660.494845,919.4666970548517,801.3885665454786,761.9349220778954,646.0093032969407
1731697660.4987357,713.1247188544062,782.1194298577083,545.4353070690635,650.9353549724412
1731697660.4990263,501.3951266723272,771.3363705810725,314.9974953669676,650.4386620807247
1731697660.5026264,446.47105388925837,780.9461414525765,264.5886771276256,650.678845844063
1731697660.5061543,579.50745714541,807.9641210161168,449.75755541155297,653.8208708856946
1731697660.5065174,777.0768671867719,836.1509845053712,743.4250082297337,658.9713567603436
1731697660.5104082,862.3518886068867,848.0135839345684,936.4598708778105,664.4842991909834
1731697660.5142992,749.2170153908404,837.6753480407632,900.8458062609683,669.4198948500367
1731697660.5145955,512.9678812315121,814.6062873565937,685.0069671548894,673.7295151963751
1731697660.5179653,330.9432912104905,795.7841735554375,469.2445472210841,677.7781184625599
1731697660.51819,341.13048284027525,792.9213887760721,422.04412640259807,681.8804662524884
1731697660.522081,532.3160925413806,804.6362022668927,572.9160855692339,686.133118499923
1731697660.5250187,754.2103313657451,818.9478913603022,799.0118417275814,690.4785574334647
1731697660.525972,839.962532930223,823.3689942930466,930.5701920553364,694.8290302932576
1731697660.5298626,741.9518838573963,814.40688261638,887.423057995495,699.1386845872079
1731697660.5301652,568.8611077427882,799.2789411583955,736.6142936353882,703.4084009695941
1731697660.5337536,491.7809818310192,789.0807242546558,627.1097813136262,707.6586614292411
1731697660.5376446,596.5970979541128,789.4484187326366,659.3086154006317,711.9056121922887
1731697660.5415354,806.925274270177,796.4785015305347,800.3616037400088,716.1534604536176
1731697660.5438826,944.0344652727167,800.9503647227805,915.478040892261,720.3986941709358
1731697660.5454264,875.3869572325749,796.8515494973321,886.0652949445932,724.6368344240841
1731697660.5457346,629.0871646891133,786.8628208732409,713.9336093279871,728.8661007580247
1731697660.5493174,379.33832311441864,780.3797331332272,525.7279256689022,733.0873375303279
1731697660.5526798,313.09204326337175,785.9199814435074,475.40311785910285,737.3020495279377
1731697660.553208,484.0531414848834,804.0800707823533,623.2389054454727,741.5105184240851
1731697660.557099,770.7761983352282,826.4738471624019,885.7793932292419,745.7112723409726
1731697660.56099,972.8288999863405,841.3887395596693,1094.9481565831788,749.9025100190356
1731697660.561304,968.2180711128697,841.9421519773252,1121.515638397981,754.0850966698748
1731697660.5627468,805.1926849665616,830.764086299521,969.4533969690292,758.2649766667688
1731697660.5648808,654.3438934350447,817.7620676458691,769.0087330218017,762.451203984467
1731697660.5687718,661.5464840722923,812.5586135021318,672.9374789665418,766.6469783809699
1731697660.5726626,824.5994337555823,817.1962029096429,735.8278329412129,770.8375046417007
1731697660.5765536,996.6104882432331,824.6813788247802,871.8170876667747,774.9880160938957
1731697660.5768733,1012.6787217980882,824.6643849883693,925.8393137452431,779.0682154849397
1731697660.5804443,833.1403802198854,812.0567721001471,802.9696304394239,783.1026037344907
1731697660.581611,583.5410545858767,791.882865947351,552.1687694661973,787.207883795744
1731697660.584335,457.5914844506741,776.2622364199035,335.12950148655625,791.5459444466186
1731697660.5873945,561.43079758656,775.411974558324,301.83563997596275,796.1487956386762
1731697660.5882263,825.1634584365482,789.5190827659201,470.6114437501203,800.7000688475263
1731697660.5921173,1054.7244317865277,808.2261318454372,710.9372291061314,804.5330343267677
1731697660.5924428,1085.2520132229567,818.733416244728,847.5704313928898,807.1350575457661
1731697660.596008,913.4342308764856,816.203289912353,803.7150517574638,809.0964495431954
1731697660.5998993,699.5735218778216,807.5271335367289,662.6991274773516,812.7122574211476
1731697660.6004748,634.8537212654685,804.7277798817693,591.8803324183606,820.8968057315665
1731697660.6037898,782.1289428472315,813.4810393100684,691.424650875655,833.7353849834807
1731697660.6076808,1022.992256062184,827.1202714019258,900.0750894584412,844.5042953535692
1731697660.6080122,1155.775009694922,831.9955481267709,1043.3830561645213,840.0945148539779
1731697660.6115716,1062.6864166582395,819.8549088243591,985.2583259496204,810.6182305746144
1731697660.6154623,807.8157315132394,796.2950271062228,752.0773475008459,765.0412918206741
1731697660.6193388,587.2338335694483,777.4328873565988,520.9619993179128,736.798845141102
1731697660.6193535,574.0624223775718,777.0732446656145,479.0067101223521,763.344157674698
1731697660.6221092,783.428581131941,794.95232067611,668.6734243353055,849.5284238546701
1731697660.6232443,1062.4844144070921,816.0851539157662,947.1468432501713,951.3390453617908
1731697660.6235816,1210.615618075519,822.3005146661077,1095.9259684702138,1004.06128020919
1731697660.6271353,1134.1954214966233,806.9444618745874,994.9306069951176,974.7936795918799
1731697660.6310265,914.5514107641051,780.7044364609692,720.1210713464459,892.277770788404
1731697660.634917,736.6681437089335,763.3975298522391,482.5544439733526,825.4001916949999
1731697660.638203,737.6317519796245,768.1675204883472,456.8502751011435,827.0430021827187
1731697660.638808,899.065847740942,791.156093471101,641.299979115468,890.9326152308662
1731697660.6391509,1070.831263995334,815.2842250323513,866.679863355831,958.4639889471773
1731697660.6426988,1102.8937057693665,824.7556134445106,944.0747916396089,969.5195852352736
1731697660.6465898,972.2358209904044,817.7567337752217,823.4777891962758,913.7542432286641
1731697660.6504807,798.9903626904028,806.684290202313,628.7949333469758,839.1379072046568
1731697660.6543715,742.0613113056226,806.2896144179591,544.506941376267,811.4452043512381
1731697660.6547203,864.6670712573224,820.4200647745225,655.6312380439472,859.216008813394
1731697660.6568236,1081.0934125676017,838.707433390585,877.0185108234738,949.4714963043164
1731697660.6570668,1226.0503605603265,845.6301424205066,1027.5289784165163,1013.4361503057762
1731697660.6582625,1188.979981765453,833.9195770798832,983.162598094699,1001.4853645771578
1731697660.6621532,1004.9667895827262,810.9061121598893,780.5787657229474,923.605893136442
1731697660.6660442,827.9825817625882,792.5281162336454,585.4430609704079,842.4969804850349
1731697660.6699352,805.534051211481,790.2006782066749,552.628623437233,823.409746211034
1731697660.6702898,955.6054161779896,801.8201076999981,696.3909997700887,880.4179030006491
1731697660.673826,1149.1834854296194,814.4970216858031,880.794196612219,963.7594255902935
1731697660.675931,1216.5612355732483,816.2370195730452,937.5912107302489,1000.373939022273
1731697660.677717,1090.8197821132803,806.0699458837429,809.346931110975,955.1111555436864
1731697660.681608,867.7093559914011,794.0307506819847,596.4352047751039,861.4742944190764
1731697660.6854987,729.7614892860839,791.7650518986441,472.12686386079844,795.3886190120276
1731697660.6858592,796.4552052443896,802.46257755658,541.1113608933815,813.0864122364652
1731697660.6893897,1024.2530088122726,818.5073691108338,757.676989436369,904.268696182321
1731697660.6915383,1238.617790237786,827.9936070100606,963.9453418697104,999.0054337359902
1731697660.6932805,1271.7617591832277,824.1267054604698,1011.8527375883368,1022.7356034914721
1731697660.694795,1094.8625629687074,810.1038235829782,873.1988210629503,954.9360919887066
1731697660.6971714,838.6713279471342,796.2847320725564,656.9629790179317,844.3558709502865
1731697660.7010624,686.0005396678071,792.2661403869581,523.3582921114707,768.655707860771
1731697660.7014284,723.1989522094527,799.8125081461062,559.6563104865124,771.3014778020506
1731697660.7049532,872.9278479384308,811.7308414742882,712.8537608234575,827.7294232532182
1731697660.7088442,965.3413218899227,817.4874516422409,834.0511844698021,869.2567442640542
1731697660.7127347,888.6042699181771,811.4271072849493,802.2801715798043,844.6639709125943
1731697660.713659,690.0903018794535,797.3638578674567,627.8538970953344,766.5402228718792
1731697660.716626,539.6611265313111,785.898463615101,447.76359463053365,701.8190849953108
1731697660.716998,584.3564478480325,786.3568576402354,414.0257230241305,713.8912635438593
1731697660.7205167,817.6242543270776,799.4503204821132,566.3694314637335,805.6882028280827
1731697660.7244077,1074.7277037342612,816.3066994779649,794.6358396746439,912.6874147327939
1731697660.726253,1160.1596962217905,824.7844854597115,922.2986554751474,952.6863136914583
1731697660.728299,1003.3105320558803,818.5209141121509,844.1849241633508,891.6698921964572
1731697660.7321897,715.8504030431728,801.936884807526,609.0274837206406,771.8274302531784
1731697660.732523,504.6716579642814,787.13035625578,382.0352937913029,678.8880858922269
1731697660.7325673,510.4715506502084,784.5954543318427,316.68693929772706,675.1322326672728
1731697660.7360804,700.6786331491356,794.7906606018832,435.7113309754602,751.7346320560068
1731697660.7399714,901.1247504329419,807.5545103739958,615.2892017846048,838.1585604531581
1731697660.7438622,939.7707409838295,810.4577934605774,687.0919688425421,860.4095217493566
1731697660.7477531,786.2252498341912,799.6014967020316,578.6613544215413,800.8652551126944
1731697660.7481368,574.6724957089917,783.6469582536464,378.15862238727817,711.5318685077823
1731697660.7513871,492.6155291590981,777.0758184573995,266.89228986524734,670.6438224666119
1731697660.751644,626.4688061646293,787.8799081198647,370.3244826941112,718.3622059420544
1731697660.755535,888.9688739764332,810.0602992295079,648.0767531494192,823.6024506754947
1731697660.759426,1086.2752626736683,827.640951795959,915.519003233685,908.2387937467
1731697660.7609675,1070.31108086543,827.2982954768895,983.9373457621648,908.7604784842868
1731697660.7633166,854.6535525824044,809.3300093234933,808.7906806319171,826.012925385464
1731697660.763706,602.4620517466842,787.7972915400444,526.5226068873177,723.7679546114928
1731697660.7672076,497.1694013262317,779.4046493919665,348.2246135243022,677.8364356647686
1731697660.770251,599.6815229892302,789.9644400666923,393.4428639928039,716.6849455196093
1731697660.7710986,806.2735762783296,809.618976236873,597.8416397598627,801.1255593014831
1731697660.7749894,940.1623593402184,821.1687671695277,771.5933208667693,859.0841440997622
1731697660.7788804,900.4509255029927,814.9215878682724,762.371894671633,846.4116916462342
1731697660.7792754,744.1300616409367,797.4306123444584,586.6043340190298,782.971141000405
1731697660.782771,632.7681088335753,786.1673681561333,415.51794382418467,733.9205400877407
1731697660.786662,690.3821074263753,794.3299774226952,425.9800364534226,752.5926001714076
1731697660.789115,894.228742471923,818.9683149789038,644.7364032360886,833.8098582232526
1731697660.790553,1090.9367837447496,842.9339878453706,921.3683951136335,917.0041254880192
1731697660.7944438,1123.6055814336726,849.0306980153848,1052.9841183735602,936.1404206805335
1731697660.7948449,963.4644136531491,834.1771216039814,953.0423668160836,874.7710953722224
1731697660.7956822,737.4261783924993,811.690805407779,721.6403487784556,780.9898122333028
1731697660.7983348,628.5192493149832,800.1580563554971,560.7600493251515,729.9419510245622
1731697660.8022258,729.0617305967107,808.4615527127568,607.7608509399676,763.7752870297039
1731697660.8061166,965.2272276462392,829.2408214624267,825.5089170616982,857.2949324683502
1731697660.807979,1155.439965000063,845.6915817437335,1037.7762957931077,937.5938494012479
1731697660.8100076,1156.9348674471048,845.5896045858321,1077.5883537221412,942.6492204445308
1731697660.8104143,981.2639881308314,830.7641235128854,923.7512650178259,871.5701692130491
1731697660.8138983,782.9045970149657,814.424685643775,712.663676805258,784.9852606518918
1731697660.8177893,729.5712353549238,809.1604935366038,618.6686273419839,754.7422153671994
1731697660.8216803,862.1677235691886,816.2365260476737,706.9388739535093,804.4410883964297
1731697660.8255713,1061.2644085103398,825.3100160283167,883.4477638597731,890.1837263061818
1731697660.8259835,1147.1675902870659,824.3133586131512,980.477669999414,937.206570210411
1731697660.826843,1029.5149821049818,810.4483713642837,900.7042867324749,901.7076768034314
1731697660.829462,783.3862314724053,792.744910714984,698.0558055943225,807.1441609165447
1731697660.830397,590.7379456300632,784.3899609292524,531.9224285588737,725.7688223412207
1731697660.833353,594.7784302297982,791.730991150782,536.7611206039237,720.4086929140586
1731697660.8372438,784.5052316549782,809.1137027294764,714.1865712157908,793.433453893305
1731697660.8411348,1003.6279413886839,823.3644388575108,932.3993963862181,884.7542754019046
1731697660.841553,1078.6239079300271,823.8798709519857,1030.8070558453971,921.4716608719222
1731697660.8450255,961.6584622271031,810.2991251221057,945.0318350237301,878.6391360700226
1731697660.8457072,768.3450572974089,792.1579732777948,752.9636200586422,799.7334008415717
1731697660.8489163,676.505841758512,781.2732920817377,606.9857413887155,758.4173324289693
1731697660.8528075,770.7797442248295,782.9357141635217,609.367549708295,793.6116032644394
1731697660.8566985,966.356161932225,792.5596260596168,732.5428186778552,873.903155845249
1731697660.8571224,1078.5379211530344,800.0293619162157,846.9540761740617,922.7523512143601
1731697660.8605893,979.918614513267,797.9778574531304,829.8103652968489,883.6668311583636
1731697660.8644805,712.5757489002012,787.3478763842214,664.3042175796667,770.2648200200998
1731697660.864571,461.6501763194183,776.1129257003762,451.8943519266146,659.1554107861948
1731697660.8651114,411.9526953010321,772.7040085828312,333.313607639315,631.1814037684517
1731697660.868371,602.8179431944768,779.6491557047444,383.2224108671582,708.1348080750611
1731697660.872262,895.7884416150699,792.2030400692605,557.7708384935802,834.9913362839906
1731697660.8726916,1080.4292808092464,802.5204284135365,731.2719746667266,921.6808620902724
1731697660.8761528,1035.9555283533095,805.8241069885727,792.9977571776286,911.9161564729802
1731697660.8800435,821.7965304530447,803.8342249511173,731.1770456621234,825.0457907932954
1731697660.8834352,624.6889771810991,802.889303973032,638.2779765830481,737.6558121998161
1731697660.8839347,604.4282457294996,808.1401416747012,629.8102697928811,719.8676246412348
1731697660.8878255,763.9814032353733,818.3633402951062,740.0223339134337,778.4671864613621
1731697660.8882613,950.5930147840759,825.9138910252044,883.5438639967572,853.4159528757135
1731697660.8917165,985.6888737053126,822.5611478536714,922.1273881151379,869.6518774366975
1731697660.8956072,814.4746032892347,806.9180401980093,785.5894599850723,800.2492725528558
1731697660.8994982,552.1302076013935,787.1259677477129,544.146435621017,688.9098134862384
1731697660.899826,391.76508554844673,775.7359953047292,365.32233073428864,614.8845125672347
1731697660.9022992,451.96659344200134,780.1122261852422,384.3071308130767,630.4313590235575
1731697660.9033892,686.2261562591282,795.9110264861953,590.9688821131407,721.1054733450435
1731697660.9038303,922.9883780790929,809.4479389465206,827.7504168273105,818.9695262712004
1731697660.90728,1001.503497054874,807.97421480631,906.7460904497367,856.736485694839
1731697660.911171,895.2083681273766,790.1710610017458,757.5065736325564,819.5332286639903
1731697660.915062,725.2196935443162,768.1523748832582,486.56430851078096,753.4172529711591
1731697660.9189527,654.2845409688048,758.5444671392399,295.71910253094285,724.3764202998982
1731697660.9194,748.9733037013002,769.2709585162927,321.4907625482546,761.8657963426106
1731697660.921163,924.8354845316844,792.8704390998454,527.1432854174085,833.9543329877486
1731697660.9228437,1020.1917642861962,812.3090453211644,737.9588173127454,874.8733490367752
1731697660.9267344,935.9997671543773,814.8468060779277,790.4713772572891,841.7229835737043
1731697660.9306254,723.8972304815794,802.3676832233176,669.3163901323476,752.6678029801658
1731697660.9345164,548.5900755460134,789.2421086587321,515.8180750966676,674.6062918604271
1731697660.9345407,555.4558927150226,789.444124537972,502.20264326602864,670.2183538853687
1731697660.9349692,751.4104233750022,804.1133659251155,679.7261575093247,747.294755803118
1731697660.9384072,995.3214345018552,820.4995664785712,930.2010434732302,851.0947199124796
1731697660.9400272,1106.576621884102,823.2826667964301,1062.2289670870753,906.2624081080372
1731697660.9422982,1007.1537605812197,808.3362342433367,971.6509055975654,875.8541861383303
1731697660.9461887,784.569510900513,786.7183674187709,731.1916843799885,790.829024023452
1731697660.95008,622.71216812579,775.1729890984167,531.9902345814323,725.3117495421304
1731697660.9505386,652.5393792652358,781.4191135868409,523.8830242267179,735.9258509269358
1731697660.953971,843.0621648882349,797.3340447149284,688.9333139872558,814.1311268391767
1731697660.9578617,1024.4586847732733,806.2064677277252,856.6554841220227,891.8105515732669
1731697660.9588914,1027.251703267232,797.6448390535638,848.904435178234,896.9005220641263
1731697660.961753,823.6434898094585,776.9487594981596,631.6808101685764,813.6043707975443
1731697660.9656436,553.9807501400412,760.8454221075075,346.6545982736785,697.2713075251954
1731697660.966108,416.13642038025847,763.5143629314618,198.36069760371504,631.3861557732122
1731697660.9692552,507.8742771456821,784.8926449954982,292.16574476662936,661.5096853806353
1731697660.9695344,749.5331770053643,810.7535989829753,554.0111544030393,759.3862510658245
1731697660.9734254,948.7014082623372,823.9571955400745,792.3420796673431,845.8697321900902
1731697660.977316,954.4653116412812,817.4797907794816,848.6648425416921,854.22059311828
1731697660.9777553,777.0152394383538,799.1359098916338,716.6850983991166,782.9968258802149
1731697660.9812071,575.9992175342883,784.9720345534721,538.9352042617445,695.8894107058503
1731697660.9816775,527.2716696047196,787.0033117054375,487.79741469205584,668.6464231568837
1731697660.985098,677.3743727921868,804.690548962732,627.304690896862,726.5412992562528
1731697660.9889889,905.4261440737044,826.0704193285447,863.917108029993,823.7411586287112
1731697660.99288,1023.1021599183566,836.9421380638926,1021.4852114296766,881.2281406742111
1731697660.9966197,929.2350211313792,830.8225990821918,977.9790470058201,851.5319508927009
1731697660.9967706,692.0272454650069,812.5611431154405,757.0547680087766,757.0721239372745
1731697660.9972467,493.5788566599946,793.8620191401159,507.6597257806973,671.5967283240484
1731697661.0006616,484.12232579869226,784.919618526707,392.4506344151064,660.8747449539078
1731697661.00397,663.9931006871069,788.4515811370161,471.2883227578935,730.8236604363494
1731697661.0045526,886.3013554638113,799.7086695740517,664.5312414201107,824.1047182341447
1731697661.0084434,976.2228064815131,811.2477926041527,819.3619887318721,867.1365885783092
1731697661.0123343,870.7165500396555,818.1274296955347,826.8704695786923,829.4866292844499
1731697661.0128162,666.4882403428625,819.8492586887421,700.7675143307713,747.7007074038522
1731697661.0154834,537.4087101192953,818.7668442251081,557.7716086833905,694.0194811226893
1731697661.016225,588.8494509533946,817.4002323352762,516.2288098539633,715.4050995748994
1731697661.020116,769.7134512681506,816.9316494347244,595.7767079736973,793.5539260788806
1731697661.024007,916.5894185635922,817.2833119478128,701.5807392091227,859.9978212044109
1731697661.0278978,893.7355259909747,817.9019141657564,707.371785618824,854.2537353761243
1731697661.0283856,710.6742767280602,818.381156792902,568.3181759967151,776.0535830403593
1731697661.0317888,517.7576391678984,818.6336388989132,368.53428678093866,687.3481482062073
1731697661.0343475,483.437036149822,818.7642371479599,261.29748862117293,662.24850518427
1731697661.0356798,655.4185013834567,818.8951342204135,347.58677548154867,726.4493624108331
1731697661.0386844,919.3439557413918,819.07966597937,589.0929454793738,835.655225492794
1731697661.0395706,1087.870791043311,819.3082649806057,827.0005808237275,910.2110639246998
1731697661.0434616,1048.2771746505387,819.5503043568652,897.1698660254018,897.9743024892255
1731697661.043955,850.380808135276,819.7852363189007,755.5926329145569,815.1006555730376
1731697661.0473523,664.0077766075776,820.0096755399528,514.5752700903228,731.999540726918
1731697661.0512433,640.1951876009078,820.2297178291647,356.46717451505805,715.7807804279649
1731697661.0532117,789.6244820156613,820.4517127601197,391.14526130429954,776.1799166780443
1731697661.0551343,978.7263417016935,820.678138731006,573.9508989775846,859.4524010079438
1731697661.059025,1046.092585390386,820.908250260141,753.2989469703228,894.9612301824639
1731697661.0595243,940.4844314181961,821.1403721333397,806.4873483925948,855.0786849379825
1731697661.062916,763.9452468080718,821.373464208525,744.5116593797529,778.1748874387949
1731697661.066807,684.8576316353223,821.6073877977074,693.9215573050863,736.0623637380336
1731697661.0706978,795.4263364558399,821.8424427412924,773.5557622375994,773.8168225497211
1731697661.0720756,1032.483919905532,822.0788880554335,977.4849839565811,871.9008399136163
1731697661.0733993,1225.6873844715979,822.3167807301317,1169.4983227976395,960.9837629128701
1731697661.0745888,1232.9523108444932,822.5560819878847,1196.5005054422527,976.8231538273765
1731697661.0750935,1054.1992756703778,822.7968084912674,1024.4093991708496,911.100777450777
1731697661.0784795,832.3231962346028,823.0390318550641,778.0139165440854,817.7431170133578
1731697661.0823703,739.3334983596237,823.2826783497167,644.9305062050428,769.4730612312769
1731697661.0862615,838.1463150923847,823.5272932858758,720.3666859948913,799.3426756120408
1731697661.0901525,1033.0300052318535,823.7721116409884,925.4841769010891,875.0825651296767
1731697661.0906632,1151.2460383493715,824.0167159950773,1073.838802871771,927.8320124207876
1731697661.0909395,1089.1035403800754,824.2620666071467,1032.2310044335377,911.3100148459647
1731697661.0940433,899.9716593864699,824.5108791354942,836.8602317164997,841.3858487072115
1731697661.0979342,749.7745350008116,824.7659351354959,662.4800283737435,782.5648389877372
1731697661.101825,777.1875711740944,825.0260477400867,670.7942135130166,793.0495738838083
1731697661.105716,975.5127402865952,825.282443870769,869.6926668014944,874.7296948598989
1731697661.1062326,1194.0778571372643,825.5213767888309,1103.7350293695868,969.6003421807832
1731697661.1081138,1257.6742404194256,825.737434587597,1181.7404334291637,1005.2682645034199
1731697661.1096067,1107.2241830825842,825.9523848379245,1032.6945964388303,952.6122539582706
1731697661.1098037,849.232257421602,826.2195042425027,762.3674353624788,849.6519639100068
1731697661.1134975,674.2765391919864,826.587845464847,568.1713537287503,772.6163547554372
1731697661.1173887,707.8198900879971,827.0252440184973,583.7993526617068,776.5352483338414
1731697661.1212797,911.2177320435588,827.3572632878976,777.883238991508,852.0777321796577
1731697661.121802,1113.278327780964,827.3319938699525,984.7608988399135,933.530849694989
1731697661.1251705,1148.9102290136448,826.88351524838,1039.3269841611352,952.3717808839851
1731697661.1286676,993.0213023616404,826.4747328835209,906.2379236269655,893.323108830291
1731697661.1290612,779.5670788058025,827.1270376750094,700.980592685458,806.6929314047122
1731697661.1329522,689.4753957712969,829.6798698468795,589.6099490107496,766.3541593091444
1731697661.1368432,799.995726024287,833.3400366840594,652.0665563462019,807.9281734274963
1731697661.1373713,1019.9856642399092,834.7029711309901,820.8520044100007,898.384084192331
1731697661.140734,1163.8910251064372,829.13373634728,941.836625366809,962.146533399489
1731697661.1428282,1102.8518718917858,814.7928670881988,903.028517041659,942.1630319804966
1731697661.1446247,869.454775565941,795.9927847196965,724.3528043573637,846.114388109731
1731697661.1475315,631.6348358267358,781.5476781622326,537.5272087609992,740.4509703724249
1731697661.148516,557.2403022999553,778.336326424081,476.28093180034745,697.1333713982551
1731697661.1524067,679.029976278261,785.7444394532386,568.1855090631507,736.0790454304766
1731697661.1529408,870.4942856348579,796.2927725445754,715.3462713912353,810.2387043518095
1731697661.1562977,953.3586357508403,801.9375896378947,777.9945857364255,845.9763331692209
1731697661.1601884,848.185484253981,800.4791193414217,692.0453105009253,805.593248210307
1731697661.1640794,641.6790688299911,796.8066583384515,524.9901583905925,719.5342129572523
1731697661.1663957,513.5069840450515,798.3585266538441,424.55665013921373,660.8214234641184
1731697661.1679704,584.3827073919758,808.7392870450508,500.23547661244027,683.190026005374
1731697661.1685102,813.136304757184,824.4592203760888,730.8288536029208,775.0417666324423
1731697661.1718612,1027.7604704160024,837.0985712055938,971.3265351378527,867.5260309240871
1731697661.1757522,1063.2699483174163,839.1571055793423,1056.4690908862876,889.6223425996344
1731697661.1775427,893.0298712194012,829.2108731195382,924.10919015256,824.8565657383691
1731697661.179643,648.3804638091092,812.5644483602448,664.373023211869,723.9814149819538
1731697661.183534,513.0146416305084,797.1367706735648,454.5320821059338,664.1996221872006
1731697661.1840794,578.1954674443774,788.1620284556627,426.05311257626147,688.2489478459579
1731697661.1852596,774.4815991618399,785.8991177582498,564.812471284439,772.1454215828578
1731697661.187425,933.5759758505744,787.3075531448617,724.002538304186,847.01652397313
1731697661.1913157,929.2990913077493,789.1798384840596,743.5926997720992,856.8363466481087
1731697661.1952066,781.8788728179604,789.9757193971539,583.6693163643178,804.4769195995433
1731697661.1990976,638.4199180975609,789.746590312863,362.15541328377316,747.6242245191416
1731697661.1996489,644.7582001818982,789.1674339955091,260.89070578437276,747.7379681203347
1731697661.2029884,816.3780752454866,788.7502491702525,373.3309959286987,815.2690171682722
1731697661.2041235,1018.7927831152658,788.6140296675293,620.7933919732197,898.1561068264526
1731697661.2068794,1076.3753038506125,788.6334834419164,811.8873544910125,924.2029055253141
1731697661.21077,920.4392427634397,788.6562522041751,800.5026018568421,862.3838826517738
1731697661.2122576,653.4675054091144,788.6134042782134,610.893291637629,751.9540453088139
1731697661.2146611,474.0435882067392,788.5148698221029,420.7965785269959,674.351976113046
1731697661.2152183,520.3524349096983,788.3982267745972,411.6984853754072,689.4277874018185
1731697661.218552,757.7758237098615,788.2894208641584,611.3744908709584,786.9941095180511
1731697661.2224429,1003.3193475883136,788.1931539681138,865.4538269599886,893.4708946371411
1731697661.2229877,1070.5046698307215,788.1020291948163,966.4973660703502,929.6733179564566
1731697661.226334,919.1001082739252,788.0080435636231,831.9745935321342,873.8812874749201
1731697661.2302246,686.8578739141012,787.9079077909862,577.4822145577243,778.7023653609319
1731697661.2307878,575.3416575876402,787.8023869866589,420.6118053693092,727.2358766095316
1731697661.2341156,682.8731986559237,787.6934818331578,496.8434237372753,764.226033112291
1731697661.2380066,922.5743118370516,787.5824442883722,743.8803198984227,859.0188121443954
1731697661.2418518,1092.9712383656376,787.4693980922905,951.2851457082331,930.742511383858
1731697661.241897,1042.3083225273826,787.3538945642704,932.6762164805991,914.5582391089696
1731697661.2457883,792.1744760179884,787.2355243330707,677.9580043370175,814.6682228891071
1731697661.246357,521.8465031468644,787.1141536575947,363.1231317094755,701.7099758191772
1731697661.246972,428.1656340080744,786.9898167122428,212.7418865586181,657.5326681224653
1731697661.249679,573.3442413832988,786.8625018245747,327.1025902365075,711.6527408904849
1731697661.25357,839.9813203967323,786.7320594746357,610.5816572568684,819.2257082754161
1731697661.2574613,1026.8121794067424,786.5983426725934,854.4002319055943,897.2909350789181
1731697661.2607155,1007.7367063834633,786.4615104704191,903.37073657872,890.2467616047686
1731697661.2613518,826.6418675036633,786.3222095635523,770.9919829657916,812.301713831353
1731697661.2619264,652.455125336124,786.1812343418267,612.6530905202416,732.9127635617643
1731697661.2652428,633.3278255209057,786.0385145994386,585.1940067681172,717.5647334044245
1731697661.2691338,772.3244316169661,785.89203711666,713.7206398610549,773.1928920693967
1731697661.2730246,928.2217331092913,785.7381822885076,876.044387846684,843.6360377205494
1731697661.2769156,938.8777728218197,785.5748531096563,912.585546323028,858.3160610435688
1731697661.277496,761.92794005712,785.4065431410037,764.5631478363313,792.7739975350763
1731697661.27958,515.1495187943544,785.2465455592375,524.1021219022664,690.5836730391871
1731697661.2808063,383.8667070272617,785.1093010822916,357.72816465117563,628.99082975238
1731697661.2816868,471.50464860784723,784.990929553826,369.9461106283265,656.6934191131315
1731697661.2846973,714.3183971964621,784.8505717598521,520.1738429791475,754.1528829656312
1731697661.2885883,929.7833864449711,784.6207363969768,660.4222647522952,848.535882182761
1731697661.292479,961.4595231707603,784.2700771138149,661.7172519765686,871.7555754000888
1731697661.2930653,804.1521555532619,783.8968617871894,524.0185972080697,814.9847687027831
1731697661.29637,606.3193829710376,783.757883166777,377.5378858348819,734.8185724892909
1731697661.2984438,545.7908259525456,784.1048697037992,373.76560817477025,705.2905045323206
1731697661.300261,680.8710932166891,784.8100022253751,556.7341860997169,755.2490736068936
1731697661.3041518,901.3839034516097,785.0425616677596,820.6791989785777,843.6960548851143
1731697661.3080428,1021.0262215855329,783.5265904404887,987.6446599085693,894.1434930378465
1731697661.3086343,933.3466676875194,779.7511324955587,941.5257128680523,859.1661602892235
1731697661.3119335,701.0357930884994,775.5616586859067,713.7740529611633,760.994978379232
1731697661.3158245,505.9941329635352,775.3226983728736,458.56847573252804,674.6684717296057
1731697661.3164015,503.6792856045211,783.143514401422,340.7855134027772,668.2685161590264
1731697661.317308,701.0023125830212,798.5396125749636,420.98955552083174,749.2017023817691
1731697661.3197155,954.1032486575805,814.6461923314773,618.6319849625061,859.2583382688388
1731697661.3236065,1084.8894122634579,821.8297423690702,777.0334133151074,921.472203766741
1731697661.324204,1021.8279817715926,814.8003970620731,782.1792339988358,900.8083421366607
1731697661.3274972,852.1407141501328,797.6151971788968,647.6633227399002,829.9535297135347
1731697661.3313882,743.6403358041291,781.843233973273,499.7753448858683,779.5356077444445
1731697661.335279,801.0653245447317,778.431554928839,471.82527780681045,797.6304391015439
1731697661.336172,977.4404239787027,789.4474738521328,592.278035691278,869.3665244657742
1731697661.33917,1115.8235943014724,806.7059750802499,761.6142946661282,930.7678836443794
1731697661.3397734,1086.0336777233967,818.806286557547,840.5859585405159,924.7470181511916
1731697661.3430607,899.621837712387,820.7350563110806,775.3521270782367,851.2009831347299
1731697661.3469515,705.2265721980823,817.6726656183944,649.5506466984488,768.6778603630763
1731697661.3508427,668.2082038220407,819.5729777169535,614.6957402406615,746.5809813900095
1731697661.351116,834.7092401453184,831.2637836292482,756.2106090091027,808.0396502871407
1731697661.3547337,1091.126780848539,846.9573444296287,1009.8985023537498,910.1909371269157
1731697661.355036,1250.9401331869265,854.4219594606413,1203.015357698529,977.2894906615396
1731697661.3553429,1199.682576093401,845.694876393834,1190.7255775131962,959.9685347209509
1731697661.3586245,984.4647323316094,825.1982273139256,978.3100295240272,874.0410596639651
1731697661.3625152,777.6065698338983,807.671951035998,726.6407272190422,788.307316349044
1731697661.3664062,741.122187521014,806.6186019621018,629.2579986789483,770.2823282640646
1731697661.3702972,897.5248255355561,822.4162656822607,754.9335671822605,832.1340307035598
1731697661.370912,1110.423504994298,840.5242427062681,984.4766394163294,920.1390177181605
1731697661.3739,1192.8011177352087,842.408838449277,1100.1090210088912,957.0677897073534
1731697661.374188,1057.8427700469758,820.9703835104328,961.6637921376571,904.2636443281247
1731697661.3780787,791.3010145996927,787.6687775978587,627.9431250008136,793.7280612427709
1731697661.38197,586.572312573186,764.7318796462525,320.78750479548233,704.2726755800836
1731697661.3858306,593.8136302497369,768.1213022558816,255.95375293555065,700.5459752680505
1731697661.3858607,803.1397847761474,794.9883486924771,475.43556463137844,783.2216855595009
1731697661.3864815,1054.1628331671045,825.9885774133048,816.8467784740944,889.4152511210069
1731697661.3897517,1163.1080936586186,840.571878136072,1043.8606104260157,942.3989632024856
1731697661.392764,1065.49750198918,832.5988464967037,1029.7235329455739,910.8700758501332
1731697661.3936424,860.5868468541222,813.5635948616498,843.7867981167476,830.76306043761
1731697661.3975334,723.0322564296116,801.3585292267172,674.1994771190027,772.6662199705424
1731697661.4014244,755.5297422738322,804.7347977161944,658.5709558317819,782.0226764531035
1731697661.402051,905.3880145197982,816.8856517127157,770.5483708616362,841.8957173865588
1731697661.4053152,1014.6648535075798,823.1576873575942,857.7656653798429,889.3777708018553
1731697661.4092062,960.0411332610854,815.3233282521988,791.4213864681681,871.2851583170262
1731697661.411628,762.1457860242765,799.338856427014,590.0980335360133,791.3616420344936
1731697661.413097,571.1843280528603,789.8006568847741,406.87968813687115,708.85319166381
1731697661.416988,541.7993269298292,796.4294169915722,393.09213193452547,689.8828756969217
1731697661.4176204,702.7465682321374,814.8827114057644,561.0832610450611,752.3622417114065
1731697661.420545,929.4917310167517,830.0793193708411,767.2557907747589,849.8027079977887
1731697661.420879,1042.109957834293,829.0617903232154,830.4083916530759,907.2257275453607
1731697661.4247696,949.0469325600227,812.1507973768578,684.1364774014861,880.3764922924192
1731697661.4286606,720.3475324800705,792.7754777249658,434.3254300377959,790.6780638172136
1731697661.4304922,530.460314738637,786.2401073855559,274.19638896860266,707.3989895940325
1731697661.4325516,516.4388931207882,797.1328412893355,328.6884765032436,690.9723339740688
1731697661.4331896,667.5430692032432,815.9563921651776,556.4346160556177,743.721016873043
1731697661.4364424,837.6699548329273,827.3807742138314,786.5542036464312,809.1085099088032
1731697661.4403334,870.3499656913235,822.744582492465,855.8681570945612,820.6083033471583
1731697661.444224,731.5326299509711,806.5023330125761,734.1849905750697,759.244120547128
1731697661.448115,538.886896919184,792.079026757625,541.207455686334,671.0768218620265
1731697661.4487593,463.72434509668176,791.3023948574254,448.2560227467058,629.6896056961907
1731697661.449356,587.7223947998432,805.866038477095,545.3600626461462,674.963358387047
1731697661.452006,832.4493713500456,826.6563434624009,774.2896269728379,778.8158448741111
1731697661.4552598,1019.0407070868417,840.5742503957248,974.1688711979498,866.0569220648956
1731697661.4558969,1010.440540983304,839.6075973231478,1003.3920531195583,873.795956853347
1731697661.4597878,822.1346700390025,825.9772123843763,846.9124031616113,801.6707231546721
1731697661.4636786,610.546155603425,810.0507260135528,627.5809417891804,711.8100010540331
1731697661.4643283,545.6660028597362,802.583973842069,510.48115704326665,677.6084499700627
1731697661.4675696,671.0743763182356,806.8452883871512,572.8566606346583,723.0287469189484
1731697661.4682202,868.9846809629372,816.4486998405474,743.3602848544595,803.5036474205982
1731697661.4714606,962.1899491760989,820.6348244418285,861.6248867304769,845.3909087279247
1731697661.475351,867.9459732841472,813.0789814977551,811.2103839310906,810.8192482828075
1731697661.4792423,672.2865846722829,797.4363784375603,617.4863694448336,732.1412177984246
1731697661.479898,560.0095403238275,785.135937087075,430.2069244301718,685.8057787648006
1731697661.4831333,658.6131285975038,786.7895759420742,404.79485749529306,727.4031925836696
1731697661.487024,926.9441868066834,803.603250693901,577.5789595296219,842.6039339401087
1731697661.4870842,1180.7998632795704,825.5336128577288,833.6417974527852,954.9420644708409
1731697661.4899745,1234.8292001260256,838.1469523872613,992.7202907027884,984.2855643577492
1731697661.4909153,1047.6072342821415,833.4465918783163,947.5688954443814,909.3111954412855
1731697661.4948058,755.5973814224865,816.3022033100353,747.8228724812083,784.7549206290254
1731697661.4954672,568.8243142814707,800.879262540313,561.4450397356034,699.8136066601464
1731697661.4986968,609.1016420983026,799.3131632898053,540.0618985137655,709.9702550209662
1731697661.5025878,818.2708094216755,811.7268555676739,694.5098924329056,795.7233674055409
1731697661.505948,1010.249450535798,826.2180742555913,884.9283988535275,880.9684710138836
1731697661.5064783,1025.2352067507838,829.2041969449766,938.4534183520823,896.0444489118039
1731697661.5103695,859.9671873119175,817.3979173011826,798.6466539440404,833.917707716057
1731697661.5110366,667.0652999492222,800.9811272665725,579.5300563243745,753.679048842414
1731697661.5142603,625.5051271156751,795.0378654863321,475.2007528671894,729.5318052706303
1731697661.5181513,791.0167871938572,806.4533031105673,598.1322678795949,788.5389374953444
1731697661.5220425,1049.2402989541133,827.4350144536193,880.2420368342669,888.414911378112
1731697661.5246892,1207.0497032088424,841.2940165238042,1119.476812755229,952.1638927054621
1731697661.5248122,1145.428266846414,835.9294760086775,1135.9480411608304,929.9732251500169
1731697661.525933,911.6802479963586,814.003574008734,913.2539659588399,838.4347735789977
1731697661.526606,680.1396492870633,791.2628602903277,611.7068510610978,746.7524048740954
1731697661.529824,614.1084724032524,784.0312016738046,441.46256031476844,721.6311738765111
1731697661.533715,738.5783961570185,796.0469862303358,497.0694649516617,774.7419258235475
1731697661.5376058,925.5302258737534,815.7746728821443,689.3220837965728,854.8407392488638
1731697661.5414968,1004.1921074014331,826.591295248196,831.1846580768165,891.1810627763272
1731697661.5421755,905.5635551922248,820.993332042006,803.0025652920474,852.7229714319228
1731697661.543676,719.9919632097708,806.384504140122,652.9695276908085,773.8029104668364
1731697661.5453875,618.7284479039124,797.6120584740601,546.7818517730823,724.598148636828
1731697661.5492785,705.8848320973863,803.2556067616507,614.4270159627048,751.261123944515
1731697661.5531695,926.3961985441791,817.9275947470439,830.7818887072599,836.12335495361
1731697661.5570602,1107.5638941354841,827.1054410947385,1032.9643194549076,911.1579600521457
1731697661.5577447,1099.1973287008786,819.9027475289461,1056.4566557072242,913.2856602839493
1731697661.5594037,896.6010681188944,798.6013654568546,872.5236305235718,836.0371327854192
1731697661.5609512,646.7040705126878,776.9652167502325,612.9969592123026,735.8238718343508
1731697661.5625403,532.8748560446897,769.0257738214733,464.5172243112711,687.8262052118221
1731697661.5648422,630.2392247058326,777.891348813998,520.0796332164598,726.3686003937084
1731697661.568733,846.8462165695961,793.9038344949415,708.3682697505519,817.2321182827571
1731697661.572624,999.2659634060763,803.4802338826535,857.6828111638147,884.9835541048108
1731697661.5733142,963.5185000934464,800.8282091068467,841.2557231243461,874.5597164915683
1731697661.5765147,777.9809615491035,792.2800616585887,682.6809271490297,797.0974314826315
1731697661.5804057,610.9205277169444,789.655030329051,532.9735229487862,721.0984118260458
1731697661.5814042,617.6506041811011,798.9541400687324,539.6555254317545,715.0551786654723
1731697661.5842967,807.1742532840915,814.6660399500931,719.6709790877476,789.2979869031793
1731697661.5881877,1031.6722529233268,824.4868026788846,942.4439438724148,886.2917338691684
1731697661.5888836,1108.2916072494163,819.8435218701532,1034.5163701339566,927.813650036007
1731697661.5920784,971.2073107554294,803.0011793115196,917.4403073486449,879.577338192092
1731697661.5941184,727.6280262305859,785.1913793078572,668.3121160645404,779.707395740895
1731697661.5959692,572.1407842931161,777.9514267442858,458.9376283175818,707.9443611848371
1731697661.5998602,629.9536496124996,784.8518936519332,425.2951333405314,721.1632875090272
1731697661.6002684,856.3196974662463,799.6614104736053,568.6883353318572,807.7739191805352
1731697661.6037512,1073.0876676765747,811.637467163582,761.0067091958668,897.7970754469086
1731697661.604453,1112.617214876263,813.5064315753967,845.8632458859688,920.1847847792792
1731697661.607642,952.6244811599358,806.2466060983121,756.5011111264985,860.600749860191
1731697661.6115327,732.3568317077791,797.5404778561373,561.5329151579316,772.3614172437924
1731697661.615424,636.7230664460387,795.4823388047084,406.6535826109031,731.5373722013672
1731697661.6191325,743.470860368325,802.4194140431716,400.42298149199434,773.3943284457664
1731697661.619315,959.3280837389551,813.4151695622318,533.4381463609326,862.9351672381703
1731697661.6200223,1097.4415636742806,820.2615441562073,691.7677926280224,923.8797590982892
1731697661.6232057,1031.7776707759733,817.9687342427678,751.4019934211499,901.8807098517117
1731697661.6270964,801.7077449237283,808.9486425154066,678.439732606316,809.8206935034585
1731697661.6288333,582.1051047244669,801.6417874955551,555.8492188086684,718.311053645312
1731697661.6309874,544.1577508148869,804.1694485968783,514.3706420641521,699.4509049031515
1731697661.6348784,719.5476180627904,817.4569735184417,621.1449478655609,769.4425471836829
1731697661.6355915,976.5346125938235,833.4030125473911,817.1313025414715,876.0260374910463
1731697661.6379964,1126.2080090552947,840.4590720880083,959.8630451590827,940.5238621084727
1731697661.6387691,1073.185237271655,833.0071636669691,942.4894215426219,920.6573880053822
1731697661.64266,889.2013370011291,816.8783132333577,790.6671937821368,843.5061034722404
1731697661.646551,749.5331957349982,805.5205376796175,649.0132164774993,781.6424851616823
1731697661.650442,784.0424010176198,808.9872964208782,659.3867287704788,791.7011022077556
1731697661.6511612,966.3393678110134,824.7328141001241,830.816609107682,866.2012722413987
1731697661.6543329,1134.2432385347945,838.5537815757534,1016.5479036251548,939.131804917571
1731697661.6568604,1125.263532145384,835.734543676482,1026.781600998632,941.0569354269146
1731697661.6582236,914.5199314875906,813.5851305656081,788.7630250334853,857.9637605694782
1731697661.6621146,640.7453062217954,784.9290907303767,420.85768569952694,744.9857759843152
1731697661.6635475,498.7831246198088,769.1969236467389,154.26042688351197,683.6032893765956
1731697661.6660056,585.9287182352363,777.7778599278429,160.03817336829798,717.180298146511
1731697661.6667306,825.9751640192881,805.135622748172,418.47752293675717,816.9187552576041
1731697661.6698964,1031.330409182013,832.9366786172762,736.6273138788144,905.3404588228713
1731697661.6737874,1052.3248655917346,844.1329824459616,901.2028419275225,917.9819943265959
1731697661.6757245,892.8453510613715,835.6602990572277,842.5560554567631,853.352215908412
1731697661.677678,699.0479328992291,819.2824884531033,674.8677334023274,770.8986299110577
1731697661.681569,632.0497521914326,810.0826861893826,581.6892622566734,739.3222719482513
1731697661.6823,731.7051774548588,812.9023332038769,648.8556848114913,778.6246937467815
1731697661.68546,885.8196095357581,818.8287518628276,791.9424216326217,844.4109115994053
1731697661.6893508,929.6244651970251,814.6021139979088,840.2903415277436,867.1954498148626
1731697661.6932418,789.8719525946094,795.9488811765233,699.5415572439131,812.9213575317171
1731697661.6945884,551.2944135715443,772.4254348756508,445.8752197853603,713.4437289901185
1731697661.6971326,390.2128730203001,759.4015148516805,267.7703941054178,641.69430655672
1731697661.6978693,431.1327194375884,764.5787672598703,305.90864813150654,652.4686151461949
1731697661.6982622,644.0964589166217,781.1600606445252,529.3675019006765,737.4089985151016
1731697661.7010236,866.0478962697823,793.6499450596087,754.4882227761298,830.5580369986926
1731697661.7049146,929.4646548736667,791.145160392244,792.6228740775653,860.1144795533475
1731697661.708805,795.2329038001766,776.5927754323629,605.1595617497692,805.0785728544232
1731697661.7126963,581.9421614238563,764.117802336603,337.03483806615304,711.1490730488695
1731697661.7134387,466.7373888976191,766.8414378493378,200.04517710269556,652.7347915934082
1731697661.7134526,538.9353574460772,785.6777713137453,302.30323878710624,672.0718460526098
1731697661.7165873,728.2233246771126,808.5141555422413,564.4928306268122,745.7395052908864
1731697661.720478,867.258314738165,820.1260704634279,789.3536419979289,806.1746685880199
1731697661.724369,834.9641788473748,814.2210847105216,822.7063300203484,799.618334480885
1731697661.7282598,659.2131223862671,797.7519667232255,672.1167700712166,731.5628206109401
1731697661.7290082,493.6720220840884,784.6059350548234,491.00764842717217,662.0098559087301
1731697661.7321508,490.2760405617618,784.4771668173018,449.760644524085,655.3337613383352
1731697661.7323165,673.6247925011006,795.9029118394128,602.0593641598235,726.6018373856076
1731697661.732977,918.3702313020008,808.2947100617132,848.3563673375179,827.8182960084052
1731697661.7360418,1046.0220217657898,810.5942889672685,1016.111431349148,884.7402430852808
1731697661.7399323,964.1935732340394,799.6746319170799,989.6417231423575,855.1099050332562
1731697661.7438235,739.2598080699768,782.4612847845134,792.2389800545758,762.542867792481
1731697661.7445774,544.7258287033619,770.619126459919,563.2130826682094,678.8528010452487
1731697661.7477143,524.5759704566893,771.9477161668641,450.64213910079616,667.8152437526462
1731697661.7511806,680.0076812260193,784.8396036902661,502.1097313015271,734.8064501251138
1731697661.7516053,871.9292643898998,799.8116343632915,636.1834408275024,823.4283976709298
1731697661.7554965,938.4232553897862,806.8508142907112,714.7877184748894,862.6439912146883
1731697661.759387,830.530333052245,802.9738079151307,657.7849155292915,825.8784302450055
1731697661.7601469,653.0505407703263,794.2773326556314,508.3086361232972,752.8238145546849
1731697661.763278,576.1559888733373,790.9594760886371,397.4268066451574,715.6310161265874
1731697661.767169,691.7155083135506,799.1002910624569,437.0730044276237,757.8405135436972
1731697661.7676914,933.5022736656761,815.4397358486797,626.4741527593877,856.929463761946
1731697661.7700446,1126.8598122115386,829.2571796701842,846.5810618090438,941.33402940626
1731697661.7710598,1128.0045752212898,830.2642082393934,949.1910296085084,948.0622267150164
1731697661.7749507,941.1377407609663,816.7535593377876,873.4950082193689,874.2147906171461
1731697661.7757163,718.0941049843398,797.5564281258845,697.659933866877,780.3619630447727
1731697661.7788415,637.8861347365442,785.7017817392999,579.3901439443015,742.0936425062632
1731697661.7827325,761.6724826460377,788.2966439159433,627.6756950635958,788.5360469830204
1731697661.7866237,982.7093224467658,800.7511084213967,809.3531656770516,878.6779869618588
1731697661.7889087,1115.357817383985,810.4572966802108,972.0782321087631,936.013930504696
1731697661.7905142,1050.742982751098,807.3292617492042,970.4275789091956,913.0264709302256
1731697661.7912855,848.6141239422859,792.6384071580543,792.2632550036942,831.2624725942138
1731697661.7944052,687.8480841213752,778.6287292760367,577.5987110765878,763.2590474028948
1731697661.7982962,717.3217015238594,778.8318481110289,509.7749622848778,771.8393074704475
1731697661.802187,931.7772768181649,796.7545317499754,665.8866629429689,857.7083204746955
1731697661.802406,1174.3896333578377,822.2489448785141,949.3710368467353,958.2442094156319
1731697661.806078,1261.8540737160902,838.8628507978494,1161.6726076711852,997.3998642234592
1731697661.806855,1129.3340712273941,836.5162479654512,1156.51890512548,945.6259208114915
1731697661.8077726,879.7258714038514,819.2709943104813,952.7656226601594,842.189440865312
1731697661.8099687,699.7995276667225,801.7323839672146,714.7383450884661,763.0979698722372
1731697661.8138597,711.0365187774293,796.9440432041425,616.1481094482175,760.6422014548174
1731697661.8177507,874.4446275679526,805.8796623235809,699.3654578186178,822.6569063053342
1731697661.8216414,1026.2214746097097,817.4608954855935,847.297179694616,884.1421959751196
1731697661.8224244,1015.9044285831611,819.0316397987433,891.8745174613152,882.0948042630241
1731697661.8255324,833.9815595851485,808.0367535674327,766.3013620793507,808.9601759388428
1731697661.8266368,623.0525850959352,794.5245362448494,568.5336502156987,720.4932414877137
1731697661.8294232,561.9024371971893,792.1877910351013,478.65743080436255,690.778048239773
1731697661.8333142,716.6518567570386,805.7948079339473,599.5876513829318,750.6054739131122
1731697661.8371208,980.8779370515717,826.0925866187213,858.7854704228922,859.571599133018
1731697661.8372052,1155.2546755033857,836.870191036742,1058.793887930523,935.5659957155152
1731697661.837994,1104.8882015121999,828.4289882653611,1038.0960465049832,919.1928913953335
1731697661.841096,868.6544917820548,806.0811204891747,807.8879109129733,821.8544658114757
1731697661.844987,630.824500649873,786.2685053619318,547.0929956998041,718.0805225870022
1731697661.8455007,574.7348951922584,783.2790395809534,456.0577959990313,686.8727651328572
1731697661.848878,735.2438045016747,797.6519145627032,590.6608885079279,748.6520817003242
1731697661.852769,970.9172567882365,816.1312855485426,818.0544267124664,849.2547483977255
1731697661.8535633,1080.6528510176176,823.2188711252494,932.5979760179496,904.6668425372574
1731697661.8566597,969.9110501683929,814.3842783127144,832.761596115283,870.0808199607989
1731697661.8605504,729.5464763752143,799.6162747750907,607.5513941456846,776.497133712024
1731697661.8643646,562.4135455729481,794.4592695973286,460.22379936901564,705.0479198665834
1731697661.8644414,618.6191094061073,806.434013494141,536.6260929436247,720.6552017239119
1731697661.8683324,873.710742531125,828.399870469347,803.1913656938821,819.2699611907935
1731697661.8691325,1146.530330107018,844.1804939508196,1072.7420888445822,930.6546945410781
1731697661.8718352,1240.111326753392,841.4755927689484,1151.98134105409,973.404126858337
1731697661.8722231,1093.0047905684596,821.448033778438,989.2837299667609,917.9792719533256
1731697661.876114,822.9983734272189,797.5502607357098,707.6328309868329,808.3388539589047
1731697661.880005,631.0950585034328,784.9952492562724,502.65599450697425,725.9387873860891
1731697661.8832288,643.5292686397224,789.5609696605327,491.5179069241755,725.3452705886353
1731697661.883896,818.1668680894477,804.5130010968372,633.0537406734616,793.1216009165726
1731697661.884702,989.0902815758418,817.4638216227022,777.5948379066574,862.7270665475262
1731697661.8877869,1009.9304647353345,820.8074195117066,798.0196170051717,872.2870958145622
1731697661.8916776,875.470199961107,816.8865340723888,690.5412824127573,816.7307036035477
1731697661.8955686,721.0283332501031,814.2164327720532,565.9371948877775,750.9251772296924
1731697661.8994596,703.3327532635836,818.9880273041607,547.565454207875,741.9957425815612
1731697661.9002714,865.2660162995755,829.549342390473,666.6672510433348,811.4418252733013
1731697661.9020927,1097.005955112797,838.0824008125527,838.7563846440687,915.1978464779731
1731697661.9033504,1223.618754711652,837.2751619524217,933.0600593791146,977.6377157349743
1731697661.90655,1146.3502460527593,826.2660178975194,875.5113844931353,951.7330164438021
1731697661.907241,923.5957459476992,811.5505956058103,706.606584559993,857.1059622481934
1731697661.911132,726.3055896321715,802.5766024418247,552.7113950433785,765.313000612008
1731697661.915023,702.228875929992,805.1932777686241,531.9398900560894,743.4173760158345
1731697661.9158406,857.5649167461448,817.3279387645229,663.1824284995573,800.8366220878665
1731697661.918914,1053.276103644138,829.9739102481742,848.0379105217645,883.0177104124284
1731697661.9209569,1121.0803649647532,833.269770954187,944.5074925168742,917.7760152397448
1731697661.9228048,1004.0845652859944,823.7298590512287,879.7847795814114,876.0437664069264
1731697661.9266958,804.3487056353798,807.2379161549336,712.7623220611082,795.9850558746632
1731697661.9305866,696.7875974788549,795.0614966753187,591.3286979392485,750.1002372180882
1731697661.93141,781.4977724911166,795.4769875293006,633.8033887044994,783.2925062486179
1731697661.9344776,998.1901351886594,807.3651594632393,828.8313746849454,874.1895051001969
1731697661.9383686,1173.330830314519,820.9113214771837,1036.3685454472588,951.7632508407862
1731697661.9398208,1160.012912657207,825.068915970083,1092.1080869031905,952.8357610760411
1731697661.9412646,955.9487942297268,816.1002600097202,935.0716963307336,872.9734315712243
1731697661.9422593,704.8051772152554,800.5158156630811,658.6190430325513,769.6827581050231
1731697661.9461503,580.6174873526139,789.9051740499308,442.55914014077246,715.7928258602093
1731697661.9469795,648.6105374204807,791.5152898294491,415.71555570314456,740.9635487923375
1731697661.9500413,815.6583739589546,802.2147908132591,556.5368259843483,809.0923493512183
1731697661.953932,912.1601943627281,811.2437604211607,715.227483869058,850.5400276629375
1731697661.957823,838.1448638070889,809.8412969433232,743.7173900320288,822.5012061971079
1731697661.9586847,649.8355461623219,799.3360993025725,624.4517570204341,746.2199657669931
1731697661.9617138,511.1929821106373,789.9988327649482,483.1672205239354,688.6848859540677
1731697661.962549,550.7637807752874,791.2273068079635,470.5737714833239,704.1338203640063
1731697661.9656048,746.9160484932402,802.0633824403669,617.9383766199869,785.6813627610622
1731697661.9694958,940.5567538340157,811.221105343901,799.0002574123481,868.6999251003037
1731697661.9733863,965.020367438957,807.0970164149148,836.0863912991615,883.1818135563983
1731697661.975979,784.0638969827296,788.818674532375,658.1012652154383,811.1995453533641
1731697661.9772775,524.1472710039859,768.1866546115513,371.33385442526316,702.3233607771559
1731697661.9775488,375.94114919292355,760.3930371414593,180.11810139721973,635.1887522992229
1731697661.9781182,445.20938571876536,771.258869437531,222.44630173546233,656.5338071916026
1731697661.9811685,671.2035696854462,791.8585036333678,456.07615173325127,745.7424665977834
1731697661.9850593,876.0343334372208,805.3669195355733,689.2671454961337,832.1161546469717
1731697661.9889505,905.7334908368565,800.8433900298974,733.570588935908,850.911711341972
1731697661.992841,751.2985027744593,782.6523447047293,556.5846922423079,793.8886654322471
1731697661.9936876,552.8038408722953,767.4022448103401,309.7916487441332,714.1884756134564
1731697661.996413,482.9772277977535,770.4710145908763,206.32391889586,681.6986496086602
1731697661.996732,604.8889911767158,793.0964322025693,347.23856817475667,725.191375105591
1731697662.000623,820.0182507518765,820.8659097155667,639.0388759839142,808.4206766183859
1731697662.0045135,948.7513788315637,834.9933445705402,869.9543398673535,859.5787578076615
1731697662.0084047,876.9528344505217,827.0397200348528,880.4689376542042,829.9798893069745
1731697662.0092573,649.4770666652103,805.0425988558785,687.3374401784764,734.4129762940762
1731697662.0106938,436.0843484487801,786.5068280436396,462.95201952038474,640.8361225157037
1731697662.0122955,398.13877357189443,784.544341371219,392.813523712293,617.6989638672583
1731697662.015277,562.4384272379434,798.4380290551038,529.7126877144924,680.5558692134749
1731697662.0161865,802.1179656998057,815.5756340228609,759.6161891799613,780.2539925920132
1731697662.0200777,940.0865597014355,822.3515638602553,901.0508936519374,842.5687643672446
1731697662.0239682,892.2853094843875,814.8788959552845,853.6682400117713,828.0341308664625
1731697662.0248263,733.4311261763353,801.1235706072644,674.8521144267995,763.1566719386967
1731697662.0278592,629.2675518840983,793.350048796256,523.9386801368319,716.4088492788698
1731697662.0317502,691.1550949650828,797.5919051936555,523.5260672687012,738.4389078946379
1731697662.0341413,876.9324800973955,808.9432238569907,655.9942274483296,817.2122476964129
1731697662.035641,1024.3660673078127,816.2704029705618,782.2264039113684,886.9947406866272
1731697662.039532,990.2798200825403,812.0021704904826,764.9755075716439,884.2783648309551
1731697662.0403955,777.6554320437319,798.6746739448735,591.365891659962,803.4790046006889
1731697662.0434227,542.6363308714691,786.9764074360817,391.70980047037176,705.133775738967
1731697662.0454085,473.67525388789403,787.1719920977226,339.3152239156034,668.9704069402741
1731697662.0473137,640.6391784472357,800.9131759407268,512.3616998223806,729.887435268378
1731697662.0512047,936.2518554531695,819.7480413415708,827.0324909875673,849.0176933859241
1731697662.053005,1157.9108946297886,831.2622273763654,1093.8007658112845,943.7155742156946
1731697662.0550954,1165.3225872275625,828.1307651480943,1154.376376631226,952.661565914254
1731697662.0559652,987.993641776955,813.3947926597846,996.3098666112724,883.5495261201097
1731697662.0589864,795.8823474002617,798.094704992278,758.7265632913219,804.5013644787849
1731697662.0628772,757.0326121631338,792.9473668787366,624.2114443565387,786.2727365098297
1731697662.0667682,899.144744364898,800.1975945459765,679.0223256100007,843.2267914102495
1731697662.0706592,1089.3541485497567,811.8161620276394,849.5682008262986,922.2527080962957
1731697662.0715346,1148.0316331771346,815.5992658676563,964.6391501145184,948.4943112013013
1731697662.0718691,1000.9365911672946,804.7651853929548,894.3676891408788,889.172400880844
1731697662.07455,743.6650520652458,783.833085675546,656.4366797474161,782.3268707685677
1731697662.078441,566.2636752517571,766.0928032476062,405.6418236349892,707.0736944743979
1731697662.0801227,600.3193301729384,764.1355224106602,314.39314939397076,719.9985434902147
1731697662.082332,812.8373412341981,780.3537066825289,438.21403484462945,809.4367349922052
1731697662.0862226,1033.0334768071643,804.8570177202007,674.0416070102369,904.7248629227465
1731697662.087104,1090.8601359305753,822.8794262194356,846.3207541336866,933.1415356422109
1731697662.0901136,954.6646894176342,826.084641079399,851.0013354146158,878.370441271298
1731697662.0907333,754.2534511033311,818.4957534853428,736.4919242539806,792.4334402445986
1731697662.0940044,668.8976365194194,811.9063636384636,651.3951535825363,750.8323162894203
1731697662.0978954,773.2347389310431,814.7173022099518,703.9147774241175,788.0553290533983
1731697662.1017864,971.830062908441,824.2020532810773,857.8871378056082,867.862840967639
1731697662.1026733,1079.5377914210699,829.3112694892639,960.651751584197,913.9301421504252
1731697662.1056771,980.2949505323248,821.5484782468794,881.1673094680241,875.1523392723394
1731697662.109568,729.6064845302434,803.9516937117955,637.16629574456,770.4351445533174
1731697662.1095972,514.3712498925096,789.7349281693579,397.3720237552203,675.5208407249088
1731697662.1134589,503.8817197503138,791.2691512562973,351.4689171192181,663.078925192544
1731697662.1148376,714.0405911451371,808.6947281920759,553.0117496720801,744.9912999039148
1731697662.11735,993.0427594420198,828.1934737678747,865.0640396040023,862.6111297998817
1731697662.1182427,1138.396678812782,832.2048881713887,1057.3690492221913,931.942616589777
1731697662.1212409,1052.6668678926824,813.8662402989986,982.6669197546686,907.9575863446189
1731697662.1251316,816.104816236658,783.8047793497622,693.272025108824,817.844561621639
1731697662.1284611,619.3028665266529,762.954842417491,401.8177503921393,737.2810568236944
1731697662.1290226,609.5155932366403,766.4576842998586,313.6606483469975,728.7502537156997
1731697662.1329136,774.4519735723238,791.6334209548406,465.7260657542481,791.6903222224632
1731697662.1338122,958.0028303174283,820.2018817300467,705.0480821108722,865.0958825161665
1731697662.1368043,993.8037629197811,833.0664146160507,824.3250697344708,880.0304023118676
1731697662.140695,844.5763739371347,825.2112053303674,737.9527671087869,817.9631386731031
1731697662.144586,631.8623613138285,808.3102326887274,548.3519613390954,726.4701269167207
1731697662.1473253,534.304779569112,799.505719035097,449.5974223840509,680.1556603988156
1731697662.1484773,641.174506831042,806.599514335239,555.8504372843087,719.9063556378472
1731697662.1493816,880.5858032065687,822.269836341538,802.4012296782315,819.9151504876386
1731697662.1495523,1077.3982936624716,831.5072343605999,1000.2749619030476,908.0172126319263
1731697662.152368,1091.8234349184813,825.1785724514883,994.7017025186818,922.2466707644215
1731697662.1562588,928.0422403909083,807.939093363195,793.2270201445762,858.68732936538
1731697662.1601498,727.1312005287162,793.954484987725,556.9063273535802,772.934582566262
1731697662.1640406,650.4358314756217,794.3987209070984,463.4183065087926,734.1335670747721
1731697662.1649508,748.1283994827003,807.7304893250172,559.1922534441948,768.7882379847424
1731697662.1661892,921.2827352513783,821.3222147019071,726.9024801255772,840.4847263604101
1731697662.1679316,1009.3785748779785,823.0038407069426,794.6722042553199,882.4257747884789
1731697662.1718223,929.7702980016697,812.2028517625994,690.2659319975446,855.4385714292071
1731697662.1757133,750.9084820119556,800.6866771028998,506.2537129984035,782.3495487435315
1731697662.1796043,636.7924916514316,802.2600976111124,422.23825201553876,729.4628089765151
1731697662.1805203,708.9830913345575,820.5441557848226,553.305388854737,750.5698484748767
1731697662.1834953,941.1599530267147,845.3117010652137,851.4228145347362,840.2261888541786
1731697662.1842668,1173.215831494671,860.1268526972109,1136.4634655185744,935.0611959272746
1731697662.185053,1234.2776419321297,854.734693614349,1228.51250604129,962.6211623172528
1731697662.187386,1077.466210011011,832.5338836472017,1079.6829960783216,899.1405185681222
1731697662.191277,819.4075694355917,807.9267485635374,808.8250002588902,790.0300325119229
1731697662.1951678,650.5176659521364,795.9576087353835,613.9062855045465,715.3589004623802
1731697662.1960895,684.3004041748607,801.8933741040868,625.0570375896059,726.3751869651962
1731697662.1990588,866.7907275380302,818.119758100997,807.7113090056432,804.2677598910602
1731697662.2029498,1023.1493671182519,830.2988630006238,992.3273928032328,876.340166252176
1731697662.2039173,1005.9869009569016,827.8849253554747,1010.8901277873658,877.5693346602632
1731697662.2068405,821.7887559505592,810.9547865825698,832.8945988979035,806.140595299895
1731697662.2107315,627.1517296504741,788.60114797529,590.2312020135043,725.3563153045591
1731697662.2116592,596.3245792081897,771.2466358018041,469.9752989781178,709.66555164511
1731697662.2146225,771.5652799156276,763.7981864060698,562.9077569806836,780.4079593771507
1731697662.2185133,1022.5347072315493,764.5173081042186,790.9041836729338,885.6207659863849
