timestamps,eeg_1,eeg_2,eeg_3,eeg_4
1731141616.3343656,808.0004567908101,806.379598076619,757.5465437662841,798.1416618723729
1731141616.3382685,702.6950949051965,809.6976810802597,700.4911119672281,722.8626309476226
1731141616.342171,625.9888466799497,814.2708279959003,654.1836971672662,665.1821615252355
1731141616.3460734,591.3265238867388,819.2944493974175,624.6848229192386,634.5269781039442
1731141616.349976,593.8871516239616,822.2397007727404,611.644634707535,630.1262361149921
1731141616.3538787,619.0082086457128,821.3318288337811,610.069699294967,644.9174621342944
1731141616.3577814,651.5171183411092,817.5337566488495,613.6142482605457,670.0635964389207
1731141616.361684,678.6455883140297,813.8752488744759,617.1646984969194,696.4246190462625
1731141616.3655863,689.8079631639268,812.7278170475284,618.0005799113395,714.8194746516792
1731141616.3694892,679.9338301746691,813.7002648281889,616.0667052222292,718.7328225418136
1731141616.3704183,655.3742467964693,814.1514886047656,613.74677105517,708.9486849400815
1731141616.373392,633.8259901936983,811.7485999883379,614.798102301413,695.0565979324538
1731141616.3772943,633.4899586286245,806.641838485999,622.1816282519886,690.1821750980149
1731141616.3777769,658.6334168490467,801.3262772175085,635.6360889450681,701.8390071181207
1731141616.3811972,695.0430198209804,798.4402101739639,650.8394284396093,726.5048891832448
1731141616.3850996,721.3002128195309,798.5405276412492,661.4990915330118,753.0403674859456
1731141616.3851378,727.0563468656852,799.7760454051587,663.5753394398729,772.3119884898701
1731141616.3890023,722.0802389375525,799.60735033693,658.6625793323237,784.6097003339453
1731141616.392905,727.4394282462247,796.9682575310148,653.5330052900919,798.2481963927062
1731141616.3966117,756.1157687599058,793.0598534008147,655.6266170860752,820.7089030460336
1731141616.3968077,800.1530182933849,790.3229007482838,667.7722272286396,850.5491629846554
1731141616.4007103,836.1136625710993,790.6515096948734,686.3724113639229,877.6385818190197
1731141616.4007246,844.6805499233878,794.2681057573822,704.4638925437755,891.6052904181612
1731141616.4046128,827.6033813899819,799.8553786302796,716.9149531604547,890.8290716764589
1731141616.4053333,807.0740890034277,805.5303015434114,723.4332583188891,883.9066144441467
1731141616.4085157,807.6356241929736,809.8569871164846,727.3988249182272,882.4363975746434
1731141616.412418,835.8646622690765,812.3285540323731,732.3051921440962,891.6287011760594
1731141616.4154463,875.0610097774544,813.1948085038737,739.1971417874511,906.7626291696333
1731141616.4163113,899.3659873313909,812.9079693325768,746.9021049880743,918.0545289179024
1731141616.4163208,895.3620608513655,811.6851978725932,754.1185150199775,919.3679800015373
1731141616.4202237,873.1729659564498,809.5754148914845,761.1071946252813,913.4225177188525
1731141616.424126,858.0228948219337,806.9228052288353,769.5238621454935,909.469766215918
1731141616.4280286,869.2967121124466,804.6264592962293,780.6985953238105,915.6140949060351
1731141616.431898,904.1741602939244,803.690494018328,793.9318248165046,932.0806628397758
1731141616.4319313,939.0747319881064,804.3089242507939,806.3417780163509,950.7732849938648
1731141616.434281,947.892262805756,805.3993804704468,814.56535321862,961.3928597516605
1731141616.435834,922.7604325201517,805.2596086519728,817.0786478857761,959.2594411338832
1731141616.4397366,881.0430736180189,802.9454583767966,815.2984016989299,948.7315707232149
1731141616.4402485,852.7532654393074,799.1219580447058,812.5610768319797,939.5669952983069
1731141616.443639,857.7142441741839,795.499966888665,811.8329168412773,939.0247239504546
1731141616.4474847,890.1043501023462,793.3174113814382,814.0397388280677,945.9069808924784
1731141616.4475417,922.8805289317935,792.3349750725879,818.2743813498879,951.4797446603852
1731141616.4514444,929.1926960996489,791.3938293615289,823.4158087243856,946.9469739532981
1731141616.453116,903.9439305399769,790.0414310632423,829.4559034954881,931.6487684130619
1731141616.4553473,867.772212433362,789.5682956787037,837.2244552576228,914.9138279235486
1731141616.4592495,849.7207138975767,792.2294012387331,846.8787761882787,909.189354188516
1731141616.4630716,862.7753633939703,799.1357167866602,856.8706934935101,919.4404156767246
1731141616.4631522,892.8823222070343,808.683899426541,864.7077706471119,937.6479198474026
1731141616.4670548,910.8085608743896,817.0686464444743,868.96096360818,947.6554538162873
1731141616.4709575,896.7107785318797,820.6270017748298,870.5309455824382,937.1035479022564
1731141616.4719508,856.6355757285971,818.1721792686168,871.7808377319137,907.0323156914701
1731141616.4748602,817.5182688088418,811.5516053279596,874.2644297468022,871.5009513220897
1731141616.4751632,805.5446032575288,804.2089553518848,877.23234898545,847.7380678290299
1731141616.4786582,825.9547751115767,799.0242119832101,878.3732157790304,844.702149913825
1731141616.4787629,860.1555207651339,796.9732670605413,876.1085520199343,858.4948827731114
1731141616.4826653,881.4864126840716,797.2661167572205,871.3405446291954,877.1255896209123
1731141616.486568,876.3333675125389,798.4586262345946,867.1304533154336,890.0118901210577
1731141616.4904706,853.6137355797256,799.4992226419845,866.6591511641045,894.6840455239287
1731141616.4907856,835.4267788839262,800.0721332641575,871.1926051099493,896.0773865588703
1731141616.4942453,837.1626265626962,800.3459114254672,879.5431127596828,899.9504520452411
1731141616.494373,854.0891592970852,800.5824712881928,889.1535069843738,906.5551759070217
1731141616.498276,865.8944655019147,800.9171264283895,897.7474157333221,910.1132587903966
1731141616.5021784,855.2367706276483,801.3452366724778,904.3298491906195,904.4108047596579
1731141616.506081,824.2241894101418,801.8045953380213,909.0628938406478,889.3734643965506
1731141616.5096202,794.4618114519805,802.2470320201525,912.4766269903587,872.5735014650734
1731141616.5098317,790.2714770259394,802.6604914308608,914.8853408136791,864.0128158126214
1731141616.5099838,818.771290195862,803.0559817140594,916.47007555456,868.3183954059389
1731141616.5100782,863.0573985836826,803.4475621938084,917.6820792476797,880.7428954058465
1731141616.5138865,894.2166655536703,803.8418384658034,919.2748111142419,890.3570824113455
1731141616.5177891,892.9936115147707,804.2381060864781,921.7688172970732,888.0851257674259
1731141616.5216916,864.1674899512742,804.6329809472996,924.8854686574555,873.2901086278818
1731141616.5254183,832.1403410399009,805.0240647688657,927.5599393813551,853.6293759666664
1731141616.5255942,821.0401023055957,805.410905536128,928.5157506873973,838.2847642091615
1731141616.528455,835.2550775540851,805.7941951259539,926.8737830817811,830.2194870425525
1731141616.529497,856.2532448935638,806.1747104881786,922.4370835921538,824.1125899468117
1731141616.5333996,858.4091907612194,806.5528059356775,915.7430132185044,811.9270698922089
1731141616.5373025,830.9721259894944,806.9284592713225,908.0259750590343,791.4215175817836
1731141616.5410051,788.1298056487199,807.30152717294,900.9259032067093,769.9969498866453
1731141616.5412047,758.649534624198,807.6719316126615,895.7578443688021,759.8434886639444
1731141616.5449927,763.0533385421415,808.0397012994024,892.6654664928992,767.712133102954
1731141616.5451074,796.5099711433631,808.4049254858944,890.4056052500878,787.69575181278
1731141616.5472898,831.5664040558165,808.7676973440219,887.1655088413595,803.7242150937861
1731141616.54901,839.4953299582319,809.1280838227017,881.8856140909472,801.0078544851009
1731141616.5529127,813.9375186830272,809.4861212053324,874.9909051985046,778.126570636238
1731141616.556592,777.5464302793969,809.8418262659599,867.8867603686401,750.0120683443257
1731141616.5568151,764.9256610484441,810.1952209608311,861.6928324833573,738.4361136152279
1731141616.5607178,794.3919149671817,810.5463691891052,856.4221399422973,756.3158431154928
1731141616.5646205,851.3084038565529,810.8954042290177,851.4366038264609,797.5321316131912
1731141616.566125,897.367833763339,811.2425003883972,846.8134045039767,840.3175698770472
1731141616.5685232,899.2943597939918,811.5877538137453,844.2914075105397,862.058376286886
1731141616.5721786,854.3386522836903,811.9310208707617,846.634440323693,854.5341091067141
1731141616.5724258,792.2886065933786,812.271890192731,855.5244219213539,828.2538404432124
1731141616.5763285,752.5954348500329,812.6100061063714,869.4985267888634,803.0461762678118
1731141616.579908,755.0488617727369,812.945740240918,883.7530796442932,792.7548463136095
1731141616.580231,787.116086074279,813.2806975705801,892.4112873177729,796.2123469949943
1731141616.5841336,817.0308393907702,813.6171015727634,891.9354798687654,801.0621818428546
1731141616.5849593,820.7313807934918,813.955464384555,883.3070009260797,796.1718241880725
1731141616.5877657,800.1270713494499,814.2916510231422,871.3440280530516,781.560113619393
1731141616.5880363,778.4143968940585,814.6167936680544,861.5699912539162,767.671870508832
1731141616.591939,777.8926806453297,814.9239374095159,856.8246670311335,765.5229720863011
1731141616.5958414,800.1042632715009,815.2206127190005,855.9633123928569,776.9210117108961
1731141616.599744,825.1908282547777,815.5366943606497,855.3909300842972,793.1322833258743
1731141616.603352,830.1721588645496,815.9091750594815,852.0643478459201,802.4514656991361
1731141616.6036468,809.6209387922452,816.3332284095095,845.6346681836044,799.6016121528061
1731141616.603794,780.7808187713434,816.6994094262172,838.3033249274006,789.0773552968438
1731141616.6075494,769.0408934597773,816.7696756280799,832.8325248923182,780.3006245357693
1731141616.611452,786.3348621798566,816.2335446944802,830.3845300111155,779.2609396772056
1731141616.6148229,820.5908450274646,814.8246811572097,829.6796938206144,783.6840911769151
1731141616.6153543,845.0127820411261,812.4480175104825,827.8779041197752,785.4921475350952
1731141616.6189387,839.8769723302199,809.3090380430722,822.5543277993859,778.4167859435071
1731141616.6192572,809.3802475795254,806.0393423307797,813.6100095274152,764.5388050174723
1731141616.6226287,779.5697026596255,803.7014322212217,803.9104264754751,754.1389915538358
1731141616.62316,778.0613695230087,803.4924298176961,797.9421195880179,758.2825372482498
1731141616.6270626,811.171819299509,806.1431907009173,798.962600738654,779.5352856953068
1731141616.6309652,857.2234524826052,811.3269479374163,806.513307361076,808.3709716209029
1731141616.6345255,882.4661661891622,817.5284290163582,816.4464030815296,828.8234200464343
1731141616.6348677,867.4568158680507,822.5922586108431,823.8669368552794,829.5283362171285
1731141616.6387703,822.5400288576715,824.7106597018117,826.7190012588393,811.6727193738488
1731141616.6414638,779.726998585415,823.2739927472587,826.8164461376974,787.6595497111306
1731141616.642673,767.6457459456137,819.0725919596225,827.3233027262413,771.6497176716085
1731141616.6465757,789.8144058727132,813.7846649041353,829.1212087458848,769.445795122159
1731141616.6497378,823.2365216731785,809.1655951167585,829.6656613484728,775.464261198629
1731141616.6501124,837.7157609614769,806.464124056042,825.5242248332332,778.8172092342877
1731141616.6504784,820.0975845937551,806.2654272759913,816.1635184659317,773.3161655120422
1731141616.6543808,784.2383324156008,808.5645598565224,805.2690783701595,763.0597469132323
1731141616.6582837,759.0431624936368,812.8074390096418,798.156038657853,758.8021206709782
1731141616.6602983,764.4528819961457,817.8951368918586,797.4781977673432,768.0386265290686
1731141616.662186,795.0956139629772,822.3628222124622,801.0651109024188,787.3984556261682
1731141616.665699,825.1440567055597,824.8416483228625,803.8349492180197,804.3107556423893
1731141616.6660888,830.2122782267984,824.6089878299827,802.0866850341779,806.9124727800836
1731141616.6699915,807.6673899598849,821.8807372614657,796.3939311138573,793.7532024538397
1731141616.673894,778.2390031401238,817.6827897356396,790.6690175316605,774.91568744869
1731141616.6777966,768.0795493744598,813.4589140769937,788.4484441670828,763.7748802427946
1731141616.6791332,786.9404509992489,810.6618849927581,789.844962925859,766.6721740189557
1731141616.681286,820.5540174774765,810.3634591424748,791.7958314214737,778.9838049235931
1731141616.6816993,842.6219255950651,812.7794515709305,791.1359263760386,789.950100626177
1731141616.6846528,835.8856881711149,816.8589989350852,787.5712950054931,791.333614693182
1731141616.685602,805.435329868558,820.4416085647274,783.9194672019397,782.7243869693584
1731141616.6895046,774.2786976487383,821.2978691064693,783.508198399433,770.1316183574891
1731141616.6934073,764.9902665130863,818.5553999430788,787.0354624542532,760.3665363914492
1731141616.6968725,781.7960178062581,813.3905610385273,791.5213158678149,756.4774758444604
1731141616.6973095,807.2202567485313,808.2860365318757,792.2021529401745,757.2801370870989
1731141616.697968,816.2919061264264,805.3792796433528,785.9594129785545,759.8476636403313
1731141616.7012124,797.3050259949562,805.2514733619138,773.8357632488072,761.9965082271896
1731141616.7051153,762.3311542246003,807.0648380365596,760.882214231771,763.1037435389095
1731141616.7090178,738.4578031074604,809.6858331331971,753.3363008565401,763.5662807862175
1731141616.712459,746.3477260529174,812.594426552567,754.8527651153926,763.958199883133
1731141616.7129202,783.2947068940828,815.7472646759311,764.2167085522358,764.5666295991291
1731141616.7168028,824.4851875397535,818.703865928286,776.1447974734829,765.3744124500075
1731141616.7168229,841.5674236356078,820.1073187893461,784.745063092597,766.2437149043774
1731141616.7195678,823.9410115874341,818.294384238459,787.2509039846113,767.0706574513083
1731141616.7207255,786.1910714896628,812.694956634781,785.3236076276258,767.8306670945041
1731141616.7246282,756.0436792871151,804.8070261569874,783.030820263069,768.5484558676972
1731141616.728046,752.555176393395,797.7405691287519,783.2670022404516,769.2543386309034
1731141616.728531,772.0675812388827,794.4799522523107,785.6448136754447,769.9619662634077
1731141616.7324333,793.2278118568831,796.1014462964663,787.5118976806134,770.6691747686232
1731141616.7356374,796.5286223326932,801.2302868283022,786.8363550017128,771.368239410148
1731141616.736336,781.3915758283332,807.0319605603319,784.0294193579778,772.0537643295299
1731141616.740239,765.8624216253564,810.9344427537491,781.1570334049436,772.7246254521715
1731141616.7436328,769.3013969368075,811.9558996404651,779.8724715234595,773.382141438648
1731141616.744141,793.5912145795695,810.993959638282,780.33638114748,774.0277641007544
1731141616.748044,819.6976347595905,810.1016819640353,781.7001130082855,774.6620058670864
1731141616.7519464,822.8447280059098,811.1825752304128,783.0924006610466,775.2845749232437
1731141616.7544725,793.4641326730476,814.7314432388697,784.1378564706059,775.8949547111254
1731141616.7544827,746.370689835751,819.3419487510095,784.8960860906567,776.4928169888221
1731141616.7558491,710.5405093087222,822.4759181329763,785.5722047575906,777.0780913487661
1731141616.7592194,707.5360792776588,822.2197504287238,786.3042511882187,777.6508067190449
1731141616.7597518,735.5448330373512,818.832422733856,787.1146238583664,778.2108970642498
1731141616.7636545,771.5861860369808,814.7445082082193,787.9617574021204,778.7581299614152
1731141616.7675571,790.1148242160319,812.7756536536548,788.8023989831762,779.2922498097804
1731141616.7714596,783.0147532289413,813.9100643481954,789.6194646552422,779.8133039980748
1731141616.773307,764.6857985935875,816.4968440309424,790.4176749049296,780.3219086384646
1731141616.7748065,758.2423126261137,817.5774380749629,791.2080612600514,780.8190242133327
1731141616.7753625,774.7382232270191,815.220054394191,791.9973680288605,781.3049518249244
1731141616.7792647,803.1635431309757,809.9587422555041,792.7861795452449,781.7779872754463
1731141616.7831676,819.6459370078281,804.3293472374443,793.5719678185651,782.2342302607734
1731141616.7870705,807.9302205812244,801.1104385174748,794.3523507969427,782.6703487495765
1731141616.7893977,773.8025985303543,801.7385919855506,795.1264053001022,783.0891945782503
1731141616.7903929,741.3752694656184,805.8918168057814,795.8943234257837,783.5038885993547
1731141616.7909727,734.2409597578012,812.1137169385248,796.6565715752292,783.9324082777567
1731141616.792142,756.8423943430822,818.6826204418522,797.4133611126451,784.3779477464045
1731141616.7948754,791.1867591265652,824.1229668477353,798.1645837850084,784.8047256388461
1731141616.798778,811.6375434348961,827.3342614053748,798.9099875132664,785.1383629185298
1731141616.8026807,805.7710203816428,827.6315450165777,799.6493460102245,785.3228536388082
1731141616.8059795,784.1121242655317,824.8882867905074,800.3825198409368,785.4263210637098
1731141616.8065834,770.6329134241695,819.7094643074697,801.1094320169495,785.7063482472554
1731141616.8104858,782.0207629422318,813.4121792300472,801.8300207068262,786.4857046582904
1731141616.8109765,813.1757871907445,807.6507941240731,802.5442105642917,787.765818235216
1731141616.8143885,840.9842095426352,803.7600802941909,803.2519111765715,788.7864904829238
1731141616.8182912,843.0363022314301,802.1522841977071,803.9530329346,788.083646357755
1731141616.8215663,815.901071389019,802.159473265792,804.6475066511982,784.5697257738954
1731141616.822194,778.4583922400005,802.4577822848333,805.3352929315389,779.2624447267335
1731141616.8243124,757.9714051886573,801.8384539368961,806.0163676501337,775.8621034115135
1731141616.8260963,769.8597283677024,799.9085000020558,806.6906797526444,778.466342174349
1731141616.829811,806.576797599619,797.3904257112537,807.3581056369584,787.6940045648834
1731141616.829999,843.8829032834296,795.8764984063424,808.01845864275,799.2867261960254
1731141616.8339016,859.6063664442128,797.0712514402403,808.6716104796697,807.4385718939421
1731141616.8371532,850.3235013851473,801.8016848684229,809.3176959395773,810.0534602939784
1731141616.8378043,832.7330204802238,809.3554224324315,809.9572143152171,810.7246432547272
1731141616.841707,828.5240462650257,817.6916035390468,810.5907437367418,815.1868592904225
1731141616.8456097,845.1547298524462,824.5108918142972,811.2181704884382,825.3021332167965
1731141616.8486462,868.7456625362837,828.4315534379101,811.8379101442284,836.2388096510376
1731141616.849512,875.4289049966319,829.3699500492309,812.4472416573806,839.9177721012574
1731141616.8527398,851.9563486720432,827.9507414665816,813.0447449095251,832.2102271365181
1731141616.8534148,808.3551831919389,824.6870797125976,813.6340884399525,817.6846148007455
1731141616.8573174,771.7729758991751,819.8009966273595,814.2254520224719,807.29950540951
1731141616.8592274,766.0679387100085,813.7612254176742,814.8293781077585,810.2566274851072
1731141616.86122,793.4299044733946,807.7786309359195,815.4419452692692,826.4763036677268
1731141616.8651228,832.8198260373509,803.5209426221066,816.0313003936428,846.1813916794731
1731141616.867481,856.5556109707006,802.135424012545,816.5469152917791,857.4206784133369
1731141616.868327,851.7916014401617,803.4180889139419,816.9682107965588,855.5815097966254
1731141616.8690252,829.63806611878,805.9037471854845,817.373946706963,846.9404135353922
1731141616.872928,814.612654719477,807.872960639291,817.958623709003,843.0994225908322
1731141616.8768306,823.25001102958,808.5057142030145,818.9004445702592,850.8413806133503
1731141616.8807333,849.8369209396175,808.2926551823857,820.0718095642561,865.9057723636193
1731141616.8839133,871.3606706726682,808.401181443192,820.7918319632762,875.951471853053
1731141616.884636,867.4210117346004,809.506527394612,819.9979850646904,870.3186435897705
1731141616.8863156,838.0709831485726,811.0202463215924,817.0252326575688,848.6786254317224
1731141616.8885384,804.4444557537618,811.36756263255,812.4717778864995,821.7413851001334
1731141616.892441,791.7416518320974,809.1830489940077,808.1028052879524,803.6333180248347
1731141616.8941424,808.8515754659662,804.5769860763147,805.4883795557759,801.9784938620846
1731141616.8963437,841.400567026616,799.5015033772532,804.6297522080446,813.2163587876838
1731141616.8995,863.7623129872148,796.832671049479,804.1472380699179,826.4066731431014
1731141616.9002464,860.0326569590164,798.6852147192676,802.9588021047598,832.1503375252535
1731141616.9041493,836.668068838886,805.0402971860733,801.6451184469656,829.3993921601414
1731141616.9051504,816.2799576675365,813.5742351487734,801.9308026593854,824.868562236244
1731141616.9080515,817.6909571949752,820.7862851046262,804.708131426206,826.0044071096111
1731141616.9119542,839.1265120670288,823.738450103966,808.6611908279923,833.8886015712868
1731141616.9150867,859.1937308262677,821.4482132166435,811.0591096539877,842.3753874970783
1731141616.9158568,855.3407420773791,815.2546268386424,810.1072776540252,844.1550754835342
1731141616.9197595,824.2720271058724,808.0277251931989,806.5696234768343,838.1924682796423
1731141616.9236622,786.6280532200911,802.6549254037601,802.9621181095408,831.6390936330084
1731141616.9239852,771.2992510440819,800.6294018503904,800.9964372055505,834.0564608366959
1731141616.9275646,791.8909418629312,801.5423211008906,799.8012306055787,848.5310527418436
1731141616.9290574,834.590644270491,803.7133773438358,796.8436869867602,867.3221662844288
1731141616.9306736,867.6875436867899,805.4008662094124,790.8571096860296,876.4396194086223
1731141616.9314673,865.7829258606662,805.6745667156698,783.9533255110617,866.3568703136223
1731141616.93537,829.8383709149206,804.4705816223245,780.6399476814422,840.5147843043208
1731141616.9392726,786.9028415256306,802.1567908204846,784.3178655501939,814.1592161852483
1731141616.94282,769.0571698525989,799.2719410810789,794.303798802341,803.4241962110461
1731141616.9431753,787.9512489277549,796.6198028519649,806.0568132055062,812.8280580067093
1731141616.9462602,825.4914930785889,795.2460616459732,814.4093392581416,831.3395693932727
1731141616.9470778,848.5032537607303,795.9035933932045,817.0230882623318,840.6082451344649
1731141616.9509804,835.569168361762,798.3822694530742,815.3794345587842,829.0632027476214
1731141616.954883,794.2142031225928,801.5027725480014,812.9687683664317,800.7861593095519
1731141616.9587858,754.7460422290351,803.9759111780553,812.5438428155759,772.4347128186814
1731141616.961655,746.2839754646512,805.3704856757174,814.5522712049408,761.1116733874412
1731141616.9618473,774.480059714246,806.2706263370404,817.4626708111936,772.7357039497246
1731141616.9626882,818.1292946874217,807.5145491861144,819.2088764474881,799.1493971705243
1731141616.9639723,846.3703716308574,809.2739344774434,818.527924558262,824.9787285801294
1731141616.966591,842.419976138145,810.8155590060371,815.4829121505084,838.3506113442749
1731141616.9704936,815.3951613468602,811.121873814532,811.1654101631798,837.6810816991097
1731141616.9743962,791.3758390099944,809.7894864940479,806.9266730924096,830.3259513638898
1731141616.9774337,791.2285576740456,807.3972715822651,803.5584997988705,825.0479477146024
1731141616.978299,813.4823331680765,805.0146671074945,800.8815318789595,824.7572836605966
1731141616.9804895,836.6752226782211,803.3174755871505,798.1216236613635,825.4838656018915
1731141616.982201,839.2878944352188,802.1765727569957,794.9921224038867,822.105536439548
1731141616.986104,819.9589610210219,801.1427409916136,792.6845714775529,815.2505886866787
1731141616.9900067,799.8931630114724,800.3206587296603,793.7023763700313,812.4684055119308
1731141616.9930203,804.6799592114038,800.6404046267725,800.223953372026,821.8490630241891
1731141616.9939094,840.936727191127,803.0832077967999,812.0553756820414,843.4655948554582
1731141616.997812,888.0626161174393,807.5232166681916,825.9590054626688,866.6580491615946
1731141616.9988873,912.707557520651,812.3622230691911,837.285923537592,876.5474468595118
1731141616.9993243,894.6092676951944,815.4583527614095,842.9125412576533,865.1793391253336
1731141617.0017145,843.1473524835003,815.6206873371062,843.1829485258778,838.3203955650596
1731141617.0056171,791.2808714966579,813.3823067930973,841.2006354701529,811.9852644975455
1731141617.0086071,771.2218047576891,810.41460722415,840.0028371806886,800.8803176808683
1731141617.0095198,790.6315098892964,808.1610712434957,840.0271515909405,807.6420091101439
1731141617.0134225,828.1018087266309,806.9065350493356,839.118390515959,821.4626994491168
1731141617.0173252,851.5292513296689,806.0093950310816,835.1165134276166,827.2510880034215
1731141617.0181592,844.2908274130059,804.9229810239433,828.6823379003565,817.7634203060466
1731141617.0212276,817.5773632277029,803.9683781887768,823.6392335461985,798.6747324513875
1731141617.024194,799.0253409816801,804.165016879736,824.2192752344948,782.7324088050456
1731141617.0251305,807.980427236655,806.3486986627044,831.4106280896224,778.5603792961581
1731141617.0290327,838.6895002377549,810.3874026603147,841.5824854625013,783.9352560498406
1731141617.0329356,865.2398488832793,815.0935051582884,848.7576760310751,788.8761429113254
1731141617.0338025,863.3986084598855,818.8022268484368,848.8503715626243,785.1447153746898
1731141617.0368383,830.9311572842969,820.180745777811,842.5452585589134,773.6313618772188
1731141617.036994,790.0617992154363,818.8558648557886,834.6288239984891,763.5514051225707
1731141617.0397806,770.4444486714225,815.6290490916049,830.4281631723153,764.5274795800174
1731141617.0407407,786.1374170788995,812.1478870441139,832.1866576825342,778.2942933993877
1731141617.0446434,824.51908661791,810.0402367333621,838.067121264734,796.7904139908932
1731141617.048546,855.9858278049569,809.88188860108,844.2647592107627,808.248145417732
1731141617.0524487,857.2066865736782,810.7387174226958,848.2253874856777,806.5712459325558
1731141617.0553677,829.649553617639,810.8433982961627,850.2035403635375,796.5279290240981
1731141617.0558286,798.2605553335027,809.0828130421212,852.0154728531663,790.3451132701229
1731141617.0563514,790.9906634762739,806.1124834811951,854.4476125053102,798.0537226338954
1731141617.060254,815.7300090473178,804.0547976923475,855.9942727282249,819.0986519986302
1731141617.0641563,853.6012557800474,804.9334861974112,854.2564123454551,841.9434453134651
1731141617.0680592,874.1072485188968,809.137754315689,848.6918798974401,852.1451343695547
1731141617.0687172,859.6538467525899,815.1590730915042,841.9859454031765,842.7788921598719
1731141617.070954,819.5870176366175,820.6806769482201,838.4613363400622,819.4697598474665
1731141617.071962,782.7845274140104,823.9980330584624,840.6117127411632,796.5569659226175
1731141617.0746634,775.0819049285658,824.6867407669328,846.6391993941022,787.3463077384113
1731141617.0758646,799.4820502912252,823.2776163228463,851.2527625593291,795.3233455611596
1731141617.079767,834.5857372848269,820.5422175434693,849.4270940464203,812.3579010651819
1731141617.0836697,852.2889288316572,817.1219565104541,840.3544848597205,825.1207976392155
1731141617.0865407,840.4822783174936,813.6723944685423,828.4312687355766,825.1139701545839
1731141617.0875723,812.2612126357766,811.0532545914283,820.2569542463935,814.814822102817
1731141617.091475,794.027238924153,810.0291605931039,819.7645462302182,805.1057080406631
1731141617.0934982,802.5210670546682,810.5641313201993,825.2611717533072,806.0140520056287
1731141617.0953777,830.3758841492689,811.4642283331059,830.8192443454028,818.4051301463334
1731141617.09928,852.5796425081717,811.0308934488056,830.9980787155331,833.5632310681518
1731141617.1021276,848.2598221976389,808.4435128153353,825.1091647134871,840.8640932687287
1731141617.1031828,819.0849905334976,804.6908922847847,817.5731480209018,836.8348562997534
1731141617.1036322,788.6037022794111,802.0419885672661,814.1301778613438,827.8818976410414
1731141617.1070857,783.1131602367801,802.3010459683053,817.042043803286,824.562760398975
1731141617.110988,810.1196826953557,805.2871773106573,823.1780122553989,832.4658001369094
1731141617.1123333,852.2711808119482,808.9013920315978,826.493899309149,847.4679258708837
1731141617.1148908,881.6646253193102,810.7735206262812,822.9062341218568,859.3372249922353
1731141617.1177144,882.5826144274632,810.0872152731259,813.7147128309646,860.6263462692193
1731141617.1187932,863.7884831131614,808.0776904522205,804.9160712101863,853.2760480731935
1731141617.122696,850.1401305922673,806.9179635051773,802.9545434749012,847.0426165805009
1731141617.1265986,860.4768692834227,808.0324797565104,810.1162585829225,850.6587828699596
1731141617.1305013,890.3360440623187,811.1379981465802,822.9012342685505,863.1122147422606
1731141617.1311677,914.2613226053239,814.5132191247313,834.3979070885691,872.904904936797
1731141617.133301,906.2726089318821,816.0673955702287,838.838131481197,866.7123920408384
1731141617.134404,861.9754452841288,814.459130585734,835.1531308862711,840.7294831159163
1731141617.1383064,804.2612308747038,809.7541314882451,827.2336229873047,805.2832999767814
1731141617.1385467,767.6332583349713,803.4392055683757,820.9562053833133,778.5816665424838
1731141617.1422093,773.1352675951399,797.8165535308191,820.2294235360679,774.3122635132388
1731141617.1461115,813.1929817600854,795.0073095163941,824.8273122060632,792.6851833677819
1731141617.148888,857.8801829114474,796.0316912408999,831.283449557543,821.4371197816456
1731141617.1500025,877.575909879664,800.4660190216167,835.8102466977286,845.1869094633932
1731141617.1500144,864.5711098397387,806.8258439093173,836.8883453769226,855.3066662463556
1731141617.1539173,837.2634067993677,813.3289636255097,835.7391966564431,853.1191255893642
1731141617.1578195,824.1800148473397,818.5176228250473,834.6902844228525,845.6575957045734
1731141617.1617222,840.7537151650992,821.5042664132286,834.9677184163096,839.2092840538083
1731141617.1644745,877.2494440884996,821.9833519461396,835.6465151881722,836.022615173482
1731141617.1656249,906.939580480029,820.2167924321743,834.4483498391207,835.1178099483565
1731141617.1688373,907.0715076349545,816.9989602278351,829.7217810826908,834.6793777966432
1731141617.1695275,875.2289188797987,813.493075022762,822.1490271532704,833.6473264705285
1731141617.1734302,828.6966938280613,810.9340001599259,814.8390929579208,831.9422654830338
1731141617.173462,789.6001475955019,810.2952371430862,811.4374258219915,829.9537471873928
1731141617.1773326,769.8613237084586,811.9739441659556,813.3482507790935,828.0287294236656
1731141617.180061,767.3741279037843,815.5232208244823,818.2136016693246,826.2787723154315
1731141617.1812353,772.7411329930486,819.5981357577771,821.2516549155631,824.6443977453382
1731141617.185138,777.8434460058553,822.3667018112875,818.8071071798443,823.029670032757
1731141617.187672,779.6245879747653,822.3786472508018,811.2907950240103,821.3828366746881
1731141617.189041,778.9316844008043,819.4259139494272,802.8944537703583,819.7033869702423
1731141617.192943,777.7011411455587,814.7735021658644,798.2562305576503,818.0130694388076
1731141617.195648,777.1083000116357,810.5337318604555,799.030415393665,816.3295261012546
1731141617.1968458,777.2606360397983,808.5651249072292,803.2877296794712,814.6575255512786
1731141617.2007484,777.7373443724047,809.5669123920092,807.8942467241617,812.9932384022858
1731141617.204651,778.1527263706246,812.8372650067957,811.3194959155179,811.3314472515093
1731141617.2065067,778.376857675493,816.722036640194,814.2758133623696,809.6695125671673
1731141617.208377,778.4707662885824,819.4365811638177,817.967568072747,808.0074654145899
1731141617.2085538,778.53930513444,819.8380866039469,822.0312358441098,806.3463770018008
1731141617.2112348,778.6405462103705,817.8237300391187,824.3280464192216,804.6870073187722
1731141617.2124565,778.7760731686467,814.2423801490281,822.7656385748606,803.0294211544009
1731141617.216359,778.9221094352762,810.4337606012039,817.3350326582643,801.3732633127655
1731141617.2202616,779.058747803151,807.6334976088439,810.4201172672101,799.7181447226642
1731141617.2241642,779.1800977927132,806.4599142506206,805.1053273787575,798.0638260698507
1731141617.2253416,779.2898856916494,806.6321381108276,802.9482002872782,796.4101842287287
1731141617.2268214,779.3935474181858,807.068524682032,802.9767184972926,794.7570981791398
1731141617.2280667,779.493759160491,806.4677599054955,802.5574672158358,793.1043923607449
1731141617.2319696,779.5902554083827,804.176524047171,799.3995358052416,791.4518979977381
1731141617.235872,779.6816250246112,800.7420526720477,793.2770704447146,789.7995870079591
1731141617.2397747,779.7668357946244,797.5739875669389,786.325051932431,788.1476315777614
1731141617.2424085,779.8456407069062,795.8475182524782,781.7266134105388,786.4962136474804
1731141617.243292,779.918156917427,795.5727796655843,781.6766555500021,784.8450580536206
1731141617.2436774,779.9842924423363,795.7197884590763,785.9775016160395,783.1930204027043
1731141617.2441764,780.043569725662,795.3167524840761,792.176014020201,781.5384044615317
1731141617.24758,780.0955641035355,794.4868504016663,797.1260032963617,779.8805097793223
1731141617.2514827,780.1407161411706,794.4405738321891,798.9462231340257,778.2217859232508
1731141617.2553852,780.1807382609838,796.4348981208506,798.0917705834023,776.5682642289132
1731141617.257995,780.2175904714702,800.6474440370679,796.8247362457247,774.9253552815561
1731141617.2592878,780.2507405855597,805.9312365105577,797.4532732824116,773.2889754491321
1731141617.2630112,780.2744716119872,810.594896770935,800.5983578076763,771.6387067958631
1731141617.2631905,780.2792043595684,813.5044571365288,804.7439601770099,769.945631913654
1731141617.2670932,780.2602079984639,814.6305938390593,807.3549294808416,768.2029227787733
1731141617.270996,780.2308153483549,814.7077666591598,806.655657486387,766.4649069067873
1731141617.2735815,780.2269037868975,814.4146879443471,802.7335065129155,764.8490855857561
1731141617.2748983,780.2845471495857,813.835385544782,797.2834805129572,763.4490855013485
1731141617.2782068,780.3877414843273,812.6493690987658,792.4067825491538,762.1671216894001
1731141617.278801,780.4224958277753,810.770933806943,789.4635082172772,760.6033209680663
1731141617.2818458,780.212456017735,808.6905841642446,788.6870232321315,758.2399846085739
1731141617.2827036,779.6923912691094,807.1322636784827,789.5265099851977,755.0495952158332
1731141617.2866063,779.1501063949624,806.4597102302281,791.1881839668122,752.2214954859917
1731141617.2891684,779.2755149114404,806.4903008253124,792.9210808329075,752.1595816229138
1731141617.290509,780.6885982223689,806.7896357752898,794.0308663760833,756.9451199992757
1731141617.2944114,782.9377014563494,807.0301571931961,793.9366827122915,765.7966598637324
1731141617.298314,783.7110242203694,807.1165820634642,792.5016075901692,774.0165522462038
1731141617.3006806,779.6574633841414,807.1070519086377,790.4634397307187,775.7946393596084
1731141617.3022168,769.657192880399,807.0873970773318,789.4732738829185,769.5179408870209
1731141617.3047552,758.7258315061383,807.1010987367014,791.3727312511148,760.4774485205028
1731141617.3061194,757.571441359637,807.1460709865814,796.9109331512675,757.3791177674805
1731141617.310022,774.5420599696135,807.2018877670595,804.7234674265659,765.1509924758135
1731141617.3131218,805.4296578124187,807.2529902150968,811.5146268120143,780.5369274398649
1731141617.3139246,832.5866470583522,807.2956353170796,813.7241427590807,794.5216655432746
1731141617.3178272,837.4273337961587,807.3335045726192,809.8532254622855,799.4543544865994
1731141617.3195157,816.320839929572,807.3711790763601,801.8779418576347,794.9000780980203
1731141617.3203418,785.3989881607714,807.4107734527828,794.4800620505556,787.8196671259221
1731141617.32173,769.3979078911265,807.4520304523518,792.1926785473843,787.5282915331884
1731141617.3256326,783.3303723949042,807.4938438876975,796.2058475868104,799.5921839170322
1731141617.3295352,821.5368638661579,807.5354439781895,803.2639677716916,822.7833383529934
1731141617.3334377,862.3639998508131,807.5766969029058,807.9109976267556,850.2686761572955
1731141617.335929,884.1013082833904,807.6178361647031,806.749712129722,873.2465201892804
1731141617.3373404,879.3439247628339,807.6591171263997,801.3831335201247,884.4571130307635
1731141617.3383503,857.2008155235752,807.7006541642327,797.3702641635005,880.2131524430711
1731141617.341243,833.1275468716026,807.7424387133178,799.7637301219902,861.0168376002193
1731141617.3451457,815.7444227005947,807.784425492971,808.8958317899684,831.2107874169991
1731141617.3480368,801.5172268948706,807.8265958329051,820.0705288485145,797.8437812461391
1731141617.3490484,781.1894043513602,807.8689707427974,827.4771210685077,768.9219283725358
1731141617.3515153,752.0183477568052,807.911588726259,828.9371862564973,751.4635058140734
1731141617.3529508,724.6333595881791,807.954473979143,827.4196688179168,749.7216219953157
1731141617.3568535,717.1535797714536,807.9976174876989,828.1722381668632,763.6898061049754
1731141617.357185,739.9816706288768,808.0409895189654,834.1001480911001,788.2386282911077
1731141617.3607562,783.9745846767923,808.0845906756734,843.3387440412799,813.869611745566
1731141617.3646588,823.6926819134726,808.1285165234949,850.871521150689,829.9736346930832
1731141617.367102,835.3747907099166,808.1729652873701,852.5757289402145,829.9106728596673
1731141617.3685615,815.865162426576,808.2181071008454,848.2151433486471,815.1773044483288
1731141617.372464,786.2756756650335,808.2638230493509,841.0431171689272,795.4454109188257
1731141617.3760197,776.0433523307394,808.3095198543133,834.6794429420795,783.4388210461389
1731141617.3763666,799.5755127053084,808.3543884991847,830.1907150983899,787.3055625762146
1731141617.3802693,844.4605261760632,808.3983189025124,825.9465869952013,805.5260742021112
1731141617.3826888,881.1017879040033,808.4430111728575,820.2026003794585,828.1791133919123
1731141617.3829515,886.1764138613989,808.4919290595857,813.8102706553734,843.9631104956118
1731141617.384172,861.0528727024525,808.5476275966279,810.3003442878379,847.9764373954438
1731141617.3880744,830.3745748583651,808.6068564248206,813.0237408293326,844.509979794887
1731141617.3919773,822.0258089175202,808.6576059423579,821.8474336040628,842.8594940296947
1731141617.3948543,844.7312913368576,808.6849661681213,832.4485790807205,849.5792068429952
1731141617.3958795,881.4420014198868,808.6889678465478,838.9957280368372,863.3366176116218
1731141617.3982756,903.7517654868882,808.7043535124717,838.0678747902602,876.3303767586244
1731141617.3997824,895.3226498831433,808.7960618851827,830.7179824859014,880.8469190915416
1731141617.403685,864.9385224169826,809.0046629251882,821.3021139467434,875.3708674090709
1731141617.4075875,838.5623784640836,809.2543341075885,814.3107276899808,865.2041126560739
1731141617.4114902,837.3386214782614,809.3064221473957,811.7035226835161,857.347919589703
1731141617.4136894,860.0393235575739,808.8833695484376,812.4463543216856,854.3325821073375
1731141617.4138622,884.4015390614577,807.9990107027329,814.1187666402733,852.4536740801573
1731141617.4153929,885.9442937846538,807.2826699609205,815.1012600764321,845.8770951032463
1731141617.4178665,858.6035582793011,807.8884875067207,815.709053476606,832.8708199881072
1731141617.4192955,820.2682336001968,810.7896074466707,817.5447087975732,818.5146420276325
1731141617.4231982,798.6468282828597,815.8507318840554,821.6597205231524,811.2340590798617
1731141617.427101,808.9151579289677,821.4598710143944,827.0606124033148,815.8822757455563
1731141617.429449,841.4809632281278,825.1728846047241,830.958688329203,829.2904645421074
1731141617.431003,870.0555704144025,825.0407088389879,830.8231372182373,842.3476039775727
1731141617.432524,873.3613705074746,820.7782752943342,826.6712234014133,847.1561526160007
1731141617.434906,852.3321094066257,814.0668487840201,821.5790178479655,843.3590571646016
1731141617.438809,828.5536505717305,807.8166312732677,819.7460328026466,838.315903581023
1731141617.4427114,825.6745499764565,804.7603444632349,823.5302897223164,840.9951504733111
1731141617.4450357,849.6909498241364,806.1027542671569,831.7918017825476,854.7038805634168
1731141617.4466138,884.279235107779,810.9807043233803,840.7805833617546,874.5287471079489
1731141617.4505165,904.1565585471278,817.0563285911973,846.7123104831261,891.1498321931397
1731141617.4513588,894.7477392619304,821.8351858454711,847.9465131358846,897.4297752026282
1731141617.4527814,862.3534110580367,823.8308091446753,845.2365482657328,892.4002596157247
1731141617.4544191,827.6635153786575,822.9243270359665,840.1994075939509,880.0710800719663
1731141617.4583218,808.8073350171869,819.9614127317013,833.529008380208,865.0108337666272
1731141617.4606223,807.7586479122564,816.109413313709,824.5353071845346,848.9825239084269
1731141617.4622245,810.6552197317568,812.4017757827805,812.3719073790543,831.4011513905596
1731141617.466127,801.2927967980894,809.5250388889639,797.8170585866169,812.6245647727125
1731141617.4700296,776.3723426375924,807.7457885828087,783.939113391364,796.4200560593151
1731141617.4701936,749.5546981934572,806.9781268732748,774.8781300010501,788.6840998830827
1731141617.4739325,740.634070959768,807.0049627432666,773.5301938194048,793.0055483419711
1731141617.4762092,758.724305434303,807.661785501972,779.7922166292184,806.8256833193601
1731141617.4778347,793.562405513157,808.7281682740539,790.5736263876807,821.8465113049449
1731141617.4817376,822.3686583058787,809.6291808412952,801.5299056988837,828.9513119518427
1731141617.48564,826.8922310972351,809.4486300884365,809.4031906423203,824.1468837574746
1731141617.4876964,807.0394044952473,807.563512942939,813.553806049159,811.0875159738143
1731141617.4890285,780.2986969638748,804.4706077618895,815.7745575560845,798.2727749226783
1731141617.4895427,767.4262480750731,801.9262308034704,818.5386391220369,792.9227923377405
1731141617.491796,775.6734834579283,801.9905467016179,822.9265248978761,795.9390944228678
1731141617.4934454,793.0292129044567,805.5804542695565,827.834561732296,801.6576125952326
1731141617.497348,798.5781424954872,811.6885024498704,831.1540087289516,802.7219405767838
1731141617.5012507,781.002086205696,817.9489585670814,831.9042379486353,796.4960293656267
1731141617.5051532,749.7520615553985,822.1329876334228,831.2940030656373,787.8567178705017
1731141617.5073826,728.5948268956785,823.4048854084028,831.5394681277057,785.6406834414689
1731141617.5078633,735.9398702860591,822.420622420026,833.4055380938228,795.1090514963826
1731141617.509056,768.2820978963758,820.361405897026,834.8295681039447,812.5019252033146
1731141617.5129583,801.2902902223906,817.8663379434461,832.1834601199929,826.6016271346103
1731141617.5168612,808.4269317366131,814.800959558603,823.3904685397091,826.6847464097658
1731141617.520764,782.0520997911943,810.9380672385897,810.346296355468,810.8186593890684
1731141617.5226114,739.7361087917621,806.7566259393735,798.449011125256,787.8580949058256
1731141617.5229695,710.740094137107,803.4932433349786,793.235828565101,771.360439043105
1731141617.5246663,713.6699456460576,802.3419802068393,796.4522633276227,769.9557424957401
1731141617.526698,743.008891008656,803.5370822628417,804.5687107813156,781.4449938886893
1731141617.528569,774.8331408596033,806.1745638596971,811.1511616211914,795.0847507826578
1731141617.5324717,786.7815576575163,808.9497526346247,811.5471814957953,800.316589215228
1731141617.5363743,776.0126500037989,811.1642500491519,806.277849380861,795.1327273896567
1731141617.538556,760.3459828537157,813.1267198853678,800.29692604397,787.2908117221749
1731141617.540277,761.5499762289569,815.6130455216314,798.6526096932711,787.2005016193813
1731141617.5441794,785.0277673805334,818.8810927142621,802.2477717885511,798.3492840363714
1731141617.5455327,813.7005383851598,822.1405965830656,807.3374807893144,813.5262703842998
1731141617.548082,821.8765939884369,823.9901613604211,809.0471787546168,820.3320450126279
1731141617.5519848,797.5211814244356,823.4655049749233,805.6744163632728,811.5028658263784
1731141617.554143,753.9581456711521,820.7809616805591,800.0773579242846,791.4309008488799
1731141617.5558877,721.0130852972744,817.1244446559948,797.216231965187,773.4083177892376
1731141617.5575264,722.8766308320093,813.7154148270815,800.1397100686866,769.6314949211516
1731141617.55979,760.743974108755,810.9569036365612,807.6516437373689,781.6881758618825
1731141617.5636926,813.7835857020518,808.3859755655315,815.2245494181012,798.9459137375809
1731141617.5643675,856.213420265342,805.4353757656207,818.229150591463,806.421099582886
1731141617.5675952,874.9689016740581,802.3551117979392,815.1146076575127,796.4870446924875
1731141617.5697296,873.9883799845522,800.4932253569709,808.4287158661302,775.3575641483721
1731141617.571498,865.3864621274796,801.6048384861898,803.0348911348667,758.7163139833677
1731141617.5754006,858.6935163725078,806.625232940067,802.6877753486692,759.3531720096245
1731141617.5793033,856.7211598752036,814.8097966733106,807.2989879045734,776.6589120650641
1731141617.5832024,857.6998782980475,823.884980891605,812.9121482669243,796.8510653025666
1731141617.5832057,859.01740418341,831.0747667805701,814.5523761014932,803.9390443411122
1731141617.5853164,859.3382079354109,834.277157670532,809.9220559953011,792.3056224861792
1731141617.5871084,858.712229292779,832.7487294003469,801.1452319452821,770.6185741007799
1731141617.591011,857.7544537865908,827.1735508338506,793.200459638368,754.4214235336733
1731141617.592441,856.9387365396491,819.3439828084626,790.2708999512421,754.0859453507254
1731141617.5949135,856.38229681624,811.6251621618343,792.8731868360131,767.8863027222966
1731141617.5988164,855.9758744836076,806.218949547396,797.9329541844312,784.9454231877864
1731141617.600903,855.5811686602152,804.3450145657033,801.536145348387,794.6431507747822
1731141617.602037,855.1338408306208,805.7330271949927,801.9646034858225,794.4967490980514
1731141617.6027188,854.6415703536951,808.8437490294538,800.5762330521994,790.6041064027496
1731141617.6066215,854.1382155615086,811.7918383671032,800.0475212822834,791.13578527295
1731141617.6105242,853.6477490349813,813.3756019525457,801.7070523220943,798.7751904647076
1731141617.6144269,853.1749303256132,813.5248866478859,804.3028904867726,808.4069305034943
1731141617.61649,852.7133044828981,813.0072882121008,805.1654773080716,811.8069914444673
1731141617.6183295,852.2556558267811,812.8335021881749,802.6208312916544,805.3826906325988
1731141617.6208718,851.7989836619666,813.8355331271084,797.4805771097034,794.5834136837892
1731141617.622232,851.3439976772718,816.4291674639912,792.3443964620442,791.1603726209555
1731141617.6261346,850.8925452295089,820.3135773043626,789.4884060183913,804.8633095560278
1731141617.6273563,850.4457439468266,824.1899479598172,789.4020425928587,835.3535761371819
1731141617.6300373,850.0036241605799,826.0101401936964,791.2791710941524,870.2189507892466
1731141617.6320765,849.5657491937724,824.0486272164546,794.6607065692522,891.1013228608085
1731141617.63394,849.1319731594764,818.234749699102,800.1924805722771,884.6013901616197
1731141617.637843,848.7027351850104,810.5834216132915,808.5221021966458,851.0561527137977
1731141617.6397066,848.2786346385722,804.05274568575,818.577104379562,805.0129569454211
1731141617.641745,847.8594480525634,800.510308395684,827.3285107857208,766.5335434249947
1731141617.6456478,847.4433379191894,799.4719006067571,831.6689639295225,749.1803990089562
1731141617.6476634,847.0274941094129,798.7923712776251,830.8644556570939,753.3068516176946
1731141617.6495504,846.6110174414766,796.7762673410822,827.4274154988867,769.0960683428748
1731141617.653453,846.1987707885969,793.7929824207735,825.6212579424096,785.8040086954036
1731141617.6573558,845.8019050796017,791.8667314207887,828.6651034416452,798.9740497836535
1731141617.6585414,845.4299271483604,792.6312848099465,836.5426625248597,810.1989674379963
1731141617.6612582,845.0746450563024,795.6374010310141,845.8332175663078,821.2950988021751
1731141617.6622713,844.6985565177831,798.6488066953495,851.7540365156337,829.5144392908591
1731141617.66325,844.2504454054099,799.6013206638416,851.271680094411,828.6455801675587
1731141617.665161,843.7215999679739,798.3150433258297,845.2741465572798,814.8604788422847
1731141617.6690636,843.2148177992624,796.4017216173419,838.0833786520175,791.6831362472011
1731141617.6729662,842.9428658745368,795.6511512197957,834.3307255905418,769.266772082136
1731141617.676869,843.0651079187376,796.5850252400851,835.4236662871979,758.1629773664359
1731141617.677376,843.3852759435044,798.461487628585,838.5094268546717,762.4074991020257
1731141617.6788368,843.1660236813034,800.389615041753,838.9647201576639,777.2238281177036
1731141617.6807714,841.4862576070421,802.1892638240354,834.4376981537671,792.9526522067029
1731141617.684674,838.3464183273678,804.1884296315856,827.0755206614315,802.1433222539057
1731141617.6885767,835.9213349470504,806.4346310297836,822.0968087266211,804.5158376591762
1731141617.6924794,838.3787722320825,808.3080387567114,823.9034476200055,806.1209388241583
1731141617.6944234,848.7589936074961,808.8815380753003,832.798597627823,813.3629932811007
1731141617.6962109,863.9656866563487,807.5270043105511,844.6687660174908,826.6005687875348
1731141617.696382,873.0317018220398,804.1717390863022,853.601406316211,838.6775552101476
1731141617.6971862,863.8394977794019,799.1709755153141,855.4132106027463,840.100378736959
1731141617.7002845,835.1285333456276,793.1875176332156,849.7810779115588,827.14501010912
1731141617.7041872,801.7893630023992,787.2983394176075,839.9042642857245,806.2265124790655
1731141617.7080898,785.2359902916894,783.0864389185193,830.2861127795944,790.2343930255404
1731141617.7100103,795.4673419310275,782.3113502380525,824.237698470345,788.9933509768437
1731141617.7119925,821.1590974342411,786.0832466981997,822.5818762731668,801.4436914488447
1731141617.7150457,838.0538619596032,793.9749628241385,824.0360095375079,816.4278722906473
1731141617.7158952,829.5456745530718,803.7340202449731,826.6511556696639,821.9207489344642
1731141617.7197976,801.7581045995546,811.992004191178,829.1670300116862,814.9888074170913
1731141617.7237003,779.4139263611224,815.76144304588,831.3708438657768,803.7505932259039
1731141617.725597,785.2879785283105,813.9577102646762,833.3044858195225,799.5712844081761
1731141617.727603,820.4947712319657,808.075564415911,834.0833523938747,806.5216376531034
1731141617.7315056,862.4032252067134,801.5805221285008,831.606615992509,817.5886960824209
1731141617.732101,882.0838999129084,798.2675732435746,823.9226371120503,820.9447707632759
1731141617.7338803,866.9496604336514,800.3936305112015,811.5007148272266,810.5543481196972
1731141617.7354083,830.2217921814888,807.551561387335,798.3594818341181,791.7106173965811
1731141617.7393107,799.795344119457,816.9362593125779,790.4411118164669,776.7566861979802
1731141617.7411838,795.7722799140602,824.9093725754818,791.8980694102598,774.8620815084645
1731141617.7432134,815.0719442910969,828.9360677521729,802.1180661415814,784.7623435067871
1731141617.747116,835.7093277612047,828.6641761934812,816.0553620802928,796.6017007957228
1731141617.7510188,836.8752872370287,825.5300662477928,827.6795023635244,800.9523399295437
1731141617.752715,817.3901176075568,821.3950547390156,833.6527636494836,796.8367304635177
1731141617.7549214,796.4248405279493,817.3710639974078,834.3460039704528,791.728341311132
1731141617.7567704,795.9686950920269,813.6238231012615,831.9203461812076,793.9892841246151
1731141617.758824,820.6825572546868,809.9827198925922,827.779889556134,805.0876545089493
1731141617.7627263,852.9269497978515,806.576910107222,821.8344153232007,818.7487334123123
1731141617.7666292,867.0125082378829,803.9231060084486,813.8721721513787,827.1423099248053
1731141617.767016,849.7447553990686,802.5384344671455,805.2150521519903,827.4299594906782
1731141617.770532,809.5286413912365,802.5510424011426,798.7161603622553,822.6233315969164
1731141617.77155,767.6011191318512,803.6422663426363,796.9642193573268,817.4851902889569
1731141617.7723572,741.1838441774519,805.2637099798884,800.3882558755448,814.648866834256
1731141617.7744346,733.7119351842251,806.8800659863709,807.0509582302122,813.9844225911424
1731141617.778337,737.7625642455301,808.111182478063,814.2950358259566,814.1400914648973
1731141617.7822397,744.0470162231746,808.8042360570379,820.7016216005179,814.0462163178146
1731141617.7861423,747.5355592861748,809.0412758234075,826.6292329405337,813.4107451814032
1731141617.7879438,747.9303306039224,809.0414554477816,832.9897691943908,812.4545716111295
1731141617.790045,747.0749654759989,809.0078910338955,839.4954179365726,811.4799503218014
1731141617.7903848,746.5561027434802,809.0359317752946,843.9790797151549,810.6350251216247
1731141617.7939477,746.850259469961,809.1235005291996,843.4169584235104,809.9091935761479
1731141617.79785,747.6563781122263,809.2307029077039,835.9674386981128,809.2303960749334
1731141617.8017528,748.5264393838619,809.3272219453477,822.680240913391,808.5453629417892
1731141617.801931,749.2289355195252,809.4061019474672,807.7367469835805,807.842375257078
1731141617.8035307,749.770011600904,809.4748802926971,796.8239448211853,807.1350883469432
1731141617.8056557,750.254124940434,809.542656362788,794.2197224732222,806.43972444751
1731141617.8092196,750.7627478704502,809.613536925551,800.1338655327595,805.763665248824
1731141617.8095582,751.3166027900545,809.6869317828706,810.2163342879954,805.1060718079018
1731141617.8134606,751.8973937731856,809.7606136316515,818.1247558565274,804.4632866064516
1731141617.8173633,752.4815312451123,809.8330556163753,819.7535087536041,803.8329155843701
1731141617.8191173,753.0579388386193,809.9039983066951,815.9286703321453,803.2147920816709
1731141617.821266,753.6278918442292,809.9739015177347,811.1775452140116,802.6099981132396
1731141617.8251686,754.1972331754263,810.043259367924,809.482486856137,802.0196620647321
1731141617.8280542,754.7701767479967,810.1122845311802,810.7713098826921,801.4444114803151
1731141617.8290713,755.3476654188987,810.1809484601702,811.3144559001641,800.8844493686083
1731141617.8329737,755.9287132861036,810.2491494712215,807.5691814335308,800.3398508482616
1731141617.8347042,756.5121923798573,810.3168307507879,799.837614447962,799.8107689618388
1731141617.836846,757.0976930330506,810.384003090842,792.3797669096482,799.2974723184271
1731141617.8368764,757.6854458920902,810.4507124566878,789.9159871272146,798.8002862194213
1731141617.8407793,758.2758866038696,810.5170040951375,793.6428766003237,798.3195288341649
1731141617.8446815,758.8693398583628,810.5829075701309,800.2193611342774,797.8554861613472
1731141617.846889,759.4659602057937,810.6484401318888,804.54146906286,797.4084216732076
1731141617.8485844,760.0658330364618,810.7136158493847,803.8773009636374,796.9785967122718
1731141617.8502908,760.6690864935848,810.7784515021455,799.8476985557629,796.5662806048667
1731141617.8524868,761.2759179639933,810.8429673862537,796.6941941944315,796.1717414763802
1731141617.8563895,761.8865173064153,810.9071854194236,797.5134378855997,795.7952233451376
1731141617.8602922,762.50094690065,810.9711272580774,801.7782162596541,795.4369304686744
1731141617.8641949,763.1191066878982,811.0348135852048,806.1192031437832,795.0970482219585
1731141617.8657238,763.7409198089412,811.0982643355995,807.3807794550733,794.7758134303898
1731141617.8658776,764.3667341901853,811.1614991723343,805.1394137542034,794.4735945026815
1731141617.8680975,764.9976325369591,811.2245377624527,801.6528443538198,794.1908775036469
1731141617.8717608,765.635081981046,811.2873997833547,799.5869108118553,793.9280544604769
1731141617.872,766.2795636455281,811.3501047998196,799.6454046669626,793.685059938825
1731141617.875903,766.9288250706816,811.4126721543373,800.0865024255324,793.4611829035254
1731141617.879805,767.5777956228906,811.4751209246025,798.4307979842159,793.2555594085829
1731141617.8814642,768.2224919307031,811.5374699273424,793.8786374572467,793.068532480063
1731141617.883708,768.8675271768984,811.599737725163,788.3940528418194,792.9030522658894
1731141617.884559,769.5310878367297,811.6619426108219,785.4738466169234,792.7641341839586
1731141617.887611,770.2367835182733,811.7241025754598,787.4968472483866,792.6545863939357
1731141617.891513,770.9868043923814,811.7862352922551,793.757519487473,792.5682684643356
1731141617.8954158,771.7306106230423,811.8483581467287,800.8059537446879,792.4874060022061
1731141617.897051,772.3687420378387,811.910488306221,804.8849915458279,792.3932456041496
1731141617.8993185,772.8327966079179,811.9726427531372,804.5786046746158,792.2922590491061
1731141617.9032211,773.2263505235642,812.0348381640745,801.6559043305214,792.2404359911867
1731141617.9033933,773.9027966365406,812.0970905894519,799.5718565136971,792.3278330414744
1731141617.9066758,775.283239126074,812.1594151203482,800.8870761365745,792.5931739731265
1731141617.9071238,777.3342572157857,812.221825995771,805.560553441575,792.9000267721127
1731141617.9110262,779.0132437314286,812.2843375642585,811.2569121296901,792.9041127654724
1731141617.9126377,778.4437827192991,812.3469658210261,815.2695602539898,792.2817737081526
1731141617.914929,774.5319895879311,812.4097290361971,816.5343526454016,791.2388753272122
1731141617.9188316,769.5777844525164,812.4726453428661,816.1929273379496,790.9476396766935
1731141617.922228,770.3807654799054,812.5357267471618,816.2433122625,793.2277678233766
1731141617.9227345,784.5315482728755,812.5989735113322,817.3300517106389,799.0774742108338
1731141617.9266367,812.3433197408618,812.6623775607065,817.6034107372699,806.9087134533282
1731141617.9282246,841.7818470554834,812.7259419240067,813.9320261262363,812.5315505038078
1731141617.9305394,854.5091133417212,812.7897092081952,804.8070876044651,812.0251069357614
1731141617.934442,840.7823550396387,812.853769692458,792.5943302710739,805.5876315987282
1731141617.9383447,810.0455969703886,812.9182102339857,783.0189891098938,798.6056257545409
1731141617.9410627,786.1909640842388,812.9829997415283,781.8894979026539,798.2451123759001
1731141617.9415908,790.0317747863841,813.0478935549634,791.2617154825926,808.0261031631258
1731141617.9422474,822.9687596971544,813.1125208112005,807.7097823881948,824.8454242018956
1731141617.9438112,865.2032284678598,813.1767705300965,823.9255939390054,840.9536699731411
1731141617.94615,890.4235799087876,813.2413114328544,832.726736765293,849.4626063663051
1731141617.9500525,885.8750940679508,813.307667239592,831.0604120689069,849.3073745078118
1731141617.9539552,862.0230674225845,813.3771483200022,821.5426610705928,845.9911451508846
1731141617.9578578,843.7260969954999,813.448675675061,810.5659698880089,847.4604695358613
1731141617.959398,849.6755455336053,813.5171911831735,804.2363311891336,858.0377153167656
1731141617.9598978,876.9108931395477,813.5757429106851,804.8453046563994,874.9384836835129
1731141617.9617603,903.451976415493,813.6230894349433,810.1257926374158,890.1484213158101
1731141617.9656632,907.0407700085544,813.6730907449227,815.5169290554085,896.3929076958145
1731141617.9695656,884.3443204817412,813.7546065053664,817.6055905142522,892.6528510210901
1731141617.9734683,854.4855141455569,813.8894643817523,816.280291633125,884.8876637512828
1731141617.9749846,843.8528482628825,814.0514567600637,814.2747303695829,881.3619347329692
1731141617.9765058,864.6506334822842,814.1408727598828,814.7704283811331,886.2928220536872
1731141617.977371,904.7259851984312,814.0324029456128,819.0587023702874,896.8706996915791
1731141617.9787323,937.0146089678153,813.7247451178015,825.9584705065571,905.94038286952
1731141617.9812737,941.116676818372,813.5112959426128,833.1028573429131,908.0456867148933
1731141617.9851763,919.5526937715831,813.9577826314398,838.7309001476826,903.8409088852882
1731141617.9890788,895.1738319493045,815.4817589701079,842.4643521069562,899.229226905481
1731141617.9905715,891.5035774251759,817.6740459460112,844.7033512246531,899.985380576968
1731141617.9929814,912.3782105037573,819.050974538366,845.5675548735014,906.5179673660098
1731141617.996884,938.4166543138062,817.9042316454296,844.5490559784696,913.4430746436049
1731141617.9975672,943.70455931111,813.8134999562358,841.1456908781406,914.5156318596987
1731141618.0007868,918.5622715572893,808.351950121665,835.7156598265516,908.6359140806455
1731141618.0046897,878.8820541187789,804.111700310698,829.6382491688217,901.4287356169272
1731141618.006158,854.0124798880393,802.8515371077416,824.6053887582059,900.5842461143613
1731141618.008592,863.2944503449911,804.3734956086802,821.6722846664585,908.7128378577684
1731141618.0114205,900.5471373377619,806.9678498632943,820.8149733138226,920.0372859634602
1731141618.0124946,938.8819562890671,808.8905245016995,821.2141960474435,924.3330954342537
1731141618.0163972,951.6261306723654,809.5838827436957,821.9148772312245,915.3278673938677
1731141618.016402,932.4945569898055,809.7071260716558,822.3559338561874,896.544916036642
1731141618.0203,899.1599552012767,810.1052050127998,822.487850153242,879.245229859771
1731141618.021745,877.8407607417564,810.7348355600493,822.5147586296139,873.6498032675867
1731141618.0242026,881.6984262585413,810.5575790352169,822.5168610315151,880.5369527466071
1731141618.028105,900.6311781537922,808.5004068162768,822.2567481565242,890.3345422201411
1731141618.0320077,910.5582175662726,804.5861018079474,821.3384932119927,890.7111087432357
1731141618.0352368,894.2384256651374,800.1960005273194,819.6316848106331,876.5905161588089
1731141618.0359104,856.3253544124304,797.2638948368341,817.6385127398427,854.4908287204544
1731141618.0373316,820.356250097814,797.1407710472456,816.4408156926232,837.6838858170875
1731141618.039813,810.2669649052159,800.0035712154094,817.1079059556018,835.9280832178969
1731141618.0437157,831.4146622303685,805.0258328897162,819.8745651934943,847.6721252871151
1731141618.0463357,866.2013346746273,810.8842465884248,823.6949167156038,860.7127921317203
1731141618.0476182,887.6440839352413,816.1458367278191,826.621726653513,860.9730009681998
1731141618.0515208,880.1377907726111,819.4895095828322,826.8761504510609,843.0060449159927
1731141618.0529184,851.0591265758209,819.9793403617917,823.9135677587568,814.401917598947
1731141618.0540717,823.9868611787404,817.4467130692715,818.7579505592703,790.6219061707912
1731141618.0554235,818.8495614902309,812.7167081065127,813.422283116165,783.9189197353992
1731141618.0593262,835.1085185200822,807.3684974300897,809.888636868372,794.6368008284549
1731141618.0632288,852.1745607542362,803.0664248482907,809.3380292651568,811.5419447946556
1731141618.0671313,847.2834046484467,800.893976647833,811.9632032386098,820.8375620900026
1731141618.068505,816.0741873511075,801.1211259836217,817.1551529245351,816.6057861138572
1731141618.071034,778.1524319081188,803.4124968395197,823.6667334394774,804.3977343048723
1731141618.0729065,762.2013841996073,807.1137150773178,829.6801767802544,795.4897504139296
1731141618.0749366,782.4918301263857,811.3511324620379,833.1188060291678,796.9878913273722
1731141618.0788393,826.1441449763879,815.0722611736347,832.4832849060604,806.0636853512232
1731141618.0812504,861.9460085627431,817.3023689543675,827.9196731403932,812.84213675596
1731141618.082742,864.1255137748838,817.595339403898,821.723397684116,809.240709979492
1731141618.084092,832.3418997282002,816.2979738417093,817.6184510790404,796.2781948726199
1731141618.0866444,791.920421124732,814.2991922708219,818.8908198776955,783.722793808681
1731141618.090547,773.9137492708533,812.3929116986646,826.2828997822397,782.2478018572046
1731141618.091741,790.7355709998565,810.7811177875877,836.9568156703683,794.4687078232164
1731141618.0944498,826.8881676867056,809.1598689709667,845.5114624638431,812.3287426195911
1731141618.0983524,852.2447133114491,807.3070526969738,846.9363476436832,823.2639854164503
1731141618.0996785,846.934858610605,805.6020924336282,839.9233568125935,820.3647998374398
1731141618.102255,817.3341152483802,804.9330011223683,828.1772390440055,808.2580046742197
1731141618.1061575,790.1556714518231,805.9989032356611,818.3094902217038,799.7093917647959
1731141618.1100602,789.9186435500468,808.587425346973,815.3845856988077,805.4481528699423
1731141618.110576,818.5969727045784,811.4492734409253,819.3480427350977,825.233301561396
1731141618.113963,853.9058533168732,812.8936179082733,825.2578350648386,847.1643863860895
1731141618.1152654,867.1529219919217,811.7013671263961,827.2951571335849,855.7550434041221
1731141618.1161654,846.0848840099488,807.830900722344,823.3572716660684,842.7632931058259
1731141618.1178656,804.691313243407,802.5910754865611,816.5078615468497,813.0262199676433
1731141618.1217682,772.3815349846467,798.1752190797563,812.2179756327531,781.2909655885765
1731141618.125671,771.0322990964283,796.6532846263407,813.8256132022294,762.3137784891899
1731141618.1294107,798.0073170852169,798.8464960367975,819.9526588192149,761.1463879562406
1731141618.129573,828.7783068686617,803.7906372262019,825.7772692048931,770.4601572855228
1731141618.130852,837.1506071488548,809.2786660041141,826.8499430007322,776.7773219649564
1731141618.133476,816.6169879393207,813.1860507950049,822.2985928399033,770.9093033823633
1731141618.1373787,785.2511663735974,814.5821687890411,815.0817936864532,754.6837936911078
1731141618.1412814,770.1867342763511,813.7956320014288,809.4464401720013,738.9201795413303
1731141618.1451838,784.7487657563738,811.5774560081898,807.8155513400515,734.5425686173618
1731141618.1464388,817.2594134754005,808.331820218116,809.4749770205215,744.1412036378171
1731141618.148245,840.5927189283447,804.1976469256603,811.766856761953,760.6856199000404
1731141618.1490865,834.4371526246215,799.768646490099,812.5033920125014,773.9832512221782
1731141618.1510804,802.0929579142615,796.4988307983912,811.5499743956186,779.0805436422866
1731141618.1529891,768.2139530899517,796.1352671611393,810.4312829652139,779.4752071694837
1731141618.1568918,759.1878950148515,799.5347518085551,810.5141894860009,782.7006973880298
1731141618.1607945,781.8501823872563,805.9036729775779,811.4559805294984,792.4677274117047
1731141618.1620257,817.8531076838202,813.1603528949239,811.3363589993422,804.4640146259011
1731141618.1646967,838.4914435761665,819.1122458423388,808.4342242562351,809.6310361777621
1731141618.1670802,827.8761409797272,822.4625877761747,803.112118572016,802.0890620967896
1731141618.1685996,795.2060911658333,822.9331246379923,798.0308639375626,784.7114270614583
1731141618.1725025,766.0272312825612,820.6901452278927,796.2907963549983,767.3816954638799
1731141618.176405,760.2717742876146,815.8951610229963,798.9772938259949,759.3887647419076
1731141618.1776123,776.0010068335205,808.9547976823544,804.2321784188562,762.4548972271648
1731141618.1803076,792.4044533638337,801.1586199133264,808.6733972612401,770.1108281760688
1731141618.18421,788.7578132511959,794.7841472982026,809.9109284780889,773.4672627790742
1731141618.185915,762.7065224025462,792.1331190999216,808.0214364437896,768.1361504332222
1731141618.185995,732.5257852761348,794.0552834070576,804.9442494451638,756.6849155310252
1731141618.1881127,721.8515599402165,799.2106305923213,802.6803829164571,745.4211226664621
1731141618.1920154,739.754911429829,804.8314269281097,801.999936755244,739.1629362687236
1731141618.1931987,772.6141522083159,808.4701937715262,802.4713736200874,738.5528632813116
1731141618.195918,794.6467346197511,809.3614959357834,803.2756624040558,741.1822811891484
1731141618.1998208,788.7811623526078,808.3928405712909,803.8807463788633,744.2984810133438
1731141618.2037232,760.7932108732825,806.9210305716077,804.1914305330337,746.5062661318176
1731141618.2047498,734.8025570822111,805.6333933629786,804.3536153169895,747.7958395177083
1731141618.207626,733.63036778165,804.468125068119,804.5236599597919,748.736195123843
1731141618.2087858,760.3030357208912,803.4796055046837,804.7640643818753,749.7820690361111
1731141618.2115283,796.0003260610436,803.553158521028,805.0577161816508,751.0524201289638
1731141618.2154312,815.7794658185846,806.0059823924552,805.3639016390608,752.4466430631365
1731141618.2193336,808.6312561455151,811.2633775208731,805.6571741732001,753.8322426645761
1731141618.2209103,785.3682723143136,817.8578333164495,805.9345369857313,755.1456046910779
1731141618.2232363,768.4964357003578,822.8930347031838,806.2045082772959,756.3923333145219
1731141618.2235844,773.0631779071396,823.8830173455721,806.4752282679939,757.6041716685941
1731141618.2243724,794.3352202488005,820.6226737495721,806.7495844116776,758.8041661226279
1731141618.227139,812.1407813172217,815.5778503372275,807.026398778407,759.997136677135
1731141618.2310417,808.1218931904032,812.3520340606474,807.3034790795339,761.1769779221951
1731141618.2349443,781.6860088831767,813.245824476214,807.5795643202739,762.3366318671308
1731141618.2388468,751.3134256807625,817.6532147919345,807.8545796218834,763.4729771105534
1731141618.2399592,739.7021401555958,822.4748561478841,808.1290050615845,764.5864768965758
1731141618.2424192,754.760473876362,824.2757567967158,808.403258064797,765.6787937295694
1731141618.2427497,782.3735739842675,821.645556734371,808.6774675229201,766.7510218689614
1731141618.246652,797.4109800614439,816.0812676922641,808.9515574210225,767.8032938322108
1731141618.2505548,784.2476762087085,810.818061986049,809.2254112444734,768.8352275376138
1731141618.2544577,749.9695944819841,808.5511033385718,809.4989683761862,769.8464538122098
1731141618.255546,719.3398473251015,809.745594116435,809.7722310251513,770.8368361075003
1731141618.2558253,715.4945872684891,812.6552166501075,810.0452283645008,771.8064003983025
1731141618.25836,741.8090848785608,814.8059699027001,810.3179846784786,772.7551759739763
1731141618.261254,779.333857783844,814.6985751940805,810.590509128047,773.6831287959836
1731141618.2622626,801.857180628848,812.539927236184,810.8628011953684,774.5902543864834
1731141618.2661653,796.6931129731284,809.70489257496,811.1348594566604,775.476754404869
1731141618.270068,774.458111233969,807.5751434088951,811.4066862944612,776.3430940644461
1731141618.2711327,759.6018269928627,806.7087259519911,811.6782879098431,777.1897182366858
1731141618.2739706,769.2425769752134,806.8166838146645,811.9496722958185,778.0164262349739
1731141618.277873,798.0589870902381,807.2837441104297,812.220847589134,778.8218851610288
1731141618.280089,822.3300747055512,807.6630668849159,812.4918216024428,779.6041748560216
1731141618.2817757,820.047391890051,807.8310496682135,812.7626021434806,780.362931792859
1731141618.2856784,790.2127283618776,807.8710375821427,813.0331974598465,781.1020882846915
1731141618.286719,754.9848347354698,807.9002535134831,813.3036164460669,781.8300118953579
1731141618.2895813,742.6369221558123,807.9762630831867,813.5738686049165,782.5533947039602
1731141618.2907405,765.0854132010925,808.0947041870138,813.8439639130033,783.2654864511131
1731141618.2934835,808.1022304309244,808.2272191543659,814.1139127150951,783.9382749936118
1731141618.2973862,842.1043339551455,808.3528214847759,814.3837256827745,784.5352178201445
1731141618.2989235,845.0572271712547,808.4667947800632,814.65341381173,785.0532795845536
1731141618.3012888,819.3946759705896,808.5743588997764,814.9229884205338,785.57204623264
1731141618.3023062,789.4610263246127,808.6817413456215,815.1924611318477,786.2479228442778
1731141618.3051915,781.4319632115478,808.7917106378293,815.4618438391116,787.1890537998477
1731141618.3090942,801.9171999224175,808.9038179441604,815.7311486744264,788.2347287994419
1731141618.3129969,832.7717407391909,809.0165112905164,816.0003879928607,788.8337459300886
1731141618.3168993,846.4005042805722,809.1287335594694,816.2695743742643,788.3313570766924
1731141618.3177583,828.8017158755124,809.2403000745425,816.5387206196399,786.7943791066359
1731141618.3178928,791.2450289259191,809.3515156539288,816.8078397011219,785.9034151584042
1731141618.320802,761.1663919410731,809.4627040687451,817.0769446414982,788.7488246397282
1731141618.3247046,760.0588063801799,809.5739939908917,817.346048370976,797.5840235059089
1731141618.325655,786.4212205839867,809.6853491301423,817.6151637048741,810.6279372951271
1731141618.328607,817.3115042212444,809.7966845694501,817.884303600196,821.4134473689807
1731141618.33251,827.0257631539027,809.9079471391717,818.1534816532393,823.1040152795407
1731141618.3334796,807.9301071311054,810.0191293545571,818.4227124005309,814.9860076007363
1731141618.3364124,776.8177569000036,810.1302454193209,818.6920106916629,804.678555178411
1731141618.3365932,761.5483806895635,810.241306437426,818.9613897825875,802.7202421640621
1731141618.340315,778.4426819339287,810.3523133086835,819.2308591928049,813.56394986746
1731141618.3442178,818.6157038321846,810.4632652109038,819.5004250982964,831.0858116423257
1731141618.3481205,854.5707589474615,810.5741702304871,819.7700960239367,843.1289247375989
1731141618.3490665,861.9651688840303,810.685043431617,820.0398925627518,841.4939523635253
1731141618.3520231,838.8820066283511,810.7958861816973,820.3098523087726,828.7419568286005
1731141618.355428,806.9202772145527,810.9066590124207,820.5800164586246,815.9378875514518
1731141618.3559256,793.4090934597243,811.017281307749,820.8503932188814,813.4237945858565
1731141618.3598282,809.4138921611234,811.1276927627237,821.1209204243089,822.5866808824759
1731141618.36057,841.2957058117838,811.2379672982983,821.3914806421716,835.3796620711855
1731141618.363731,862.3361169053777,811.3483823576181,821.6620164123519,841.5816728602322
1731141618.364653,854.8011051318617,811.4592836350992,821.9327109172639,837.4649652642335
1731141618.3676336,824.591881396957,811.5706709590671,822.2040582240157,828.7312928110662
1731141618.3715365,796.6145157104285,811.6817378032628,822.4765744903842,825.5028817826498
1731141618.3742626,794.4953517313182,811.7909724399245,822.7500936689651,833.6092249235429
1731141618.3754387,821.0764632217792,811.8974186580054,823.0231203537138,849.306391176074
1731141618.3793414,855.742567109432,812.0028014286867,823.2932563233132,861.7440837767172
1731141618.3802395,870.9312417949521,812.1125746893922,823.5595049962784,861.2650928640762
1731141618.383244,854.3032034636623,812.2329379278218,823.8255948942191,846.9603741431813
1731141618.3871467,818.4253641146289,812.3628100285277,824.1008424234282,827.5296680426153
1731141618.3910494,790.3742301425121,812.4857354647274,824.3940351323743,814.8591399944987
1731141618.3930974,790.2075190523414,812.5733893208616,824.6999673570618,815.463053577716
1731141618.3949518,815.7936102121629,812.6109423229817,824.9884501800517,826.4559144039767
1731141618.3954847,845.5695049089344,812.6363191233152,825.2150409941028,838.867194022523
1731141618.3958266,856.1762737285527,812.7544276977058,825.3666665884501,845.0198345577332
1731141618.3988545,840.5369577963363,813.0716038644179,825.521980965214,843.5296805238534
1731141618.4027572,812.2058921678032,813.5370573245626,825.8578799251693,838.3031492627119
1731141618.4066598,793.0894478341185,813.7902169086228,826.5201010970742,833.9062248427224
1731141618.4105625,795.1080366092561,813.21840953851,827.362103446578,832.2537005840672
1731141618.4114132,811.2123758920036,811.3421967270136,827.7459518018545,832.6537961115108
1731141618.4119322,823.0548753913715,808.2795327866852,826.7426660882767,833.589466117305
1731141618.414465,818.2091016278038,804.7870920731445,823.8653445440192,834.0924043927232
1731141618.4183676,801.6612466985216,801.7579337034483,819.8068441929478,834.0208872865805
1731141618.4222703,791.531237649043,799.6873700544535,816.215347128154,833.6725164060776
1731141618.426173,802.8253729736052,798.5889151881283,814.3025995172961,833.3464442514437
1731141618.427,833.2739518333207,798.2403603679139,813.537156038576,833.1552726270702
1731141618.4300756,863.4167295954634,798.3693072905947,811.9384057112138,833.0610996486166
1731141618.4304,871.2327218662708,798.6787106367252,807.9681247135394,832.9851607478749
1731141618.4307673,849.8099106434415,798.9029311021213,802.3653858283786,832.8805209982279
1731141618.433978,813.9261661922963,798.9889586295751,798.1909015535484,832.7434412038161
1731141618.4378808,789.6963709422112,799.2157897047108,798.8144910242561,832.5912743097415
1731141618.4417834,794.6038070535466,800.0115640481464,805.2628012151083,832.4397839060783
1731141618.442587,823.5065598880213,801.5322561090227,814.9377742958377,832.2943860384238
1731141618.445686,852.4534613140222,803.4162979867596,822.8284619971729,832.152849124073
1731141618.4495888,858.0642817786475,805.0755511085486,824.5907492086403,832.0112333316715
1731141618.4496017,836.88850024218,806.3519055302205,819.4536367373764,831.8675107848685
1731141618.4534912,808.4534938386471,807.8711418079223,810.8789308027766,831.7219223127028
1731141618.457394,799.1300645977822,810.5831788266437,804.4056241275857,831.5757008849599
1731141618.4581735,820.1530356274443,814.7701158041656,804.1120017050805,831.429886812123
1731141618.4612966,858.0072619441451,819.4451112292747,810.0935951671988,831.2849333077443
1731141618.4651992,884.9104254619522,822.8139438267023,818.5567115144797,831.1409269441816
1731141618.4653149,880.6253096071732,823.5028624580315,824.2852078625908,830.9979636519242
1731141618.4684365,848.0745392629473,821.5372270112504,823.7865477095596,830.8563440448265
1731141618.469102,810.6449046261197,818.2994739375794,817.2326511905852,830.716477919704
1731141618.4730043,793.61209769671,815.6018970443392,808.2022129306854,830.5785819953066
1731141618.47376,804.4061780533799,814.6496845261717,801.4957963857578,830.4424247016996
1731141618.476907,827.3451639270717,815.5267485021359,800.3216352089145,830.3074804822194
1731141618.4808097,837.2050194333405,817.2832978705877,804.5257561931016,830.1737172396265
1731141618.4847124,820.8744167770221,818.4058882599594,810.9824778038567,830.0426658416001
1731141618.4872713,789.3265325536987,817.5230739635457,815.8879088278494,829.9175947803861
1731141618.488615,769.5497603649148,814.2066609260754,817.3285984139192,829.801371835693
1731141618.489347,782.4773855250995,809.4606231165545,816.251973006863,829.692069690908
1731141618.4925177,824.8370522607671,805.3693309501598,815.2222856983892,829.5797144997425
1731141618.49642,870.036304880226,803.8627082911107,816.1382172067613,829.4504158436492
1731141618.5002298,887.806109282202,805.3706388344029,818.8417482598949,829.301660961757
1731141618.5003228,867.0267425284254,808.4404284067697,821.5980759155033,829.1613475377926
1731141618.5042255,823.5795266275314,810.7344893205266,822.7236398230763,829.087846428171
1731141618.5049336,787.2656847380691,810.7163465957783,821.7957556272794,829.1258385366154
1731141618.506106,778.6890243642258,808.7389773099678,819.543964077396,829.2234548610276
1731141618.5081282,794.7205565166036,806.6839455660814,816.8599761599925,829.1798267850179
1731141618.5120306,813.6811208464528,806.4165969194984,814.0532156287895,828.7395912965587
1731141618.5159333,815.0950363823391,808.251269975874,811.0139880924673,827.8917836310965
1731141618.519836,797.2027580448494,810.638028112028,807.9141315735369,827.2093571605045
1731141618.5205204,777.8344932797161,811.3481127784985,805.4958568719953,827.7884702511285
1731141618.5237386,778.4691214542951,809.256812766522,804.4524161681167,830.3411964110466
1731141618.524941,805.2439292814186,805.334795744118,804.4957113718177,833.6262473265184
1731141618.5276413,842.8098440317518,802.0581037612279,804.2939417085838,833.5859877739189
1731141618.5315435,865.9982364045738,801.6542050304496,802.7318101197023,825.141180934226
1731141618.5351448,859.7188133473576,804.478175295245,800.4452113999903,806.7661524282397
1731141618.5354464,831.0429208137645,808.7184854499992,799.908397160493,784.2365347505548
1731141618.5361073,803.7833119814409,811.6665082906172,803.495077778045,768.842781163339
1731141618.5393493,799.8172476002447,811.6505973782922,811.0111099756207,769.9366604165982
1731141618.5432518,822.0063832482006,809.2292943068347,819.1084525111415,787.6594103884654
1731141618.5437756,852.4243913183336,806.7356567373571,823.5456504008826,812.2731778247743
1731141618.5471544,867.3219101519716,806.471838267959,822.5984249949493,830.9035541630645
1731141618.5510569,856.5491831043046,808.9241888442049,818.6089057763438,836.2450806208171
1731141618.551694,831.4233173306175,812.4269299941797,816.1374245930925,830.4586523615044
1731141618.5549595,814.671849485823,814.562806490994,818.1819359615176,821.8012268457776
1731141618.5588622,821.0741711170423,814.1127752159308,823.6544926084717,817.4082567966282
1731141618.5626104,845.0309872831176,811.8751242091998,828.1889998246119,818.2366757346681
1731141618.562765,865.2615831721239,809.7090884667667,827.5244868539203,819.8090494448702
1731141618.5666676,862.5758570720036,808.8017264289972,820.7074414564112,817.4475139641714
1731141618.5672803,836.085365981187,808.8248194647057,810.7278211961143,811.2003930482672
1731141618.5700598,804.5847599411118,808.6881191424249,802.3562002136622,806.1960955184705
1731141618.57057,791.7374984834311,807.9873138704428,799.0169888133809,808.0925763600076
1731141618.574473,806.7841124457384,807.6029151774751,801.0051422113468,817.497089450508
1731141618.578375,836.5305702041117,808.8311542280844,806.0884370132549,828.353685637996
1731141618.5814452,855.7393827197429,811.9420678214897,811.65996594676,832.2341673573994
1731141618.582278,847.9815560616051,815.6408491573713,816.5799355642291,825.443314666136
1731141618.5828674,819.7046453045496,818.0117748068408,821.3617227631951,812.9914332275625
1731141618.5861807,795.2143799330721,818.073798750899,826.8470796610618,805.5521458922657
1731141618.5900831,796.1930301045588,816.5034609003341,832.7110501552081,811.2398757630366
1731141618.5939858,822.8845380709266,814.9049557451827,837.1451616037581,828.6945058508207
1731141618.5978885,853.0612163120998,814.3669381226588,838.0051093313484,847.3137126067537
1731141618.598454,859.8999638850789,814.6139571455623,834.4865301600069,854.7888961332952
1731141618.60028,834.0134124764454,814.3934409087184,827.9657549750498,846.1850673206956
1731141618.6017911,791.6370071140458,812.6201135054007,821.3049327315177,827.6246343179976
1731141618.6049747,762.43826986884,809.2850994031977,817.1058189973519,811.8891842280466
1731141618.6056938,766.6439106565903,805.5046689671359,816.1611697978175,809.2827802605573
1731141618.6095965,799.4618567223987,802.8070510213887,817.1584277806348,820.4251078288981
1731141618.6134987,835.0994202943557,802.2246112496777,817.7798210659821,836.1619713721342
1731141618.6140409,847.3313578256375,803.768420895573,816.4225244763749,844.6204909515536
1731141618.6174016,830.2017356363555,806.5439311453135,813.3948857315885,840.1034117186605
1731141618.6191146,801.945912955661,809.3454225937434,810.7544902525464,826.9446898617691
1731141618.6213045,788.7911216904165,811.2711134470437,810.7653286916513,815.2461524787724
1731141618.6252067,802.2087855216299,811.9343341435322,813.9287037317007,812.0220428219657
1731141618.6291094,829.0024822214772,811.2385757834695,818.1033229432292,815.3031936057025
1731141618.6296277,842.8070419619991,809.123192146502,819.7111443437751,816.3837608690883
1731141618.633012,827.1765685973365,805.6945438538303,816.434953877648,808.273359498299
1731141618.6369147,790.4899769475965,801.6371755644419,809.3321555791174,792.7852571273636
1731141618.6379497,760.0035696453427,798.3065349133511,802.4330123975997,779.7760440064945
1731141618.6398897,760.035939557709,797.0970767499599,799.8733767355574,778.9918888678718
1731141618.6408174,792.2703636239652,798.4680684944872,802.8043607860229,791.5494213284867
1731141618.6447198,834.1189998365219,801.524589546377,808.6742000034093,808.5027324752524
1731141618.6452143,856.365878336959,804.6241621345688,813.5183383720638,817.9381826906051
1731141618.6486225,845.9112424467596,806.4948627773766,815.2859682565395,814.7537055448149
1731141618.6525252,815.4255445985301,806.8747600623159,815.3124565947941,804.8545127958823
1731141618.656428,792.2616218858841,806.2335889503416,816.6795984319594,800.0455889354176
1731141618.6567843,795.7790468198152,805.0749729146488,820.9554874937936,807.7304702383198
1731141618.6603303,821.6559819858751,803.6114176405324,826.2552985539121,824.0574323196571
1731141618.6608012,845.9276751789865,802.0292329237682,828.4720703477192,836.4535308017645
1731141618.664233,845.2115889817335,800.8578159534602,824.8182281872873,833.7262654270778
1731141618.6681356,816.4043467597938,800.8886668714514,816.7349876944379,815.5808065245483
1731141618.6720383,779.8270879896346,802.6289388367923,809.5372034139514,793.7682638638847
1731141618.6748044,763.4266514820221,805.7950239450555,808.7428127877081,783.7666622102722
1731141618.6756191,780.7960004509746,809.3542108444894,815.8320316408906,793.3433390444857
1731141618.675941,820.3787211113437,812.1411666121777,826.8125095088054,816.6518237798634
1731141618.6763878,854.1728461724385,813.5553051215578,834.8220306000137,838.1890366658429
1731141618.6798437,859.0344778629773,813.779062510132,834.8344526280791,843.577432619131
1731141618.683746,833.9651361846654,813.4300007428851,826.9370981446617,829.226896780827
1731141618.6876488,799.9126021875131,813.0558904024726,815.8556704808304,803.9488769852298
1731141618.6915514,782.4432186078025,812.8834449866669,807.3567246651378,781.7709215207316
1731141618.6919746,791.4184649904588,812.8763693050148,804.447046119371,771.8681436507161
1731141618.6944537,814.1532223759478,812.9134126374262,806.1447049254351,773.4004370165023
1731141618.695454,827.2512447569352,812.9143314970985,809.3061044259979,778.6347032806883
1731141618.6993568,816.870525432067,812.867221754113,811.5585419096201,780.8690863929672
1731141618.7032592,790.5219631257426,812.7971801199466,812.7786033066382,780.1427194778441
1731141618.707162,770.8691762107834,812.729589317505,814.1218585854806,782.16828753557
1731141618.7075613,776.8621041617231,812.6741176316449,815.895066126632,791.9203411383105
1731141618.7097194,807.6786009688988,812.6276470974001,816.5665816266325,807.7647115470223
1731141618.7110646,842.5458940016347,812.5835169773445,814.0630669140091,821.442105922126
1731141618.7132883,856.838023527833,812.537708976609,808.2272306509882,824.2456407071675
1731141618.7149673,841.7949596806405,812.4898541572179,801.992449250813,814.3658894818893
1731141618.71887,811.8514801932339,812.4413852395253,799.7789108379038,799.0192024682556
1731141618.7227724,793.0437425145257,812.3936165141878,804.1212704843996,789.0903667772501
1731141618.723148,801.5293878205266,812.3469923951594,813.3536909633381,790.513908454887
1731141618.726675,830.1493197573669,812.3013078124011,822.515043169364,799.7764345291007
1731141618.7305777,854.6910545388166,812.2562086110514,826.9307204419147,807.4795415878566
1731141618.7321234,854.6454037424865,812.2114996316637,825.578144413837,806.7322638885055
1731141618.7344804,830.5790084116384,812.16717762146,821.4951033078646,798.9378829751819
1731141618.7383833,803.2622883513147,812.1233253002503,819.0058482259034,792.165918768626
1731141618.7387347,795.6099782270451,812.0800119315271,820.1684310578133,793.9707741515357
1731141618.7422855,813.0741012238107,812.0372588095918,823.3360104992305,804.9571236499787
1731141618.7446344,838.9915965364011,811.9950542078535,824.7966303016277,818.1321127925078
1731141618.7461882,848.5265374757043,811.953380240889,821.898288410258,824.091549068102
1731141618.7500908,829.4820060705254,811.9122280577585,815.0435227691106,817.8518251928197
1731141618.7509582,792.8019746529495,811.87159852163,807.1412320511371,802.4248572644605
1731141618.7539935,764.0405390425246,811.8314962218691,801.3117251911576,786.7571399244911
1731141618.7543216,762.5865561841584,811.7919243575051,798.9014758651703,779.4818239339172
1731141618.7578962,785.6421383633024,811.7528831883646,799.2117816337136,782.8718374787053
1731141618.7617986,810.3810875764782,811.7143709839542,800.6430889453869,791.5324985001766
1731141618.7657013,812.819412805021,811.6763854498781,801.9526188769205,797.0852748326615
1731141618.769604,787.9045997579784,811.6389244654089,802.7293010588921,795.2950741983453
1731141618.7697928,754.1564080114332,811.6019860616095,803.1444943465447,789.7022786231515
1731141618.7699082,738.9758791968336,811.5655680845067,803.5024591591769,788.4112398760457
1731141618.7735066,756.5686828398427,811.5296679314766,803.9711001169333,796.4958855111885
1731141618.7774093,796.1892781920264,811.4942824822433,804.5537081948472,810.51885406239
1731141618.7795494,829.9418879575478,811.459408155376,805.1804105253843,820.2199497726663
1731141618.7813118,833.9837721783747,811.4250409824608,805.7934333088681,816.5185025756633
1731141618.7852144,806.7194196506448,811.3911766428516,806.3762681315519,799.4783597496938
1731141618.785495,769.989971535765,811.3578104593663,806.940449807927,779.4710147710687
1731141618.7886276,752.2939253393745,811.3249373797578,807.5023591211102,770.0260271134059
1731141618.789117,766.9126869923712,811.2925519637758,808.0702268671229,777.6842252034343
1731141618.7930198,801.9641675867721,811.2606483811211,808.6436411942491,796.9441450991201
1731141618.7969224,830.3060740782405,811.2292204160661,809.2187364511358,814.5217422713642
1731141618.8008249,831.4326939730983,811.1982614730914,809.7925817167014,819.531696804003
1731141618.8010817,807.6447778193942,811.1677645807465,810.3644830319087,811.2754463791496
1731141618.8047276,781.4491759972652,811.1377223937866,810.9351451401877,798.5361352706125
1731141618.8074625,776.8193293192961,811.1081271946584,811.505436869552,791.7174663007262
1731141618.8086302,800.1782322334151,811.0789708951984,812.0757579482014,795.0235695807575
1731141618.812533,836.4542531463321,811.0502450391762,812.6460608661322,804.9723096512793
1731141618.8144643,862.3450412522802,811.0219408065243,813.2161414573288,815.2253697123015
1731141618.8164356,864.8122587241293,810.9940490200322,813.7858628661191,822.2454120396746
1731141618.8166685,849.5009823849731,810.9665601538335,814.3552079785234,826.537751384712
1731141618.820338,833.172347049727,810.9394643401729,814.9242211024107,829.3165151632446
1731141618.8242407,827.8427214135647,810.9127513691562,815.4929373891008,829.0485332241559
1731141618.8262973,830.7408757059325,810.8864106796842,816.0613589427559,822.0666477575098
1731141618.8281434,828.4643219401786,810.860431350601,816.6294831836117,806.8916818188485
1731141618.832046,811.1096883481353,810.834802113239,817.1973499870668,787.7831153509774
1731141618.8322551,783.5296256462675,810.8095114040333,817.7650535726516,773.4628125601354
1731141618.8359487,763.451259815931,810.7845474428769,818.3326731784838,771.4540537799927
1731141618.8398511,767.553217244883,810.7598982669108,818.9001345875822,782.6286680964931
1731141618.8437538,796.9629089050275,810.735551621377,819.4671196145795,800.4431483011981
1731141618.845132,834.3588422521948,810.7114946868721,820.0332166403044,815.3236788064974
1731141618.8476565,855.6173824829339,810.6877138331483,820.59840817804,820.6758934474447
1731141618.847842,847.4434041699192,810.6641948036598,821.1636307098795,816.381002854585
1731141618.8493793,817.5947925043896,810.6409236454464,821.7306884807467,808.0706819189788
1731141618.8515592,789.5411897525431,810.6178880331546,822.3007906093515,803.2229676992363
1731141618.8554618,784.8978569652693,810.5950775975277,822.8720128830832,806.4362200800481
1731141618.8593645,806.6609522661407,810.5724814728115,823.4379479316292,816.3887971340274
1731141618.8632667,836.6339430809255,810.5500829521113,823.9910823500059,826.4395046731962
1731141618.8634286,849.9485944868502,810.5278551970345,824.532261831428,829.0952654444742
1731141618.8639667,835.5380056082066,810.5057656506137,825.0805612137264,821.7601594441052
1731141618.8671696,805.6120977292159,810.4837942975865,825.6697500706024,809.3715424513713
1731141618.8710723,785.6843529619243,810.461957610394,826.3187150596734,801.176432223345
1731141618.874975,793.0977291865896,810.440310927591,826.9843030085427,803.5777481993833
1731141618.8788774,822.1214182775717,810.4188972118613,827.5418610558831,814.7662414333411
1731141618.8790154,848.3448207383418,810.397645563592,827.8586392361904,825.8832399376279
1731141618.88278,848.77970539885,810.3763003845742,827.9769530955226,828.0999548165049
1731141618.8828015,820.9566801809673,810.3545248402692,828.2877280170712,819.8966044085099
1731141618.8842945,785.3257617853777,810.3322594475072,829.4333344727189,808.5052635065567
1731141618.8866827,769.0471998974892,810.3101529610163,831.7340035744254,804.193529346453
1731141618.8905854,784.2668652807079,810.2895351088284,834.3770179245554,811.864630651872
1731141618.894488,818.3698970352324,810.2713630855733,835.2314107610845,826.7093654101842
1731141618.894602,844.1434764753827,810.2543119850964,832.0608542253073,837.5850786870641
1731141618.8983903,841.7021825219645,810.2336496261902,824.5613230993652,835.6816284240863
1731141618.9016364,814.3013983644349,810.2035722951083,815.3452082474834,821.6072290996074
1731141618.9022932,785.0328429658472,810.1641979904238,808.5874654801282,805.0244377637549
1731141618.906196,777.2239927918581,810.1292325583371,807.163096004963,796.9342300510779
1731141618.9100986,794.9910447375174,810.1240665755683,810.5384352605596,800.8698142882838
1731141618.910189,820.1758802258689,810.1644046341579,815.127971352256,810.2814446325337
1731141618.9140012,828.0073277967956,810.2207583741788,816.8891632391408,814.2009890864502
1731141618.9179037,808.2362040491025,810.2019420047393,814.1993382097551,806.353668635218
1731141618.919209,774.2948748581068,810.0076153102516,808.8728815569698,790.2460714270198
1731141618.920471,753.1452465944756,809.667686327588,804.6390687268913,776.4014780205383
1731141618.9218063,764.0448812266266,809.4891448968705,804.330360914195,774.3259674774516
1731141618.925709,803.0851453493582,810.0313365537114,807.9222439986322,785.6050470823078
1731141618.9257755,845.7465295349301,811.7733497672846,812.7893166752117,803.160338639492
1731141618.9296117,865.5855974186392,814.600926147872,815.8008009401262,816.7813875977059
1731141618.9335144,854.2937145259319,817.5392725630867,815.5724797740232,820.4912636151292
1731141618.9374168,827.0382991075185,819.1273745354079,813.254523635311,816.2627605070937
1731141618.9393058,808.8715175420465,818.3458882137012,811.4486958776436,811.5592836114517
1731141618.9413197,813.6595310726716,815.45324756247,812.1940204102498,812.8744474544053
1731141618.9413624,833.1501304008332,812.02178168325,815.5162513178808,820.4558508476038
1731141618.945222,845.0219749081353,810.0441286610977,819.5464424743074,828.4276689296883
1731141618.9491248,832.6583069201997,810.7071778838471,822.0541496610884,830.1568528074038
1731141618.9530275,799.8310894915855,813.6582071123955,822.1672326496033,824.2941961090335
1731141618.954124,768.2545018117878,817.1763482053992,820.8678881966127,816.2187420825608
1731141618.95693,760.3784903655071,819.0581489211905,819.8516793368948,813.5045810442173
1731141618.956949,781.5347609331938,817.7104667279971,819.8056615618514,819.2925892534276
1731141618.9581406,815.5431795535312,812.9675744261049,819.7737689369321,829.3799293988247
1731141618.9608326,837.0579512242277,806.2768643841999,818.30794238698,835.6267316644326
1731141618.9647353,831.06405802558,800.0624445965207,815.3227568292978,832.774515941682
1731141618.968638,804.4621074460891,796.4490631968088,812.6996702720091,822.841679429209
1731141618.9725358,780.529082389457,796.0744943950217,812.7479426784635,813.3990216162505
1731141618.9725406,780.2117775742953,797.8907173676338,815.7700278370552,811.2700551866249
1731141618.9764433,804.8969183979706,800.13728027008,819.100327921329,816.9954313115677
1731141618.9769754,834.6845368479401,801.5966000836622,818.8213046973048,824.6040090623621
1731141618.9803455,844.0243617561166,802.0856252306943,812.9139516548037,826.7149657252648
1731141618.9842484,822.446870196806,802.0680797512789,803.2189930361332,820.6653608116565
1731141618.9881225,783.7507006356627,802.0388064175814,794.5561296483208,810.6920515780118
1731141618.9881513,756.1073529583715,802.2107620195436,791.6740103261196,804.4774877796264
1731141618.9890387,760.6732624079367,802.5472056469115,796.3012918947203,806.8235134718976
1731141618.9920535,795.3456519068292,802.9284955827409,806.2999943514119,815.4547476296246
1731141618.99581,836.3268859805594,803.274587890461,817.2883780366119,822.4125902046111
1731141618.9959562,856.3888914090654,803.5726243461658,825.4138183813307,820.289304680178
1731141618.9998589,845.6675660622915,803.8467057595093,829.2970619939408,808.6300155602917
1731141619.0037093,818.5775838060689,804.1217726767617,829.9068172045529,795.214147433339
1731141619.0037615,801.2594122060491,804.4075448149573,828.767526499974,790.5572394154335
1731141619.0076642,809.7502462544744,804.7011248478088,826.236872996922,799.4634370004183
1731141619.0115669,836.8635171734238,804.9960001100869,821.4576925660396,816.3608982347397
1731141619.0146449,858.5868426908962,805.2881706270849,814.0001365818248,828.6179142198948
1731141619.0154693,854.4846348652727,805.5772133908084,805.5434680117977,825.7403040416331
1731141619.019296,825.0397241314109,805.8645052490808,799.7554951929046,807.4219747926762
1731141619.019372,791.695999475262,806.1513346615642,800.0578135156072,784.0529933856432
1731141619.023275,779.7329567894909,806.4381449494965,806.8982474065838,769.1156267751447
1731141619.023954,797.9372839291885,806.724736255499,816.7896289428294,769.301731800404
1731141619.027177,831.403308501852,807.0107538592978,824.1287656326449,780.0308341475425
1731141619.03108,853.2211597367591,807.2959964586719,824.6816874391318,789.7813739011145
1731141619.0334797,845.7903212590279,807.5804570987185,818.3039256092796,789.6156980582895
1731141619.0348828,814.7563637422274,807.8642239438515,808.9496327478092,780.1466395934771
1731141619.0349824,784.2608900854274,808.1473772542008,801.9286143444064,770.3565244511559
1731141619.038885,777.1419298135897,808.4299379366483,800.3420609844518,769.4298956852456
1731141619.0427878,796.1930332356685,808.7118624218214,803.2646901345566,778.5820123980701
1731141619.0466905,822.1420891381912,808.9930716737833,806.9819911869952,789.8764195598635
1731141619.0504694,830.3158255127805,809.2735159718235,808.242418262829,793.1014108906851
1731141619.050593,812.0928722028931,809.5532624209446,806.8727299404303,784.8775634163184
1731141619.0523143,782.8683099808433,809.8325358698421,805.6529379094497,772.2109871204804
1731141619.0544956,769.4751072877112,810.1115998059333,807.6617129209476,767.355093171828
1731141619.0583982,787.4049006461055,810.3904324964321,813.3878165860947,778.0780044887571
1731141619.058869,826.9503269915177,810.6683896710423,819.9998331843799,801.196104610637
1731141619.0623007,860.1529051684367,810.9443223087368,823.3236846846875,824.5857693502784
1731141619.0660565,863.211060981348,811.2175822262283,820.9242322370512,836.1376312333648
1731141619.0662036,836.0156823957714,811.489633201022,813.907441637833,832.6661999101143
1731141619.070106,802.5300647538803,811.7647301667274,806.1254339186129,821.8426880393445
1731141619.071149,791.3820445356587,812.0474430602656,801.4740403068778,815.7056767550102
1731141619.0740087,812.5160311037148,812.3364383224501,801.3760391465632,820.9684309824954
1731141619.0779114,849.2133848915496,812.6185913811871,804.2709535557191,833.9229690384418
1731141619.0816429,872.0651009209914,812.8724224110396,807.247452549785,844.0495752879843
1731141619.081814,863.2067192782429,813.0882124342678,808.304821608861,843.2939834798317
1731141619.0857167,830.7784981742342,813.2976348398142,807.4749366129328,833.1965384166884
1731141619.0896192,802.0158182961075,813.5822977132547,806.2093162484332,823.7598178435117
1731141619.089984,801.0653113277133,814.0203357183649,805.8521527118114,824.8741993406128
1731141619.0935218,829.6410750444456,814.5650719800037,806.5312743051405,837.4852469548977
1731141619.093784,865.6830787969641,814.9375995417594,807.2496060713486,852.056924882053
1731141619.0972297,880.6108841997896,814.6942808936749,806.9920891998083,855.9047216835104
1731141619.0974245,861.4527319574942,813.5611777283902,805.9516269538173,843.5843912882925
1731141619.1013272,820.6650297289556,811.8366300900316,805.8498196825159,821.7974396887195
1731141619.10523,786.0747565207079,810.411770916237,808.863332680135,804.5655796842453
1731141619.1088188,778.9515868911217,810.1888992388023,815.7057481909255,802.4156745186406
1731141619.1091323,797.8340260334861,811.2970586311651,824.3416868082402,814.3882988850435
1731141619.1128163,821.2189366566544,812.8027454053738,830.706135991332,829.3388684832967
1731141619.113035,826.570212811401,813.2094837078492,831.3291179283782,835.116159611966
1731141619.1169376,809.3364337133138,811.3660640905431,825.9533359520025,827.7246399473579
1731141619.1208403,785.9108726998622,807.1173693477947,817.878475107455,813.1766838251832
1731141619.124743,778.5994907732941,801.3408814970846,811.5742075153564,801.4936082052858
1731141619.1276536,796.0516267148462,795.5551694034599,809.5591552053128,798.7896659130628
1731141619.1284032,825.8390314286231,791.5117492158579,811.1765082339825,803.9582178821307
1731141619.1286454,844.9272023849525,790.9019661231969,813.9608654891397,811.4744752059306
1731141619.1286988,838.8301755575729,794.9246809133607,815.8743695682289,816.5188653289307
1731141619.132548,813.6055077627435,803.5338857727123,816.3896451152635,817.7885681270606
1731141619.1364508,791.0318742014751,814.7614661459634,816.0721192539784,816.7478571228896
1731141619.1403534,790.8531920158288,824.9358299809492,815.658866200645,815.3749131900666
1731141619.1439898,814.3578591968659,830.2084281504052,815.5181497658856,814.7027716310068
1731141619.144256,842.7566976226781,828.7001166231904,815.6354503926391,814.7295677379826
1731141619.1464884,852.163716779767,821.7867410549645,815.8426960097679,815.0152448643963
1731141619.1481586,833.431028750559,813.4423907538766,816.0114550883413,815.208139572474
1731141619.1520612,800.6416304570412,807.9486032619056,816.1107906382545,815.2148894258418
1731141619.155964,780.8066553050171,807.4902046671181,816.1710740699385,815.1116780397838
1731141619.159577,792.5300197203134,811.1801441288699,816.2300798989966,815.0000207987164
1731141619.1598666,830.6464506811184,815.9683308250601,816.3051757512302,814.928908083793
1731141619.1636138,869.322723000207,818.6625530310644,816.394114972572,814.894145765574
1731141619.1637692,881.4346755744718,817.7685785517281,816.4876312305393,814.8712980510757
1731141619.165323,859.0635967102985,814.1377491184327,816.5792374306964,814.842492619879
1731141619.1676717,818.9647028830024,810.12802116723,816.6677006229418,814.803839874879
1731141619.1715744,788.6342741436578,807.8149890374234,816.7548224722444,814.7598842048702
1731141619.1751633,784.1218937185274,807.4388097050979,816.8425886236299,814.7159484311135
1731141619.175477,797.7531095423019,807.2776272154802,816.9318278523184,814.674356168349
1731141619.1793797,806.1769938976424,805.2003994805203,817.0223581527963,814.6346814136826
1731141619.1832824,792.1437319479063,800.7688066744938,817.11368130571,814.595573194033
1731141619.1841578,761.2487106665955,796.1114154617414,817.2054799435317,814.5561171222199
1731141619.1871848,738.6180943636701,794.6469426091209,817.2977190271681,814.5161471702539
1731141619.19075,747.6629149643162,798.4965968709662,817.3905119343008,814.4759114241735
1731141619.1910875,788.8339846263455,806.5837012152375,817.4839656478906,814.4356690217554
1731141619.1949902,836.7930308416621,814.9626188531222,817.5781118493929,814.3955093680864
1731141619.1985288,859.0437942313672,819.2475610485466,817.6729224259734,814.35537986311
1731141619.1988928,841.0795130157111,817.4682149872458,817.7683641508528,814.3151859396388
1731141619.2027955,797.6672405614311,811.372106134102,817.8644492619667,814.2748596868506
1731141619.202993,761.2162519182176,805.2557097649902,817.9612481659673,814.2343721038019
1731141619.2063367,756.6091853034652,803.0860948607656,818.0588386954033,814.1937134786593
1731141619.206698,782.4635942092816,805.8768777839088,818.1571968065036,814.1528723419674
1731141619.2106006,813.3998503558563,811.1607870757553,818.2561036809733,814.1118269786982
1731141619.2145033,821.1302912006626,814.9131696079321,818.3552144263768,814.0705476677327
1731141619.218406,797.4049656047508,814.441628857164,818.4543961994123,814.0290021538473
1731141619.2218275,760.6691602770442,810.0576824569195,818.5542012329762,813.9871590913535
1731141619.2219236,741.426312415763,804.431744386249,818.6559686305249,813.9449884411467
1731141619.2223086,758.0466146782179,800.4346929829087,818.7609167075507,813.9024602877738
1731141619.2262113,801.8973899182503,799.2866467873478,818.8682069485124,813.8595437529269
1731141619.2301135,843.1164944128526,800.2318326836435,818.9734294220272,813.8162067749897
1731141619.2334435,852.4891776893995,801.5647330235352,819.0702699372504,813.7724166130291
1731141619.2340164,822.876241626204,801.9680215739675,819.1571560416071,813.7281404368439
1731141619.2375102,774.2039494467235,801.2673652089226,819.245826079443,813.683345281904
1731141619.237919,738.4809411160106,800.347341075299,819.3619183242267,813.637997011258
1731141619.240662,736.3629071261859,800.464623938369,819.5261463896001,813.5920588330886
1731141619.2418218,763.1913505180839,802.3997096901553,819.71769825718,813.5454910765725
1731141619.2457242,795.0524964824413,805.9293974858077,819.8495617073994,813.4982542086117
1731141619.2496269,809.487501436476,809.9341589242549,819.8077036672437,813.4503149675252
1731141619.2530973,803.603035719317,813.0271713182365,819.5825837739582,813.4016508389731
1731141619.2535295,794.6594280140916,814.2173404914895,819.4265540326064,813.3522442228858
1731141619.2574322,803.2237009370523,813.2079397929489,819.8495873637405,813.3020611697908
1731141619.2594967,833.807334407613,810.3716215278325,821.2663542863077,813.2510251983708
1731141619.261335,869.6931552304595,806.6604401909258,823.4106309270843,813.199017789784
1731141619.265237,886.2164926846528,803.4706744577222,825.1426684234443,813.1459402804644
1731141619.2683585,871.1851734710305,802.2322819910729,825.2864879926182,813.0918286801725
1731141619.2686837,835.4156876463893,803.7071057803954,824.0647108649976,813.0369247684102
1731141619.26914,804.6928927446507,807.4523600943753,823.544356513177,812.981542178104
1731141619.273043,799.6689104972751,811.9885754056601,826.0718921325396,812.9256502446927
1731141619.2769454,820.044310987244,815.670235231174,831.7949230814507,812.8684062443921
1731141619.2783318,845.9204634649932,817.6150101157538,837.6832338349495,812.8082476022873
1731141619.280848,855.0886298140784,817.9902800404615,839.3575642997064,812.7441529098818
1731141619.2842703,841.7044881443547,817.54960789328,834.4969490388704,812.67778914949
1731141619.2847505,820.5867776968267,816.9470851607507,825.0341022020139,812.6145993713963
1731141619.2886531,813.6408957114585,816.4302530343853,816.1987935480178,812.560844225568
1731141619.2925558,830.2682953838046,816.0302377792101,812.989949016659,812.515530803245
1731141619.2964585,858.7073069564515,815.8671663117951,816.7374302086653,812.4621797901564
1731141619.2971666,875.6740392760241,816.1551427244157,824.3782911207402,812.3721848696409
1731141619.2998571,865.9991424472224,816.9007437904987,830.9510201699715,812.2302594105549
1731141619.3003612,835.699231853275,817.6783932411879,833.2731087666465,812.0742814256331
1731141619.3032734,807.5727668933677,817.818310806554,831.8522006900433,812.0107237286514
1731141619.3042636,802.7734499188412,816.9081501784551,829.6036730711253,812.1508805185106
1731141619.3081665,823.277986772319,815.1462820953343,828.7158816288902,812.4556202241456
1731141619.3120687,849.7813129647805,813.189248481836,828.6245531383602,812.5932772402556
1731141619.315444,857.3641610736431,811.628378846794,826.9763919614155,812.0355361089731
1731141619.3159716,836.5855061420018,810.6115299891871,822.571151532196,810.5702188711947
1731141619.3160012,802.4758523798691,809.9782657769501,817.2982119666264,809.0465494568119
1731141619.3198743,783.236313902614,809.7262876002283,814.9907937931386,809.602425593581
1731141619.3237767,797.2140099899917,810.2485554501174,818.0789826493499,814.4316340536507
1731141619.3276794,836.9551097892419,811.9939574981332,825.0797791058723,823.1784052344717
1731141619.3310306,873.8005638445123,814.8064666017699,831.2696306544462,831.2007547276994
1731141619.331582,879.7236724449052,817.5766718770068,832.0528898788874,831.6747852966388
1731141619.334836,848.9713553716178,818.6291343665293,826.2244100785681,821.1869077524007
1731141619.3354847,802.3167199653659,816.6855455159888,816.5403290924361,803.8156847594961
1731141619.3381884,770.8246757993361,811.786528795805,807.376970479143,788.9721786645225
1731141619.3393874,772.2353825380696,805.5329637348657,801.5816088722418,784.1461706155266
1731141619.34329,798.5633179581275,800.4032567463238,798.9858562153984,788.9053482535577
1731141619.3466177,824.2939448215654,798.4895962719727,797.4025277080124,795.6621546314306
1731141619.3471923,828.015646352147,800.422705648752,794.8718985000834,796.7254866593171
1731141619.3510952,809.5598288612622,805.176351479007,791.1936499193241,791.4424500050609
1731141619.3536708,788.6102391691353,810.834088854637,787.7525466504769,786.9436712850566
1731141619.354998,786.4197478939682,815.716215344209,786.197007896066,791.574117655904
1731141619.3589003,806.6459128450804,819.0779338659303,787.2475273802165,806.6899655610498
1731141619.362204,831.8809524980884,821.0215099319906,790.4175596609113,824.169375293623
1731141619.362803,838.6243298716555,821.8897455147365,794.5106813297303,832.0750954196395
1731141619.3667057,817.495805751687,821.7183945130968,798.3224097400306,823.7701748148269
1731141619.3706083,781.4207724264127,820.1725064262566,801.1381767183823,802.8608651874134
1731141619.3725057,755.336800007012,816.9829931789162,802.9058554779288,780.1546379134396
1731141619.3731034,756.5404222477085,812.5288671193489,804.0905465132857,765.6883561649308
1731141619.374511,781.8183587385753,808.0716319120037,805.3157973567419,762.575319634483
1731141619.3777907,811.1297939809687,805.3180028961609,807.0286510603552,767.0866222504521
1731141619.3784137,824.088635496389,805.4324461255054,809.3897677196223,773.7364489376324
1731141619.382316,815.7146724123126,808.123427626465,812.3085487473323,780.3049998534191
1731141619.3862188,799.0049083347445,811.5719181007481,815.363456157263,788.5611255944857
1731141619.3901217,792.6827772241437,813.4563096972734,817.5981802777794,800.645846831735
1731141619.3913405,804.5445032697112,812.4318139504113,817.5960227447237,814.8896727999071
1731141619.3933775,824.4070401252708,808.9538958896511,814.1827025171677,825.2260854162336
1731141619.394024,832.652774173068,804.8331963828067,807.464502787782,825.2180668948663
1731141619.3979268,817.3128055668711,801.9500238312833,799.3364873497557,813.6723267997604
1731141619.4018292,785.4157109609798,801.1490333382901,792.8102735747742,797.125737316403
1731141619.405732,758.9190432942946,802.0077095256298,790.4199035507635,786.5786071421368
1731141619.4080184,758.0633070895574,803.401054937188,792.7407072536522,790.2496413076238
1731141619.4089644,785.2014082878289,804.3155592036763,798.0310505164302,807.4897172821078
1731141619.4096346,822.0045134641326,804.41602459571,803.2798225282639,828.6018779600107
1731141619.410175,842.7348764808439,804.139823635732,806.0775181527652,841.2113361830855
1731141619.4135373,833.8177769873587,804.3162524720835,806.1709446298263,838.8659107929609
1731141619.41744,804.5575590242519,805.4983252964702,805.5756085851992,825.4681732794784
1731141619.4213424,780.00926966569,807.3981405421546,806.9207373516105,811.930478161063
1731141619.424551,780.8860009187808,808.8716675672158,811.073696254775,807.4558047807069
1731141619.425245,806.3941044159817,808.596810332957,815.9940534022963,812.3926532187587
1731141619.42901,834.4120729613865,806.0409234696147,818.0605896890379,818.5759833918584
1731141619.4291475,839.5811245929849,801.9893632313305,815.0143724633459,816.8850849507645
1731141619.4330504,814.7744496968675,798.1859845791959,808.0295905322612,805.5822717991855
1731141619.4369533,778.0704332657374,796.3430056180188,801.0134332687225,792.2843025576791
1731141619.440138,759.0541038482957,797.27255359612,797.6722281713965,787.8728008002475
1731141619.4408555,775.3203798025069,800.7138692462512,798.8521846281095,797.5025620927034
1731141619.442933,818.1432989557333,805.7851868127859,802.3140929994844,816.1911679596104
1731141619.4447582,858.831096565201,811.5258284459615,804.9196673668512,832.4952662235526
1731141619.4478447,870.6686930933628,817.1100206505528,805.2972233266775,837.1522337861325
1731141619.4486609,848.995793217889,821.7810324485696,804.9007479645657,829.7847627838182
1731141619.4525635,813.5518618467032,824.8367960387164,806.7455911626292,818.5587731733619
1731141619.4557245,791.4963180417997,825.8463483715576,812.8031310033376,813.3177684457904
1731141619.4564662,795.2399481131637,824.9307236897298,822.0092346712769,817.740404336416
1731141619.4603686,813.4822232042787,822.7994888501318,830.5146742758237,826.6648343242244
1731141619.4642713,822.6479829989111,820.419550625989,834.2137824635803,830.4942672035861
1731141619.466679,808.4861622536234,818.4957427718409,831.7004091406268,822.956677868244
1731141619.468174,779.0243120428078,817.0999411236875,825.2349506329964,806.0064130544404
1731141619.471311,757.8316722500549,815.7163146233408,818.87834944329,788.2200318839917
1731141619.472077,763.6465170298322,813.7381967719613,815.4430466884733,778.3146016727717
1731141619.475979,793.9386300590737,811.1453795520092,814.9386938033662,779.0410736344288
1731141619.4778483,826.3406999692739,808.8563281863723,815.6551723479045,786.0298777039256
1731141619.4798818,836.7022145029717,808.332148076384,816.4469012105727,792.0950316893751
1731141619.4837844,818.7539909464588,810.5254079716213,817.7808744565834,793.3216571766269
1731141619.4855142,789.1922595445864,814.9056401239649,820.623746716715,792.0241233686565
1731141619.486898,773.98383550202,819.4425596155329,824.5777460643261,794.1966881565353
1731141619.487687,787.010363134464,821.7806624257538,827.4111955407298,803.5491559197355
1731141619.4915898,818.5528347985869,820.8333408579118,826.6566178142832,817.2361976028907
1731141619.4954922,843.2948403985763,817.5488772152336,821.8812010812605,827.2897090233205
1731141619.499395,841.4728707368201,814.1713058150574,815.5517297173647,826.9886531692243
1731141619.5024848,815.6488579341296,812.5317911259732,811.5940003022478,816.8320708913604
1731141619.5032976,789.019610933018,812.731578275057,812.6374672589305,804.7141910836586
1731141619.504349,786.5890774019113,813.2756557567103,818.0108280403483,799.7996493665573
1731141619.5072002,814.7389310653333,812.5174614974211,824.0607282909262,805.1652835832027
1731141619.511103,855.7895509100822,810.1873048760801,826.675307553974,815.4253277883399
1731141619.512763,881.7218864052653,807.7164883892682,824.2062443691758,821.3009674139048
1731141619.5150054,875.9845092445075,807.0909149950354,818.5975457194596,817.2868879687984
1731141619.5180714,846.2330688423228,809.2187607763653,813.8737972085606,806.1263928642788
1731141619.518908,818.0966287376267,813.2049806862982,813.2177149742791,796.5129101589359
1731141619.5228107,814.7798481480079,817.1033773230155,816.916864132446,795.9064379354154
1731141619.5231838,838.3947921408302,819.3824463608665,822.5605967206407,804.2745349449949
1731141619.5267134,867.9059078452439,819.7910209595584,826.9241804387934,813.9267853172801
1731141619.530616,875.8220402725506,819.0784858606083,827.8468363587076,815.7996818925973
1731141619.5336585,850.7764418327108,818.1499916786254,824.957811165247,807.2032517368358
1731141619.5345185,807.848275296273,817.4907705258976,819.3853868615992,794.5297933978292
1731141619.5384212,777.7696007444008,817.1279379446742,813.1402468129864,788.3346943539345
1731141619.5420184,783.1016315503379,816.8830486039144,808.457081924202,794.5855031433782
1731141619.5423238,820.2949371709592,816.6034774630358,806.9795887830135,809.3473171899044
1731141619.5462265,862.092137247423,816.2439146699421,808.951049515647,821.54439439278
1731141619.547678,878.452214634631,815.8337469471899,813.0198512704513,821.7600483359287
1731141619.5492449,859.3870376089919,815.4161718461706,817.0419402071306,809.9373169956204
1731141619.5501292,821.7370297203803,815.013335652565,819.4036957827958,795.6306298364082
1731141619.5540316,794.8719640276345,814.6244821590917,819.837151629862,790.4990748185793
1731141619.5579343,797.1278773223091,814.2394607768588,819.1573593574814,799.0871120142372
1731141619.5608532,822.0676266083589,813.8504006522819,818.36212455275,815.3980752492702
1731141619.561837,845.4456752654373,813.4553036065313,817.9662150153652,828.0209677155852
1731141619.5648315,846.5754976564347,813.0559190951639,817.951474954264,829.4383324083528
1731141619.5657396,825.8618305717494,812.6544893801138,818.0752667125172,821.6538965549006
1731141619.5696423,803.788403083107,812.2520428339662,818.1478774035836,813.5501594198529
1731141619.5735447,802.6831907671979,811.848419078433,818.1201703769776,812.6120771007987
1731141619.5774474,827.1583725353902,811.4430228898948,818.0339057508922,818.3959551495976
1731141619.579688,859.720429000488,811.0354204816722,817.9437483747573,823.2401763290102
1731141619.5804183,874.7996370138785,810.6254956602539,817.875732397598,819.2178496844837
1731141619.58135,859.2901948545812,810.2133191760734,817.827313999054,805.1938242869757
1731141619.582593,822.9936524722089,809.79897588819,817.7852555636546,788.2083767185362
1731141619.5852528,790.8972456453405,809.3824809331986,817.7399959866328,778.2896417772989
1731141619.5891554,783.6151228621131,808.9637862221956,817.6895304188993,780.8986667860544
1731141619.593058,801.5743815446642,808.5428231471321,817.6363563394881,792.8100972382858
1731141619.5960052,825.6156101248248,808.1195376173498,817.5833474321496,804.5107689236627
1731141619.5969603,833.4921862887184,807.6939030406211,817.5317446960802,807.2757731965519
1731141619.598523,818.545796968974,807.2659135816479,817.481312796025,799.5309641652519
1731141619.6008632,794.7828066532545,806.8355619028825,817.4313293837445,787.6370827329622
1731141619.604766,784.0428186076875,806.402808056645,817.3813142861899,780.580738262606
1731141619.6086686,796.4223304128707,805.9675600902992,817.3311912588321,782.8814121472109
1731141619.6115918,821.0077667749042,805.5297019160495,817.281104770851,791.3800654241678
1731141619.612571,834.959724370855,805.0891896251487,817.2312029914048,798.312581451773
1731141619.6164737,823.100812029271,804.6461697638471,817.1815418439038,797.9511657559616
1731141619.6173575,791.3313191570414,804.2009794291516,817.132101046619,791.3678836318974
1731141619.617508,762.6198810447872,803.7538722788962,817.0828382632751,785.5860874932142
1731141619.6203763,758.8019207473599,803.3045048943479,817.0337257976531,787.90843907102
1731141619.624279,782.9144957130583,802.8516117527481,816.9847568568974,799.9210418147135
1731141619.627179,816.4128477187464,802.3935915859327,816.9359348231826,815.8480422999426
1731141619.6281817,833.8132392817861,801.9303631519155,816.887261929258,826.5668835737897
1731141619.632084,823.1828646171292,801.4654811815343,816.838734756194,826.2531135678666
1731141619.6359868,795.72625569689,801.0057953423106,816.7903454726277,816.5880148602703
1731141619.6361923,776.2702000208046,800.5559302694329,816.7420847547938,805.3157921254017
1731141619.6398897,782.2333026237736,800.1088686189996,816.6939435910066,800.2718271260028
1731141619.6427653,808.4748804024499,799.6415496872974,816.6459134850098,803.4593573489896
1731141619.6437922,830.7167736761065,799.1297431935893,816.597985888182,809.6981199498501
1731141619.6476948,824.9838455538198,798.5898617498876,816.5501517262451,810.9358129777905
1731141619.6515973,787.58679821569,798.1340970141723,816.5024012955349,803.0922779600345
