timestamps,eeg_1,eeg_2,eeg_3,eeg_4
1731140832.0914755,850.0886384126215,803.2818936731559,819.79734060327,848.5258850828999
1731140832.107049,891.5315545220546,805.7439789479793,826.5231923819026,870.31236449672
1731140832.1120346,930.4529634068224,807.8236085544088,831.203589581585,889.4355944414039
1731140832.1159313,958.5054894927312,808.9411779185998,832.4350486705647,902.001475883029
1731140832.119828,965.7028225004042,808.6067594667963,830.296840551763,904.8282888651268
1731140832.1226225,951.6529829526903,807.0064185010384,826.7306354401201,899.1765138717872
1731140832.1237247,930.3730396688563,805.1815026664801,824.5382925375926,891.5227040779345
1731140832.1276217,920.3702839425855,804.3954079917303,825.2599122599471,889.0922230254151
1731140832.1315184,927.8989143668327,805.1372611957548,827.703112620526,893.7583169266693
1731140832.1354153,940.5169772753815,806.6834700251421,828.7853253077072,900.4314709435823
1731140832.138196,938.9744501411207,807.6738036730934,826.3013734377265,901.9435894702026
1731140832.1393118,916.7602172777198,807.21076956585,821.2106313861195,895.885623571672
1731140832.141712,887.9322435554395,805.521390206608,817.2412184938299,886.79839314017
1731140832.1432087,874.6600783476676,803.6752196750314,817.9899266693844,881.6078849988589
1731140832.1471057,885.7992238144609,802.7286922286023,823.9795091288212,882.6679199611838
1731140832.1510022,907.2135762423206,803.0854166544618,832.1683554434468,885.0648736496877
1731140832.1537693,914.0217057907649,804.4882918240447,838.2462435606764,880.9872455043687
1731140832.154899,894.1754667288203,806.3901612923431,839.7301645655355,867.4954933885778
1731140832.1587956,861.4567918842772,808.2161927330169,837.3928339489206,850.6612423135022
1731140832.160576,845.0715244684149,809.3861502045658,834.134747503895,841.8711176472706
1731140832.1626923,864.2632302043439,809.3722226830413,832.523324844584,848.8558608579073
1731140832.1665893,910.1581698838195,807.9983328742488,833.0930778256416,868.8407499108116
1731140832.1677678,951.0070009478143,805.7580582577885,834.5827157948389,889.7564396951431
1731140832.1693428,956.9157558091044,803.721156514367,835.5399923000889,898.8204507398431
1731140832.170486,923.6995667489291,802.9216754923664,835.6721485990633,891.6290494883383
1731140832.1743827,876.2340540389592,803.6461653485998,835.7640027397225,874.4232454411904
1731140832.1782796,848.5147800279124,805.1990455244347,836.421440952742,857.884031866564
1731140832.17944,856.6659154746187,806.3323752589095,836.998905544605,847.985844734062
1731140832.1821764,886.92920063063,805.966112182058,835.8574973233552,841.9878249034967
1731140832.1849165,908.389304823973,803.6290271180172,831.8182425708588,833.1753399591679
1731140832.1860733,899.7959543194723,799.3955744663405,825.5428949217873,820.1392644297455
1731140832.1899698,868.1985786207451,793.6255397012118,819.6103624610785,811.9691823275745
1731140832.1938665,843.8932013035161,786.9677449208104,817.1357149680499,823.6833496309156
1731140832.1977634,855.6119552081589,780.6629093981924,819.8837694677374,864.2084819244144
1731140832.198304,905.8342031440651,776.6188664980973,827.1146303497826,925.8282463632694
1731140832.2004898,965.9351269833414,776.7323433560638,835.8512066697501,984.0380352579193
1731140832.2016602,995.446133902364,781.6590509508277,842.4083638847176,1009.9098298820358
1731140832.2026663,971.2669635927286,790.0052207925555,844.3321954496303,987.861721296463
1731140832.2055569,904.8217150748574,798.8363175186062,841.6058401069873,926.5355804363511
1731140832.2094536,833.656555024512,805.3596850024197,836.2879874857533,853.902717059101
1731140832.2133503,793.29553375182,808.5564740548981,830.7205542888529,798.7880802532936
1731140832.2160633,791.1269071187251,809.4940009305104,825.5802653734819,772.0012250346015
1731140832.217168,803.2199988190762,810.1476676103626,819.3743251384255,761.5354813484905
1731140832.2172472,796.4266070561613,811.7879350544684,809.9299925044863,745.3199948248855
1731140832.221144,756.8770813982458,814.2389715365958,796.7096153676237,710.5115341146409
1731140832.225041,700.7717676828263,816.4557049664587,781.9507892411025,663.1740272786014
1731140832.2289374,659.1063430166353,817.7400976660736,769.5550070267744,621.1123024327132
1731140832.2316368,650.5080585616032,818.4829037416142,762.5368818761619,597.3550298501834
1731140832.232834,665.7040664452311,819.8388110173886,761.01125830529,589.0833313959693
1731140832.236032,676.0322509143084,822.6851712388348,762.2072395631424,580.924143759118
1731140832.2367313,657.8373052826288,826.7706928095577,762.4170505353072,558.7500111015743
1731140832.2375655,612.2607482707488,830.7298015181602,759.4203864719494,521.8501244274887
1731140832.2406278,564.732841349916,832.9090975355508,753.6900305521609,483.7237443148454
1731140832.2445245,545.1123427780258,832.3750165904113,747.6308771076363,461.60195197482824
1731140832.2472105,564.5124958614545,829.4542053235197,743.5500377189176,463.62185785013804
1731140832.2484212,607.1493552462324,825.5704058158293,741.9814020816335,483.71640235447563
1731140832.252318,643.5018870271492,822.5662276614892,741.6558286614822,507.57814942959567
1731140832.2548962,653.9689284326718,821.8735786123482,741.0096217539708,524.2518737497813
1731140832.2562149,643.6538168371908,823.867841175611,739.8012800392478,533.8880357349854
1731140832.2601116,636.1864682223791,827.6538352530613,739.3414283219252,545.7407786668426
1731140832.2627838,651.990484687185,831.4142680203726,741.1401652248305,568.5274620684565
1731140832.2640083,689.5640880513449,833.2433631335333,745.2742628038981,601.405282560476
1731140832.267905,725.8530746264753,832.1135172222496,750.0646711303009,633.2461758986176
1731140832.2718017,735.6044029877553,828.452849607904,753.4317081970063,651.0524537103131
1731140832.2724645,713.4603276349962,823.9358294247295,754.7118517620365,650.7687760218471
1731140832.27376,680.0943123055632,820.5222082119084,755.2828303053268,641.6079476835324
1731140832.275699,666.7893880187116,819.2876520491418,757.4417641527087,640.0444804051099
1731140832.278357,690.6033401293846,819.8106872641998,762.5453643622438,657.7758939726767
1731140832.2795954,740.2608074751887,820.5737516146826,770.0106485610767,692.829288245767
1731140832.283492,784.6032333601407,820.1224572773681,777.9231213679353,730.8182085000915
1731140832.2873888,797.1603171208311,818.120897783623,784.5632288213811,755.6300876147227
1731140832.2912858,776.9537216038116,815.4934210575151,789.4689147655417,761.3846808862721
1731140832.2926242,748.5452968528258,813.5857285893152,793.2631282421277,756.3470164583857
1731140832.2939303,741.5585253396682,813.0756870524702,796.6810777327074,755.8030757095236
1731140832.2951825,766.8030862932919,813.5054968276986,799.8181498382846,769.6860052606824
1731140832.2990792,808.3841081368671,813.7257967577443,802.1483736861111,794.8330412271388
1731140832.302976,837.4476060714617,812.8196618355646,803.0395686535938,817.9389507052158
1731140832.3068726,835.6171130599764,810.7848550916063,802.2119096209123,826.7023390226934
1731140832.3073633,809.117118808645,808.4948046121146,799.9204542847261,820.1138410842666
1731140832.309504,782.8959554331909,806.974865849453,796.970718816548,809.4765138136748
1731140832.3107696,780.1994924166022,806.5124705708103,794.6160174519582,809.2048757634079
1731140832.3114882,804.1654207497767,806.3018469226207,794.2012889991043,824.8905555654056
1731140832.3146665,835.9998817410155,805.0108982201853,796.5269314685295,848.6146789132371
1731140832.318563,851.0520210554706,801.9351443865808,801.2679842623639,865.6308743125286
1731140832.3224597,839.6765820660942,797.7971561740117,806.9516345960259,866.892634501096
1731140832.3250775,815.5014961430263,794.3930456531185,811.6705251366025,856.6616805420637
1731140832.3263564,803.7415613910158,793.2281464972135,814.1189368944121,848.4993649179119
1731140832.3302534,819.0204161510233,794.2350427186894,814.2374313378963,853.0929896948697
1731140832.3303523,851.5917618593761,795.6957630818235,813.0548264726363,868.6325693746544
1731140832.33415,874.2168057236463,795.5007868795951,811.9560467745042,882.2119219596364
1731140832.3380468,864.5377515986788,792.7586155160324,811.9769871747669,880.9936411428408
1731140832.340651,824.5345223785513,788.5060309874531,813.5160009023066,863.4311700814778
1731140832.3419435,780.843154732637,785.017622601844,816.3633101284705,841.0261199371076
1731140832.342262,765.2532043789274,784.277242223037,819.7650110661291,829.3407075716322
1731140832.3458402,790.5891468120046,786.7258420913702,822.5268240316481,835.8972164268259
1731140832.3492162,840.8296111937917,791.1166470583212,823.458486594087,854.8263662142623
1731140832.3497372,883.2511491237061,795.4670490378084,822.2180149302931,872.2894265265109
1731140832.353634,893.2571969512273,798.318261770785,819.9575248452666,877.851744963643
1731140832.3562243,872.4412575836743,799.387161815792,818.9100347209401,872.3011707262178
1731140832.3575306,845.5166739545666,799.3077871521746,820.7965955732853,865.6503354432712
1731140832.3614273,838.7569257541817,798.9132671997954,825.1799427431941,867.5424951659065
1731140832.365324,857.9865802348259,798.7036231298812,829.3239176698607,878.707917886282
1731140832.3680804,884.5211125251489,798.7609254639582,830.0145699809877,890.7853232059526
1731140832.369221,891.8403389230905,798.948544803009,826.0367779585429,894.040495196437
1731140832.371798,867.8247860321671,799.1251785729376,819.2865491026498,885.5916870382463
1731140832.3731177,823.3128901046018,799.2370775807846,813.571949139437,870.9847747692156
1731140832.3770144,781.1679840515674,799.3021075369109,812.0274786769496,858.6691101319409
1731140832.3771608,757.9254853536678,799.3578671156754,815.0966340216543,853.3231163748782
1731140832.380911,754.7041417300181,799.4269658226673,820.4871349169001,853.8845324558315
1731140832.384808,762.0713540212428,799.5114353825202,824.9811929539126,856.4829916898283
1731140832.3869443,770.1847540454428,799.6031756419736,826.6901450546447,858.1406986943492
1731140832.3873713,774.5888515097979,799.6947721797529,826.1299719488704,858.1245114784386
1731140832.3887048,775.7627536478917,799.7837166574492,825.4283488441176,857.1510429987187
1731140832.3926015,775.9537144915475,799.8711551697036,826.3835675038332,856.1211305842259
1731140832.3964982,776.7474855332921,799.9590668206736,828.9513894743926,855.4549146736069
1731140832.400395,778.4490772580045,800.0485305110584,831.3417750404195,855.104488744514
1731140832.4029448,780.6206649198132,800.1395425534726,831.5488933022042,854.8511656848806
1731140832.404292,782.7781828892926,800.2316151690735,828.968476672395,854.5397549557263
1731140832.4058084,784.7200342196381,800.3243370812324,824.7837194214895,854.1395171465736
1731140832.4081886,786.4920133525162,800.4175675676474,820.9325768193769,853.6925777432343
1731140832.4120598,788.2176928016091,800.5113508234286,818.6518914452607,853.2462147695412
1731140832.4120853,789.9769338797524,800.6057619063962,817.8384598351848,852.8205282384617
1731140832.415982,791.7809842170795,800.7008184233601,817.6670261575358,852.4115205663592
1731140832.4185183,793.6046495210268,800.7964775716878,817.7920640560518,852.0074743919046
1731140832.4198787,795.4228960970393,800.8926779065154,818.9513122332801,851.6008139626399
1731140832.4237757,797.2264855436716,800.989381382782,822.2989919034444,851.190613381271
1731140832.4246724,799.0188206672391,801.0865882493147,827.9379883764655,850.7795133487548
1731140832.4276724,800.8066763739648,801.1843124850951,833.966762916534,850.3701545548425
1731140832.431569,802.5940918337534,801.2825233418721,837.1315177345676,849.963629020501
1731140832.4340918,804.3814570722491,801.381091399322,834.9159929885241,849.5597762027346
1731140832.4354658,806.1674435878613,801.47981271169,827.5728986356337,849.1581117281931
1731140832.4393623,807.9509822465344,801.5785715245863,818.3922841930424,848.7584712695888
1731140832.4432597,809.7319894553893,801.6775870561004,811.7548245695344,848.3611161284787
1731140832.4435363,811.5109612405174,801.777499131403,810.2720577676465,847.9664613043137
1731140832.4469583,813.2881556516357,801.8789568238834,813.0921100098216,847.5746924989925
1731140832.4471562,815.0631008309999,801.9816499047353,816.5951928893869,847.1855388267123
1731140832.4496653,816.8349506806892,802.0834518361116,816.938692618702,846.7984634379546
1731140832.451053,818.603751335519,802.1810676784322,812.6185697620969,846.4133894345339
1731140832.4549496,820.3718162274355,802.2732414757322,805.3007133927691,846.0316052539171
1731140832.4588463,822.1434523468139,802.3652572640019,798.4961909062042,845.6558315801495
1731140832.4624004,823.9213996409943,802.4699114676984,795.1994121515357,845.2882932246963
1731140832.4627433,825.7008791914843,802.5988768509183,796.2311876495107,844.926969189472
1731140832.4652388,827.4667294024936,802.7443106864082,800.3013025447925,844.5630462186261
1731140832.46664,829.2018546052632,802.8646383348562,805.3890831665833,844.1848593995849
1731140832.4705367,830.9096827206299,802.9011372537759,810.1344463585122,843.7911888243726
1731140832.4744334,832.6365611531758,802.8433629461251,814.2141276170082,843.4069940249925
1731140832.47833,834.461457150486,802.8170719664482,817.7425999833503,843.0819497152115
1731140832.4808123,836.4245682076014,803.108896901175,820.5515291388766,842.851097544212
1731140832.4812646,838.4175773066129,804.0456103030768,822.0954978874751,842.6645543578851
1731140832.4818575,840.1441786116658,805.7733576729048,821.9564911108332,842.3473924131673
1731140832.482227,841.3013797352503,808.10944834288,820.2963989214668,841.6879780633556
1731140832.4861238,842.0106071256066,810.5638282386719,817.714686915696,840.6965749397376
1731140832.4900205,843.2024247614911,812.4539331648224,814.6604168386064,839.8835871873259
1731140832.4939172,846.3314032220317,813.047034577195,811.113650070099,840.1773037362119
1731140832.4963856,851.9388501196122,811.7929149454316,807.0423886796567,842.1172368469922
1731140832.4978142,857.5991619115231,808.6642141769212,803.2484448518358,844.518540022543
1731140832.5001285,857.3398843122256,804.395347970079,801.5630784851863,843.7975506977168
1731140832.501711,845.0946157540592,800.3028949009247,803.8126819147739,835.6625620999838
1731140832.5056076,821.7842359572559,797.6168318040257,810.2519117034177,819.3777526009659
1731140832.5095043,799.6323195184322,796.7199685641735,818.9013002895463,801.1638322399792
1731140832.5119593,795.6983658819893,796.9148834454041,826.5136711258923,791.605917983422
1731140832.513401,816.4730900756439,796.9796910494247,830.4088448588875,796.9728708188435
1731140832.5167563,848.0274062217743,796.0973744038894,829.7148800721475,812.1730062148915
1731140832.517298,864.0899473414098,794.4195344503877,825.2872646195262,823.3601571343938
1731140832.518993,847.2808038308436,792.891670302257,818.8198469247519,819.1422132677677
1731140832.5211947,805.0985450795345,792.6118541987037,812.0888225231798,800.6753302454713
1731140832.5250914,765.8146743735911,794.2433837435259,806.6663842198001,781.4379857529613
1731140832.5275326,756.468053024087,797.7229450612051,803.7538501007307,776.4020180349459
1731140832.528988,780.8668636758078,802.1986551594038,803.8387612917762,789.6081481641711
1731140832.5328848,816.3632468663841,806.192014604831,806.415042125912,810.720893419056
1731140832.5367818,832.7053914776444,808.1449190741123,810.179544761146,823.5248671858988
1731140832.5378566,817.3024876591987,807.2954669488536,813.6790048133577,819.1150357559906
1731140832.5406785,785.454426578593,804.3204112674468,815.9193367620654,802.6851043399671
1731140832.543106,766.9128159053046,801.0796374158258,816.5356436981687,788.5712397024012
1731140832.5445752,780.3421369356112,799.4613028387761,815.597163908293,788.231931059242
1731140832.548472,817.2645024573081,800.1768051955154,813.4078494279646,801.3699582679756
1731140832.5516553,848.7456034156547,802.4727304863208,810.5062760031605,817.1362464096774
1731140832.5523686,849.0941018524707,804.9321231557573,807.7343405137738,823.7185435910192
1731140832.5562656,817.1225750943902,806.6017407353227,806.105840133733,818.0527144221446
1731140832.5567205,777.756523549632,807.4784815758962,806.3685875760764,807.8828099200507
1731140832.5586796,762.6021378133689,808.036578122174,808.4622119290075,804.8999918285284
1731140832.5601623,784.8451633118325,808.3481574297041,811.2907670298857,814.7508837340265
1731140832.564059,828.5526363780124,807.7055501141748,813.1525667545675,831.9797087250465
1731140832.5679555,861.2545238832594,805.2136524426771,812.7457906736297,843.9656912796329
1731140832.5718524,860.0016793486917,800.9181045685167,810.135801165121,840.7862894264931
1731140832.574253,829.8374851862621,796.4067788460047,806.9030187064336,823.1811620670388
1731140832.575585,799.4678883463991,794.0990550884759,805.1892538864163,802.2104169263546
1731140832.5757494,797.5305724499851,795.5484663735508,806.2347563877674,790.7746904674327
1731140832.579646,828.8372977981045,800.1128812504197,809.4969134944328,793.6801109723244
1731140832.5835428,869.9730573619265,805.2407574248737,813.0477002386381,804.1686693066496
1731140832.586554,887.8378401998773,808.2892476240477,814.9405383606633,809.763073241856
1731140832.5874395,866.2047221669914,808.3968949771642,814.4816096719119,802.8168217156301
1731140832.5898266,819.0060662758882,806.8452121614916,812.474755829128,787.1819431828959
1731140832.5913365,779.6780677957294,805.6939494724916,810.3731263868359,775.2767759708901
1731140832.5944486,774.9804717689325,805.9778798457104,809.1107350611939,777.6315351694342
1731140832.5952332,804.2293279423092,807.0146218087643,808.546780041954,793.5331902299728
1731140832.59913,840.7246774362637,807.2639847315536,807.876732061192,810.9368583441691
1731140832.6030266,854.1808696613427,805.8335123706281,806.5545048320976,816.1556397744727
1731140832.6054,835.5791765470151,803.3206873838402,804.8771985583143,805.2772012995036
1731140832.606923,803.8130447574154,801.3849156004369,803.7098089202921,787.4902289726723
1731140832.6108203,788.9364703255452,801.4889366932691,803.5997273757179,777.4455657914663
1731140832.6133127,806.561165307596,803.8070550735137,804.1011716548288,783.2888643425676
1731140832.614717,844.9284919583839,807.0840612235756,803.9860738887339,800.5146284291867
1731140832.6186135,874.8822807728426,809.50267480465,802.2427206139417,816.4199195916696
1731140832.620973,873.7728263473086,809.8943296281179,799.025589333655,820.8657068993848
1731140832.6214528,843.4432472776782,808.4017512862436,795.7100980457254,814.2017720329461
1731140832.6225104,808.022021070266,806.1499269918842,793.9670922878568,806.1201846829007
1731140832.6264071,793.8588875443394,804.2785984780567,794.6104962151984,806.8291245308502
1731140832.630304,808.1862720914066,803.1900004688994,797.117408889445,818.0305016887589
1731140832.6321766,833.979440626788,802.6268320415016,800.0836071812403,831.2061898349464
1731140832.6342008,845.3090577592377,802.3996589295892,802.1136489732696,834.7684529474272
1731140832.6365469,830.4682312086347,802.9488123201598,802.4596829521374,824.2660975408448
1731140832.6380975,803.1952590077136,805.0839213360618,801.1620781156571,806.9851404436175
1731140832.6419942,791.8360585067828,809.0836342989162,798.9157498565198,796.648546653519
1731140832.645891,814.9821637892271,814.0291743111352,796.8825151824849,802.2330652646368
1731140832.649788,864.0927373883496,818.0663860966396,796.361843555143,820.1455363517861
1731140832.6510408,908.1544289336496,819.4259993050732,798.1904179293025,836.4458641165561
1731140832.6521204,917.0609194447604,817.3801099866771,802.1217158512934,837.5431750999305
1731140832.6536846,884.8858648635435,812.4829861629322,806.7246526535322,820.8334797982681
1731140832.6563516,834.3936319343993,806.1351297761166,810.0434806270625,796.7902595144712
1731140832.657581,799.3072787111587,799.9663071261176,810.6189331515224,780.872155404643
1731140832.661478,798.5790548948182,795.4121500669632,808.1810710466522,781.7648522352753
1731140832.6653748,823.201706706129,793.4738672264497,803.6645336632417,795.4428073782689
1731140832.667694,845.8741583741244,794.4887426078362,798.7177638736728,809.7546015659793
1731140832.6692717,845.0565664247224,797.9241078977938,795.0357074480899,815.3997397384021
1731140832.6699047,823.0378615243861,802.4396404409241,793.6813600787723,813.7069599733348
1731140832.6731684,802.8751971307698,806.390307937578,794.5186121691627,814.4326236412801
1731140832.6770651,807.2306776871295,808.566377906276,796.0708663034573,825.5971525185265
1731140832.6809618,837.6149893442633,808.6761713433475,796.1369296336455,844.4876723945081
1731140832.6832674,871.9577629928725,807.2336722191557,793.0380480549305,858.0929523007957
1731140832.6848586,882.50826320339,805.0170401186458,786.776261715645,853.1264577798636
1731140832.6887555,858.8819408315933,802.6221333669862,779.28224157871,827.4788053730399
1731140832.6887689,817.155198828642,800.4814785703857,773.4952837431408,793.5024272576331
1731140832.6912506,787.7479178603736,799.1988652013639,771.796132766206,770.0239171713116
1731140832.6926522,791.9017767871326,799.6746695260694,774.7260346234701,768.9406946667626
1731140832.6965487,825.2648667822848,802.6620705959675,780.7493339250767,786.5872969291515
1731140832.6988409,861.326065897152,807.9951221624854,787.2021381713206,806.5279777802639
1731140832.7004457,872.0062245401642,814.2025362324065,791.843666886296,811.7640947467484
1731140832.7043424,849.2668093034735,819.0411360250022,793.9975995681943,797.0903599605315
1731140832.7076328,810.5866502024388,820.72471482263,794.4987617117749,772.1718303115833
1731140832.7082393,783.9759351558245,818.9706625050776,794.5315222966464,753.1967383609407
1731140832.712136,784.9853477165983,815.0713529584197,794.3588441268113,749.9986971865101
1731140832.7144144,804.8198189744847,810.9577192134891,793.0777688709939,758.9614705215846
1731140832.7160327,818.9830516162014,807.9818841183414,789.6549414496029,766.9910298905726
1731140832.7199297,808.0800906789341,806.2868627085808,784.3081923089683,762.6421942705534
1731140832.7238264,772.4863444645778,805.1155515396894,778.9007941890454,744.9040473469498
1731140832.726149,729.473316230922,803.7048727727114,775.8267528010973,722.7818408302304
1731140832.7264967,697.9240881782462,802.0407516521545,776.2004421252963,707.1383750846519
1731140832.7277231,685.5114987985028,800.9282005112684,778.8546686266537,702.6859160724237
1731140832.7299876,687.648474459351,801.3731299325117,781.0879557013557,706.6075518780624
1731140832.7316198,695.0403431461891,803.7701781821072,780.7075322023933,713.0599760303538
1731140832.7355163,701.0274413548566,807.4989999286581,777.7867199937994,717.9971992637161
1731140832.7394133,703.8246604800905,811.1998070785902,774.656406787472,720.6086901801724
1731140832.7433102,704.7212454755784,813.501366761359,774.0375441599135,721.9912475380393
1731140832.7453609,705.4780546334562,813.6939993974017,776.8298060281828,723.3795498664881
1731140832.7455611,706.9440631187341,811.9569409350105,781.4580990120234,725.2972347366514
1731140832.7472067,709.0411992504285,809.1093609016417,785.3553600677569,727.6355756268795
1731140832.7511036,711.3402378750977,806.1423383534932,787.2351629138446,730.082189892143
1731140832.7550004,713.5287752691294,803.8226341442435,788.0720571022943,732.432486395063
1731140832.7588973,715.5397193066276,802.5050996033717,789.912062920029,734.6561608661534
1731140832.7610483,717.4533509658027,802.1354300784751,793.6850545255982,736.8168732252224
1731140832.7611346,719.3631833412286,802.3764262360713,798.1426633938335,738.9790126198764
1731140832.762794,721.3100518226229,802.8048305459679,800.9792784046808,741.1671704037063
1731140832.764225,723.286706559671,803.1094847609293,801.1060382149508,743.3735913784175
1731140832.7666907,725.269836512433,803.1913754903339,799.9097254755864,745.5815916144061
1731140832.7705874,727.2438738158046,803.1190285822254,800.2380839495934,747.7812068946498
1731140832.7744842,729.2063911457969,803.0071444157871,803.9889686928716,749.9717240050184
1731140832.776708,731.1622147852005,802.9262975651753,810.5152700545398,752.1569922623981
1731140832.7783809,733.116365742443,802.8865005733015,817.2765409912886,754.3405612437228
1731140832.7822778,735.0709077530412,802.8662918186574,822.0308366938858,756.5237818239772
1731140832.7830887,737.025444033309,802.8443552605338,824.494904527233,758.7063673523539
1731140832.7861743,738.9788719545539,802.8128418512177,826.1000792381219,760.8876615194661
1731140832.7900712,740.9305819315704,802.7746226604023,828.3720280610904,763.0674176774902
1731140832.7922816,742.8806681151586,802.7353909482276,831.5931118580323,765.2458811138705
1731140832.793968,744.8295824532739,802.6984977993808,834.8206499579934,767.423520156619
1731140832.7959473,746.7777655968289,802.6641937088663,836.9119241059853,769.6007741517097
1731140832.797865,748.7254988110546,802.6312391824558,837.452079396302,771.7779659587693
1731140832.8017616,750.6729440520506,802.5985276854319,836.9147859141974,773.9553397231562
1731140832.8019533,752.6202401657613,802.5656999776875,836.2556893339282,776.1331289540952
1731140832.8056583,754.5675619981106,802.5329411156866,836.4774299012279,778.3115952527847
1731140832.8078551,756.5151237382737,802.500552994741,838.3666863053003,780.491030164031
1731140832.8095553,758.4631531818113,802.4686974954947,842.2148183857727,782.6717392969623
1731140832.8134518,760.4118704579993,802.4373734464416,847.4266322757406,784.8540272978071
1731140832.8173487,762.3614904508981,802.4065085025692,852.3353044812428,787.0381913026949
1731140832.820817,764.3122475163976,802.3760430661789,854.6898571259719,789.2245228549147
1731140832.8212454,766.2644198976986,802.3459584116054,852.8566059985051,791.4133163365916
1731140832.8234286,768.2183172364813,802.3162632383782,847.0811100549403,793.6048806032031
1731140832.825142,770.1742065470813,802.2869705896603,839.8241441647976,795.7995455988618
1731140832.8290389,772.1322076506618,802.2580847754684,834.6333859781502,797.997650849749
1731140832.8308458,774.0922706893188,802.2296006432452,834.0617082947913,800.1995088905359
1731140832.8329356,776.0543757679636,802.201509023309,838.0206754249526,802.4053621898315
1731140832.8368323,778.018957177451,802.1738024861204,843.8325677471083,804.6153860414464
1731140832.839002,779.9872321886049,802.146478663891,848.029257446725,806.8297932586512
1731140832.8396811,781.9608294266488,802.1195399077803,848.5783659889978,809.0490231391977
1731140832.8407292,783.9403278028948,802.0929881776435,845.8937502934893,811.2738515958548
1731140832.844626,785.9233845447596,802.0668159557351,842.0139092094525,813.505157497311
1731140832.848523,787.9046280779177,802.0409994640161,838.8068264968934,815.7432284062231
1731140832.8524194,789.8798120324665,802.015505901375,836.7250295151698,817.9870034354433
1731140832.8545754,791.8538436459027,801.9903225210797,834.9965600448467,820.2342699415867
1731140832.8563163,793.8461546872413,801.9654945562702,832.8300072773421,822.4837929327987
1731140832.8585453,795.8820814840881,801.9411289516016,830.3881283426556,824.7388450274252
1731140832.860213,797.9642250082468,801.9173132656412,828.6207262085037,827.0088628727227
1731140832.8641098,800.0388672647814,801.8939550694331,828.1833626961717,829.3043361809399
1731140832.8657448,801.9997065425905,801.8706697432958,828.5472518763098,831.6233810474449
1731140832.8680065,803.772988342192,801.8469439134996,828.2239332072365,833.9384827576832
1731140832.870149,805.4682591389308,801.822702568199,825.9667801115576,836.2028996197921
1731140832.8719032,807.4626677289154,801.7989909419592,821.8726532380822,838.3934845884841
1731140832.8758,810.2081880557025,801.7779321708219,817.3779150731613,840.5759392186789
1731140832.8774092,813.6746758287338,801.7610615587585,814.1509122036675,842.9272591739623
1731140832.8796968,816.7560060250368,801.7463054398893,812.8714656188944,845.6255294074851
1731140832.8835936,817.4557689085361,801.7261984809755,812.9440490582657,848.5899977192169
1731140832.8857224,814.6233310745905,801.691573877379,813.3024651638505,851.246639648806
1731140832.8874905,810.7936032201346,801.642622433751,813.4826185452447,852.6814313299799
1731140832.891387,813.5293176472297,801.6010204366695,813.9536511537493,852.4346956558571
1731140832.895284,831.7772461331209,801.6069180598888,815.4280970695362,851.5148903908669
1731140832.8962731,867.4113068985338,801.6850960416548,817.8182492522607,852.3603614515945
1731140832.899181,909.0570924640696,801.7886285925291,819.822072783709,856.9369650254911
1731140832.9006436,936.740055916845,801.7722321502628,819.5705275253583,864.4525511835249
1731140832.901296,936.54754487617,801.4737958860446,815.8719507320968,871.4687510519868
1731140832.9030774,913.1359718322745,800.9302306297162,809.1085075293425,874.8616933109256
1731140832.906974,887.7848340220364,800.5955745725786,801.1276951844472,874.6882458996596
1731140832.9108708,882.034862509828,801.2789406756484,794.2447358769256,873.953633071902
1731140832.9147675,900.2303778807058,803.6403203102143,790.0840953633548,875.5104776854624
1731140832.9151373,926.1245393343423,807.5312222015971,788.9751423997503,879.1318834471912
1731140832.9168694,936.9455112241068,811.7802451338724,790.0912183704725,881.5576948955006
1731140832.9186645,923.1101879726756,814.7380477971013,792.0226017063294,879.5523432031615
1731140832.9225612,896.6570973314408,815.2573164040897,793.3742891520236,873.2513817479157
1731140832.926458,881.076109442681,813.419886753199,793.1623211463171,866.6086175794567
1731140832.9303548,891.1266699732073,810.5090314812805,790.9652445830297,864.1122317964753
1731140832.932443,919.7326498311816,808.2614850331968,786.9107918315677,866.4266166501326
1731140832.9340012,943.1174655475213,807.9121330563665,781.6686724543824,869.2135374608359
1731140832.9342515,940.2481898938673,809.6271484464645,776.5348915336167,867.0705088459348
1731140832.9355426,910.8154750248934,812.5935561262879,773.3695164891069,859.6509781731143
1731140832.9381485,876.7648491233954,815.5926383501399,773.9720981552914,854.015759541162
1731140832.942045,865.3051363985297,817.643044325517,778.9155510642644,859.7413362142394
1731140832.9459417,886.5209009451826,818.3495562975096,786.664792661514,879.9651352257102
1731140832.9480164,923.9983954987412,817.8416900821628,794.018178264955,906.3392935620204
1731140832.9498386,947.0574307248767,816.4680528859886,797.9611294326073,923.5288369447089
1731140832.9528651,935.3971274102563,814.5415827373133,797.6506800850038,920.6722842621773
1731140832.9537354,895.9811610703655,812.2971068604905,794.8902222635965,900.4604313631331
1731140832.957632,857.7839757945887,809.9516513726783,792.6426332821126,877.7581834522605
1731140832.9615288,848.3597904299601,807.6619964613836,792.8030868561594,868.3175303363089
1731140832.9635897,871.5652036609811,805.3909639085055,795.0185589852468,876.6220715849979
1731140832.9654255,904.8324236744531,802.9417003287251,797.3319455362558,892.8041744496225
1731140832.9693224,917.9760337115592,800.3026897010636,797.8937651578775,901.0879839724336
1731140832.970441,897.7914180445409,798.0141175612716,796.3037388247624,892.7289588817703
1731140832.9717293,858.4074064555224,797.0544005172555,793.7005745374651,872.8597068427658
1731140832.9732192,829.3652156035284,798.14309001702,791.7872738418497,855.8150149898433
1731140832.977116,831.4256069249013,801.0387239864832,791.650522301281,853.0113503458203
1731140832.9791632,859.8119531781949,804.5902753975472,793.1764894108503,863.4966176316959
1731140832.9810126,888.4989501914956,807.6190420073773,795.325828251696,874.9458318567388
1731140832.9849093,891.977673318813,809.7870284745147,796.929270004374,874.0870240636146
1731140832.9888062,866.3770679025131,811.5091752865128,797.3580737014601,857.6512982690026
1731140832.9905932,832.2020811853887,812.9628256662849,796.6120202489503,834.6856371873847
1731140832.992703,816.4738705140549,813.3218579886839,794.9341241863526,818.6285457472944
1731140832.994737,829.6250942636889,811.2260477289215,792.5040353765982,816.2196106585529
1731140832.9965997,856.812900409051,806.1864890805934,789.5961929289572,822.5667085842141
1731140833.0004964,870.7211692133304,799.5220374609411,786.9526719949192,825.988984686637
1731140833.004393,854.6580879028102,793.770862975543,785.7488950401273,818.0137998463701
1731140833.00534,816.5252449694242,791.0017899428731,786.9126496777417,800.1613706502993
1731140833.00829,782.4260601794275,791.5223584051071,790.3027044906693,782.4312679533762
1731140833.009457,775.6449993823601,794.0716480142802,794.5375493434116,775.3122676881682
1731140833.0103102,798.2969212926613,797.1704397591938,797.7764381587957,781.9400743931699
1731140833.0121868,830.3114956727763,800.2972141236755,798.959138064659,796.3589847758747
1731140833.0160837,846.264766660737,803.8636998484296,798.5832600858488,808.7316305161199
1731140833.0199802,836.148075470666,808.1784876598872,798.360321559042,812.9137798517913
1731140833.023877,812.885349991982,812.526250767257,799.8923834608521,810.2388256603452
1731140833.0258837,800.3183170716936,815.3255153703448,803.32605796254,806.8229977476709
1731140833.027774,811.9073756516057,815.2866207438926,807.1051654383776,807.2649853358967
1731140833.0283213,838.4620047716635,812.553763084776,809.155047163401,810.448238911357
1731140833.0316706,855.499305823686,808.7916165938918,808.6046643566825,810.8952889580653
1731140833.0355673,843.9703030574926,806.0511118489559,806.568198581805,804.0852128877247
1731140833.039464,806.8471099309488,805.279612360816,805.2401114313802,790.9333464597987
1731140833.040239,767.8302284469758,805.6868552509859,806.0756677733538,777.7320519799509
1731140833.0414572,753.3125937989921,805.5250916328041,808.7148706366938,771.7621183771912
1731140833.0433607,772.000717993685,803.664381963569,811.6066823097193,776.0427995194973
1731140833.0471854,808.0588891096961,800.6133650514903,813.6115299791996,787.0714177648398
1731140833.0472577,833.0570559040572,798.0572328833872,814.9103259241781,797.1522502543339
1731140833.0511544,827.6777024551179,797.297451814215,816.3537504859122,799.7352329165348
1731140833.055051,796.4856241505507,798.0290081997841,818.0986736107503,793.9939533047304
1731140833.057031,764.003753633939,798.6336660189871,819.1378472745602,785.1715534178327
1731140833.0589478,754.9207011592973,797.7496226063054,818.3170077800546,780.2483329571685
1731140833.0628448,774.35028598131,795.6351368201156,815.7827216114094,782.283721036896
1731140833.066049,804.3236106390972,794.0156370789415,813.2998090623635,788.1035505516649
1731140833.0667417,819.0235246757402,794.5487686353222,813.0036561175949,791.2622907100962
1731140833.0706382,805.2877642485802,797.3513657640591,815.6938888321882,787.580850211566
1731140833.0726042,771.0362503527706,800.9355402866502,820.2056776912963,778.3271639732502
1731140833.074535,736.0754920048844,803.5106585251945,824.3664445097542,768.5163743048704
1731140833.075138,715.7332983610488,804.3296359850764,826.5954772286804,762.5127791328013
1731140833.0784316,712.182087284461,803.9030159191643,826.7466406519663,761.2270384234093
1731140833.0823286,718.0229037225051,803.2024136013196,825.7140772436368,762.7591676628927
1731140833.0849135,724.9136171199144,802.8474141043251,824.4944063621194,764.7488894785536
1731140833.0862253,728.8235550571752,802.9055110465582,823.591829377649,765.9624243572883
1731140833.0881774,729.95159239318,803.152843145058,823.0118917691121,766.3782003842389
1731140833.090122,730.1440200820606,803.3763261853951,822.5514541965621,766.4951234171167
1731140833.0940187,730.7864777786878,803.4993876334037,822.0475706251915,766.719424520091
1731140833.0979154,732.1958135301702,803.5515603598816,821.4573485756529,767.162068444996
1731140833.1018124,734.0297993175678,803.5893906109311,820.8166118224068,767.7371589428751
1731140833.1037507,735.8761205730221,803.6456531473584,820.1727370589767,768.327564077373
1731140833.1037774,737.5496803156669,803.7224051077561,819.548498318323,768.8757289532646
1731140833.1057093,739.0785298534112,803.807203344547,818.9418767768996,769.3855189231571
1731140833.1096058,740.5646780646922,803.8891384829268,818.3414632365256,769.8846469986786
1731140833.1100368,742.0780665555263,803.964769534941,817.7389436330316,770.3936286031702
1731140833.1135025,743.6310409728328,804.0360087193313,817.1325309950317,770.9169376744892
1731140833.1173992,745.2033720441984,804.1058677002072,816.5243620811482,771.4492307035591
1731140833.1193244,746.7733709601755,804.1759424271249,815.9169267175795,771.9841581884983
1731140833.1212962,748.3321806587643,804.2462167975063,815.3113124808918,772.518782524348
1731140833.1226416,749.8818996044961,804.3159856776153,814.7073264513054,773.0533469994969
1731140833.1251929,751.4279202401269,804.3846823198113,814.1043477017878,773.5891909405356
1731140833.1290896,752.9735670772336,804.4521476922852,813.5019612103367,774.1271707875128
1731140833.1329863,754.519091673048,804.5184916378961,812.9001017331807,774.6672853827843
1731140833.134898,756.0632043955526,804.5838653269984,812.2988971547824,775.2090532575245
1731140833.1368833,757.6047649835797,804.6483377424137,811.698480555038,775.7519775444696
1731140833.14078,759.1434488847818,804.7118940600836,811.0989062660295,776.2957577821585
1731140833.1415057,760.6794299967678,804.7744874861322,810.5001630739959,776.8402598038291
1731140833.1446767,762.2126851893726,804.8360817672412,809.9022209048704,777.3853997105566
1731140833.1449356,763.7425785549364,804.8966631727799,809.3050626984659,777.9310638828799
1731140833.1485734,765.2681977440583,804.9562317478455,808.7086899971587,778.4770971331601
1731140833.1504714,766.7894822850176,805.0147887973831,808.1131138206816,779.0233315004378
1731140833.15247,768.3083930989343,805.072330243362,807.5183450752331,779.5696157424079
1731140833.1563673,769.8285495487665,805.1288467988713,806.9243908790093,780.1158198196656
1731140833.1602638,771.351955846444,805.1843279907903,806.331255601192,780.661810127462
1731140833.1603696,772.8737859730937,805.2387669171536,805.7389427624116,781.2074142444197
1731140833.1641605,774.3802356421927,805.2921629432508,805.1474554530465,781.7524146714807
1731140833.166045,775.856603982654,805.3445192342892,804.5567958146534,782.2966115695345
1731140833.1680572,777.3074025058584,805.3958333693645,803.9669659258503,782.8399478247735
1731140833.171954,778.7752061856753,805.4460851907999,803.3779716131417,783.3825949163402
1731140833.1758509,780.3291780590057,805.4952349860274,802.7898270787013,783.9248238257451
1731140833.1792336,781.9997242786704,805.5432477630762,802.2025539411567,784.4665653611031
1731140833.1797476,783.6828075015234,805.5901428582704,801.616168259222,785.0068880654427
1731140833.1798344,785.1127459306489,805.6360305503392,801.030658460203,785.5440433278026
1731140833.1816185,786.0338184530212,805.6810654058027,800.445974375214,786.0767640459109
1731140833.1836443,786.5847263802295,805.7252737909922,799.8620582037654,786.6065914327429
1731140833.187541,787.6187375240936,805.7683393527963,799.2789280601152,787.1392111860728
1731140833.1914375,790.406814771623,805.8096025113996,798.6967623745223,787.6815425041856
1731140833.195335,795.3306841959143,805.8485585693967,798.1158635478608,788.2331776224403
1731140833.1971917,800.1070354336857,805.8857917679935,797.5363934958168,788.7771218322866
1731140833.1980977,799.4445009976456,805.9235657595758,796.9579629184616,789.2823669583933
1731140833.1992314,788.3547207642933,805.9647563297798,796.379477332662,789.7302541300302
1731140833.203128,768.6039958615086,806.0094786873451,795.7998042867105,790.1578582098364
1731140833.2070248,752.488348518717,806.0512536014809,795.2193811388181,790.6779015264736
1731140833.2109215,756.7396844172397,806.0776727603063,794.6416738364671,791.415100171845
1731140833.2127652,788.1122139778677,806.0805609446726,794.0721683549912,792.3405791864286
1731140833.2147334,833.6093354231072,806.0734492585813,793.5130877529093,793.1097234228583
1731140833.2148185,866.9996486210854,806.10062344366,792.9558440437888,793.1433443895984
1731140833.2169616,868.2964507393563,806.2133144174578,792.3791913329162,792.1557317025306
1731140833.2187152,839.9516871491097,806.4037374687946,791.7633237654717,790.9510604007439
1731140833.222612,805.3461739056214,806.5359726080403,791.1205628500197,791.674987719598
1731140833.2265086,789.9055103525792,806.3669625455376,790.5199916559197,796.5061398317025
1731140833.2283387,800.3022158991772,805.7373819995165,790.0620760118751,805.028210315958
1731140833.230405,819.6005781353415,804.8517485801262,789.7734538410099,812.7825630385234
1731140833.2343023,822.8868793857993,804.3312186999316,789.4678052946598,813.7385637333256
1731140833.2358258,799.9402153064093,804.7678015529054,788.7265795931797,805.7505240722113
1731140833.238199,765.0305557616247,806.0539224781462,787.1758805750745,793.9630093154146
1731140833.2420957,745.2597384117905,807.2325364665047,785.0169240788116,787.9441681620672
1731140833.2439122,757.89931677172,807.2284106735713,783.3517680684677,794.1485885652745
1731140833.2459924,796.6392701599714,805.8795814611774,783.7315066520681,810.2996077809642
1731140833.249632,838.0709346167515,804.2889747129954,786.9961768649702,827.0908491276382
1731140833.2498894,861.1756325029891,804.112049442187,792.343636661986,836.0472292078183
1731140833.253786,861.6105795090145,806.3548822555654,797.5911032834529,836.6146772684328
1731140833.2546897,849.774477955195,810.6594518662024,800.6334085484601,836.0299427319335
1731140833.2576828,838.5210424574891,815.5758888631754,801.0376591243897,841.8966783913752
1731140833.2594855,833.8975004711522,819.4654984331107,800.4484225745471,853.9810273172982
1731140833.2615795,834.759941542593,821.2509952686077,801.327241388564,862.7377057165897
1731140833.2654762,837.3177621215714,820.5676541669532,804.9622152781396,856.5437072357097
1731140833.2693732,838.9233288619133,817.5329186006381,810.4179329435659,832.1373439304724
1731140833.27327,839.0460634944965,812.6209891990294,815.3333776809247,799.5914737116311
1731140833.2735538,838.3876202457596,806.77574414823,817.8356711812798,777.0638111466253
1731140833.2750592,837.7379020929144,801.4027287922197,817.8826755139438,778.5456707910693
1731140833.2771666,837.4302474946959,797.8723113776454,816.9562501443127,803.5450143643106
1731140833.2810633,837.3931956120933,796.7040601159151,816.5356838464232,836.5912778790743
1731140833.2845309,837.4258834442992,797.1095564387359,816.7822584013782,857.378186017542
1731140833.28496,837.3973429204216,797.4374141720419,816.5776063440452,854.4916669559218
1731140833.288857,837.2885134416026,796.3179020092547,814.8387630935897,832.864436005084
1731140833.2906327,837.1403826629122,793.6397595593253,811.9104937407859,809.6062174496161
1731140833.2924178,836.9941763793609,790.5766025429411,809.7107082428785,801.436504555398
1731140833.2927537,836.8655010249801,788.6599287944724,810.3303619858782,813.1016288714723
1731140833.2966504,836.7492386435791,788.6589678953554,814.1934981016127,835.1994752109956
1731140833.3005471,836.634605329959,790.1244217416618,819.4427047289059,852.5765117487547
1731140833.3044438,836.5151701522609,791.8636275508981,823.2705086826763,856.4987306681998
1731140833.306206,836.3904402734481,792.8784596090724,824.1601025054637,851.1714706252375
1731140833.3083408,836.2628139906346,793.0055047554584,823.0603108395983,849.7915998667406
1731140833.3112817,836.1344330046547,792.8236752220067,822.4158705450648,863.46068878829
1731140833.3122375,836.0059711889621,793.0075557084646,823.9389232543392,891.6211126073024
1731140833.3161342,835.8770685337798,793.7049677558279,827.1491615814294,921.2693791288609
1731140833.31943,835.7472756474798,794.4473275597578,829.9338489429305,935.4421293225124
1731140833.3200307,835.6166368496646,794.6664167652452,830.4921449119613,924.6111219244629
1731140833.3217795,835.4855974794691,794.3985226955756,828.8511001291272,892.6706061361868
1731140833.3239276,835.3543646212719,794.5406115703468,826.6745379957151,853.4389086352419
1731140833.3278246,835.2222073647038,796.3014269813492,825.6741010817391,820.8079134793322
1731140833.3301458,835.0874775410192,800.1587194666342,826.0846502295338,800.3404413010918
1731140833.3317213,834.9490297338705,805.1749209298778,826.4831659928251,788.4741062116667
1731140833.335618,834.8087008885976,809.3621960799868,825.0276103888449,778.8364168669156
1731140833.337353,834.6726506593211,810.9252395659882,821.0275992840831,769.260304472406
1731140833.3395147,834.5481594497601,809.4008762375399,815.5366869767432,763.1603903847493
1731140833.3434114,834.4345588706564,805.7763797820838,810.5168336384927,764.7057812540932
1731140833.3473084,834.3137077537633,801.5893123048654,807.3641494856419,773.1071287926126
1731140833.3490098,834.1532462542343,797.8982515645724,806.1292870744846,781.8988927854742
1731140833.351205,833.9348352525972,795.0155958788044,806.0647619036178,784.1522550541038
1731140833.3529265,833.6994675918097,793.06258828878,806.7943390802237,778.8825512959131
1731140833.3543286,833.5666307480456,792.5914007435724,808.765743642314,772.6117082351049
1731140833.3551018,833.664784551414,794.4966106024993,812.4387693523284,774.1742116279744
1731140833.3589983,833.9565891523318,799.1935801031971,817.1019799212135,786.8415033835093
1731140833.3628955,834.0733693380919,805.8240606881943,820.7496721675834,804.5407964230714
1731140833.3667922,833.4118219504277,812.3021165562359,821.4283232072818,815.8718632768991
1731140833.367874,831.7006166359585,816.2953212031787,818.899894349555,813.1342064735588
1731140833.3685,829.8376609644303,816.4446309490553,815.0191169409181,799.0798680977923
1731140833.370689,830.1433493830482,812.9769890172109,812.3887358328539,785.5432264846563
1731140833.3745856,834.8973932672345,807.4020158078303,812.4582492852488,784.51938159339
1731140833.3784823,843.041524263894,801.6494906402495,814.6716159636827,798.5165296365018
1731140833.3823793,847.5072925890814,797.2640208954797,817.2033693465196,817.9267190556919
1731140833.3840735,837.6808289357114,795.0493828962663,818.4200431178432,827.8346590010194
1731140833.386276,808.5350310333064,795.1407832616494,817.8126161737899,819.3181316269836
1731140833.3867378,769.5896111105234,797.2256243507142,815.9111456669533,796.718530651387
1731140833.3892276,742.7498955992929,800.6867996516294,813.6228420252736,775.2448425450035
1731140833.3901727,746.856448801409,804.6843080432511,811.6493802318399,770.3386438587655
1731140833.3940694,780.9560457510952,808.3364359150222,810.2351285053477,786.4016501562804
1731140833.397966,822.0203980379966,811.0412521196478,809.1485238014001,813.3773077434699
1731140833.399647,841.2410713814301,812.7316751301961,807.8259511386988,834.2021374240068
1731140833.401863,826.4970884444355,813.7978651036133,805.7227639381958,837.7402765260962
1731140833.405602,792.019920371901,814.672964236463,802.7825070870978,826.9702387749157
1731140833.4057598,766.2568790673878,815.426641078279,799.6821354355642,815.5765382055196
1731140833.4096563,767.6214337019524,815.7588195512029,797.5437648036652,815.6896244339525
1731140833.4135532,788.8599670460845,815.4166203294833,797.2294003202688,827.2381355286478
1731140833.4152205,803.7513304277389,814.6038487546889,798.7663482708319,838.1063235339086
1731140833.41745,790.5041160094001,813.9016002316171,801.41311970935,834.8787979132807
1731140833.421347,751.691391089065,813.6922399793393,804.3274754004041,814.8125386953654
1731140833.4241264,713.6241319334043,813.6394387607834,807.2160380300845,788.858497398312
1731140833.424466,705.5652937571654,812.83073695636,810.3082451017614,773.3552181037109
1731140833.4252436,735.8572715064299,810.6052308472453,813.6363979376728,777.3427876772079
1731140833.4291403,784.4164339906292,807.3796123476467,816.3759169800986,795.6909704428629
1731140833.4307938,817.8739555665267,804.6477058656424,817.0945992385003,813.3548114588233
1731140833.433037,815.5091792397295,803.9760114386828,814.9159859148779,817.2379101168038
1731140833.4369338,785.1909423410414,805.726739858869,810.556994647506,806.1583556172912
1731140833.4408307,756.2591137396475,808.57940613844,806.0925569972325,790.9426307281325
1731140833.44333,755.0618923369162,810.3320600992347,803.434739530537,784.7306808318956
1731140833.4447274,783.3616725797489,809.4325744290904,802.8420394097337,791.7067326888011
1731140833.4463673,817.4676119804365,806.1074467294402,802.8835196280727,803.7400350906842
1731140833.448624,828.5121460525108,802.2778034188119,801.9411820093078,807.6301241333944
1731140833.4525208,806.7250709268753,800.3508707970286,799.8351836517388,796.6776315781758
1731140833.4564176,769.6905131522282,801.722717844325,798.0026794888131,776.8212520125189
1731140833.4590251,748.2204257714492,805.9287688897072,798.0257681806652,762.2890549879487
1731140833.4603145,761.6809151164232,810.877421143371,799.8880460112695,764.355214975113
1731140833.4619408,802.5682726905529,813.9354968706458,801.6623507421008,782.2562426742202
1731140833.462194,842.3159346271559,813.2297901913909,801.0886029510563,803.5173817279602
1731140833.4642112,853.5932351616699,808.5152112925147,797.7682128148265,813.5398262787402
1731140833.468108,831.562884095036,801.2263825471531,793.9950929022959,806.9782120209862
1731140833.472005,797.2165050790663,793.7446187096768,793.2634461296602,791.7821799212888
1731140833.4759016,779.9093738056476,788.3323339915348,797.4837301193768,782.3997528899962
1731140833.4775145,793.1707877950289,786.3499829912745,805.1973034038529,787.5092352322961
1731140833.4797983,823.8384946222632,788.0849139285009,812.3989795269213,802.4938624804507
1731140833.481058,843.7037335386062,793.0111039986238,815.4298629915518,813.1818166777762
1731140833.483695,833.8443626926345,800.0741515013892,813.6326937607095,807.922353696869
1731140833.4875915,801.0507421978344,807.8441468983148,809.6294534580179,787.9341696904912
1731140833.4914885,772.5396163341394,814.7125205250585,807.0545032942207,767.2133062623786
1731140833.4930878,773.4463042603794,819.2846453784553,807.6613841262125,761.9026178057969
1731140833.493924,805.7503398311144,820.813231165374,810.1527922444707,777.5955795660083
1731140833.4953854,845.8787072831942,819.3696745311638,811.5505417574228,804.637712675184
1731140833.499282,863.0129356521414,815.6622752695463,809.8041589986334,825.1141032022623
1731140833.499922,843.5533005997956,810.7106162611587,805.4415289689558,826.1050522535852
1731140833.5031788,802.157876561029,805.6084541980231,801.0373625311292,808.9985325189946
1731140833.5070755,770.2120208505058,801.3612664504096,799.1324085655374,787.7967288683527
1731140833.5086613,770.6747308680038,798.650531693464,800.3703837630459,778.0326298390302
1731140833.5109725,799.6887884228868,797.5824267185868,803.2256173515004,785.2770329768276
1731140833.5148692,830.2314321867568,797.693488493482,805.3204871828997,802.2349005805996
1731140833.518766,834.9185787819284,798.2953635776624,805.1992998383082,816.0855767743104
1731140833.5187862,809.0108571452372,798.8767826719126,803.3089176568636,819.3201611199897
1731140833.5226626,774.5742782842491,799.2607430162191,801.6610950720461,814.9846969076775
1731140833.5242348,762.568417694834,799.5045910951651,802.5136429882401,812.5454609764639
1731140833.5265594,787.6251222391713,799.7240985449203,806.89274428746,818.5774055491185
1731140833.528823,835.6931910038383,799.9857122490507,813.8062948695593,830.4338952598573
1731140833.530456,874.1066438937726,800.2924815826653,820.6508952725991,838.1934032360587
1731140833.534353,876.1157835297598,800.6180840822593,824.6541726836969,833.206252838666
1731140833.53765,840.900961753989,800.9399527991775,824.4666205704275,816.0320409810489
1731140833.5382495,793.5723816354331,801.2512171329734,820.7821697797327,796.804528663231
1731140833.539808,765.1546922190493,801.5560431944066,815.5286819441753,787.1960934454045
1731140833.5421464,768.5174548540303,801.8607396099267,810.336049067658,790.537565090179
1731140833.5460432,789.8195333341663,802.1685970730873,805.6129516718685,798.8824229474101
1731140833.54994,802.4487489454015,802.479556108661,800.9752951745453,800.1755989084832
1731140833.5538368,791.4286373132071,802.7921575753459,796.4787625117119,789.5701116031356
1731140833.5553815,767.1190270602164,803.1052557530722,793.3504952781528,774.6812429718224
1731140833.5565145,756.1624586343337,803.4185589122771,793.3987743855886,769.5913798363076
1731140833.5577335,777.3219709483724,803.7323274422112,797.5147408589415,782.4212653233918
1731140833.5616302,823.0251715852929,804.0468973056813,804.5380239043556,807.1736693089471
1731140833.563722,862.8644239628369,804.3624255540853,811.5289732786704,827.1116019386835
1731140833.565527,867.0048671371434,804.6788919045969,815.3973906498248,827.3255726767768
1731140833.569424,830.6459086409928,804.9962138476624,814.7553251427418,806.5587859947532
1731140833.570955,779.2025322011034,805.3143432412833,810.638587882261,778.8496277433321
1731140833.5733206,749.185820964225,805.6332928708907,805.5862894099555,763.4987901816909
1731140833.5753782,759.6829560386614,805.9531023619834,801.8458928487623,770.969639669621
1731140833.577217,797.5276645241878,806.2737772094484,800.137129969934,795.5530331308969
1731140833.581114,828.4921906256959,806.5952453894157,799.861398991246,820.3936368210723
1731140833.5850108,825.4973719922474,806.9173833156032,800.3285724045065,830.7080836173399
1731140833.5865283,790.6343888901037,807.2401411755753,801.6834949068514,824.5110635337741
1731140833.5889077,752.9522739058891,807.5637126730537,804.6064770655984,812.4439820598909
1731140833.5928044,744.257057971289,807.8885680391007,809.1593684633912,807.5975046810435
1731140833.5942423,773.220833781184,808.2151283323628,814.0430354165981,814.4832836253577
1731140833.5967011,818.8019294080391,808.5430817222318,817.1209794116945,826.3788911631192
1731140833.598621,847.5607347332298,808.8708600480567,816.8071675368856,832.4848686986027
1731140833.600598,840.2133873615116,809.1962473067991,813.1088848197622,827.9237737364008
1731140833.602102,806.0758850245284,809.5187358268776,807.4960557880848,817.7596924792327
1731140833.6044946,774.3630345074191,809.8425230917412,801.8449613893237,811.9124933995477
1731140833.6083915,769.9429864169405,810.1766426974709,797.4094944077677,815.7779257639223
1731140833.6122882,793.4523032849668,810.5282368734688,794.5540400255142,824.8797281604474
1731140833.6131065,821.909161490436,810.8896495993664,793.1915398958807,828.3102850168732
1731140833.6161847,828.9896106301245,811.2298969168392,793.2814965901568,818.218811855018
1731140833.6176755,807.7869760003637,811.5086932358313,794.8281769289495,797.4073256119625
1731140833.6200817,776.8789967950574,811.7224813621999,797.4235023145159,778.4502280349936
1731140833.6239784,764.670791276434,811.9577496124567,799.9211607008609,774.5843136997931
1731140833.627875,785.2590018060839,812.3830048409768,800.796288457796,789.3921860787891
1731140833.631772,825.9738881963734,813.1072615813318,799.1297296807564,813.4709546885347
1731140833.6319704,856.7995712901007,813.926203324104,795.4929842981063,830.8493081825202
1731140833.633249,853.9500588721919,814.1529821475118,791.9254594761463,830.3377170727691
1731140833.6335194,818.8087389481115,812.8210482386654,790.8255875196828,813.3099598247854
1731140833.6356688,777.3567389658267,809.3136912300574,793.4301210476821,792.2338717399152
1731140833.6395657,760.3647432196999,803.9918977314064,798.9391590431304,781.1825917938124
1731140833.6434622,779.5793306064318,798.209407339465,804.9343233497551,785.4913815124752
1731140833.6473591,818.7552684831949,793.595881923785,808.8307765767869,798.4384685950082
1731140833.6488223,847.138432810145,791.1917079650382,809.3873758444086,807.5399007329313
1731140833.6508343,844.7631398698508,791.1319985036965,807.300214900264,805.3972752857014
1731140833.6512558,818.6041357759115,792.982056118945,804.574968077545,796.0849085191892
1731140833.6551526,795.8690027724655,796.2081572204706,803.1845367238964,791.5169229744647
1731140833.6590493,800.1348337046118,800.2847971655268,803.9183970015054,800.6744320099111
1731140833.662946,830.8187208747872,804.4819557693726,806.1105129511296,820.8709473179525
1731140833.6643958,863.4675974720998,807.7755551434063,808.3024388401467,838.7314638613182
1731140833.6668427,870.3331428751538,809.1814025688533,809.3099110729975,840.4272561310939
1731140833.6684184,843.6699686011727,808.3587528145077,808.9850016867607,822.9858514790552
1731140833.6696985,802.4585454968108,806.0196773650488,808.2354457942049,797.5902346535582
1731140833.6707397,777.2615137848663,803.7349660883036,808.3413160161773,782.0616786782173
1731140833.6746364,785.5898298087741,803.1052786198634,810.0375018174861,788.0162516914119
1731140833.6785333,817.6844756663779,804.769516373284,813.0053580974858,812.320961189169
1731140833.6799693,844.4495671885162,807.987104971454,816.1679449649876,839.4463448270001
1731140833.68243,841.4993696330347,811.2067616465238,818.5636696216812,853.1124400942767
1731140833.6863267,809.7179013124465,813.2339669917961,820.0515706580327,848.2802172614997
1731140833.6885624,774.9353600410599,814.0263904269602,821.2192499871009,834.0506409679984
1731140833.6902237,766.4772666698058,814.4255858460746,822.580754452999,825.2696896877131
1731140833.6941202,792.360155471919,815.1020181737924,823.7912777639322,829.8599832204824
1731140833.6955428,832.032748075712,815.7289988857583,823.5922019394345,842.3221868277542
1731140833.698017,852.7820669698094,815.1753608530018,820.6251352088259,848.5651525777387
1731140833.7019138,836.0921955571348,812.5395862164909,814.6192848834559,837.8428275120643
1731140833.7033172,792.3850744921758,808.080866942341,807.1339952575732,811.991722942207
1731140833.7058103,752.7175704961178,803.2337596614557,801.1628772982186,784.6544502452127
1731140833.7074263,744.7831995646404,799.7257360566878,799.520782348248,771.2511642128599
1731140833.7097073,772.4285436410812,798.5408037346459,802.8601224557048,777.5878666013326
1731140833.7111163,814.2050866494758,799.4923673934217,808.7729765557317,795.8976986074649
1731140833.713604,841.160574222241,801.5934341622249,812.9841865999302,811.3002333412608
1731140833.7175007,839.2635147120913,803.8110964967398,812.1224348679826,813.4789644578902
1731140833.7213976,818.7063296294332,805.6201032255309,806.1154863392852,804.1569623166503
1731140833.7252944,803.2049365404775,807.0513226657847,798.3110474319652,794.4119314134259
1731140833.7262905,808.7900129192076,808.3581120302823,793.1565153754383,794.4862341527885
1731140833.7266898,830.0909832462794,809.6575363991823,793.2165006892837,805.0984649661516
1731140833.7291913,845.5277254741869,810.8156231399291,797.7450732931421,817.6211981821547
1731140833.7330878,836.7317006701305,811.5749738653284,803.6678123487932,822.4434545105238
1731140833.7369845,805.6037126812739,811.7292827609799,807.9479681926658,817.786664539433
1731140833.7382162,774.5030270782547,811.1813393580288,809.4379129662395,811.2816386775738
1731140833.7408814,769.020537988533,809.8952957256234,808.9746853559996,813.1822885557042
1731140833.7422633,797.0018630128556,807.8662719018591,807.9953553610904,827.175853062415
1731140833.7447782,840.7208954369164,805.1807382251776,807.0950457245629,846.5378841505174
1731140833.7451544,869.057537388697,802.1136471401151,805.8283064938214,858.8446895096549
1731140833.7486749,860.9220851823578,799.1392742061104,803.7821519348482,855.5047096748962
1731140833.7525716,821.8351923706439,796.773069737739,801.6727174309023,838.4780167044769
1731140833.7564683,780.1148600555488,795.286167165339,801.1817413482246,818.7612521836347
1731140833.7578368,764.9126781880749,794.4849960914918,803.5540306052033,807.8782191066248
1731140833.7603652,783.289049416897,793.8066708607649,808.3263180294686,809.3633349988121
1731140833.7640183,814.9793398741286,792.8014154744818,813.51910797921,817.1218946562211
1731140833.764262,829.3998881969752,791.6922789000674,817.1750988060804,821.5434273498698
1731140833.768159,811.1156620083643,791.4623659283918,818.7520533567671,817.6047426198317
1731140833.7720554,772.8747432204163,793.1944776781935,819.0250277998049,807.9338267578256
1731140833.7731147,745.4936081250188,797.0867490414071,818.7078930414941,799.0103880203176
1731140833.77341,752.83437206368,802.0343955642983,817.3646693030316,795.1417269291761
1731140833.775952,792.2074778980855,806.2786074628008,813.8981889228274,795.9734176111009
1731140833.7798493,836.1089476709717,808.6026557884342,808.2209158341881,798.5246938356943
1731140833.7828825,854.005439421937,808.9962104545191,802.3594766230107,800.3292143141023
1731140833.7837458,836.5985745494477,808.3138460218732,799.6395946743429,800.72933899244
1731140833.7876425,802.6982773395347,807.4652093589896,802.3837417819935,800.2994562365764
1731140833.7889836,782.8810345458777,806.9027331863988,810.0035608474594,799.7988012283668
1731140833.7915392,793.4953394815127,806.6280681104073,819.1333249428487,799.5962629589254
1731140833.795436,822.9500456415196,806.4573133810949,825.7812598015079,799.6639349467138
1731140833.7993329,841.8819351788973,806.2447179387593,827.8539426113482,799.8212594418936
1731140833.8017466,828.397441775989,805.9529672981482,826.1664704457489,799.9350176083632
1731140833.8032296,786.9186038074517,805.6149809910357,823.304575431153,799.9756033162897
1731140833.804557,745.0190952872998,805.2733938877569,821.3832086299212,799.9764346621364
1731140833.8071263,731.3317222912036,804.9484041930311,820.5170020939808,799.9771159881849
1731140833.8080137,752.950386982136,804.6379507475721,819.1290910483355,799.9951371695696
1731140833.811023,790.491038416784,804.3316907594331,815.6872490082751,800.027524951896
1731140833.81492,814.2427650177982,804.0221805609582,810.3249943314975,800.0643384583485
1731140833.818817,807.9448564213294,803.7078697075758,804.9769115212224,800.0988245981646
1731140833.8201306,780.9811854300148,803.3907059402854,801.9549700875073,800.1297922096701
1731140833.8206103,759.4393780239236,803.07292031107,802.207573002457,800.1591550479756
1731140833.8227134,763.7074742258222,802.755468574318,804.720610447473,800.1889281846496
1731140833.82661,791.2462384230104,802.4381583563809,807.4775083694572,800.2198637488702
1731140833.8305068,818.8816140252591,802.1204218120024,809.0356367813838,800.2516513949324
1731140833.8344038,822.6836192223677,801.8018836348832,809.3294534714597,800.2836861980002
1731140833.835704,798.6724111315037,801.4824866612959,809.1758354828607,800.3156205316498
1731140833.8383005,766.8600232793248,801.1623481078026,809.2403136035826,800.3474687136028
1731140833.839475,755.1903978980407,800.8415874092653,809.5527151632373,800.3793898863668
1731140833.8421972,776.6701342797606,800.5202465306277,809.7959079803567,800.4113703616043
1731140833.842913,818.3442984510569,800.1983000930111,809.7616341422893,800.4430271496419
1731140833.846094,850.910552765094,799.8757050167064,809.4864211513452,800.4737502843244
1731140833.8499906,851.276305674095,799.5524490455762,809.1208826311623,800.5032881984203
1731140833.8512776,820.3277714578992,799.2285758099249,808.7808699438788,800.532499946118
1731140833.8538876,782.0510787137059,798.90416783734,808.4982624030247,800.5634511061309
1731140833.8577845,764.7531493326527,798.5792744814444,808.2500244663463,800.5978883567512
1731140833.8583386,779.203398332257,798.2538099505048,808.0042733166067,800.6341746736285
1731140833.861681,810.9825195436683,797.9275169894721,807.7453692185444,800.665091277126
1731140833.8655777,832.9763859612303,797.6001284148446,807.4744732755323,800.6808391261778
1731140833.866851,827.7145531259362,797.271753534935,807.1992643676685,800.6797672269512
1731140833.8694744,801.3445917685883,796.9432288439391,806.9254386458283,800.6814815921965
1731140833.8733714,778.0407956412269,796.6158783054454,806.6542921214836,800.7264386834299
1731140833.8772027,779.7638551430733,796.2902493117602,806.3844302140327,800.8446862042824
1731140833.877268,808.1283975661657,795.9643026466915,806.1141836504619,800.9982610170025
1731140833.8778114,843.0961258912831,795.6329628528713,805.8428187397059,801.0460190488212
1731140833.8811648,859.324058396599,795.2914873719649,805.5704733034829,800.8117315186713
1731140833.8824246,846.7066487174826,794.9428240758838,805.297584705766,800.2932937207075
1731140833.8850615,818.3181743994633,794.6035574428646,805.0244565326224,799.8956541632022
1731140833.8889582,799.1830093742241,794.2979426932476,804.7511553056606,800.3789153371588
1731140833.8928552,805.0511807018726,794.0329459183389,804.477614011411,802.2148881665767
1731140833.896067,828.9072115583971,793.7655232311943,804.2037613679225,804.4894486376445
1731140833.896752,846.8399260656764,793.399856734724,803.9295832736625,804.3028553686709
1731140833.897998,838.6849241477113,792.8596791728619,803.6551166923924,798.0743111787826
1731140833.9006486,806.0603170713812,792.2343874305827,803.38041388925,784.9926633893328
1731140833.9045453,772.2551272628971,791.8974380136183,803.105508021429,769.9090413140518
1731140833.9084425,763.6808186156809,792.4281798311332,802.8303956698259,761.5119814124483
1731140833.912339,788.2238919496137,794.2744007259261,802.5550471284063,765.5269462862348
1731140833.9127102,828.4079760891823,797.361271560026,802.2794520634343,778.8718193689709
1731140833.9135714,854.9163861566719,800.9943408661132,802.0036855383953,791.1153434347453
1731140833.9149308,849.5424298855589,804.1835896751218,801.7279351469982,792.845587228972
1731140833.9162357,819.3494448874359,806.1423006369995,801.4524041169414,783.9214646706274
1731140833.9201324,790.8587611859957,806.5999744540275,801.1770672833735,774.3575321915775
1731140833.924029,788.7380052834563,805.7887030080285,800.9014374171139,776.5540304219608
1731140833.927926,815.928066273809,804.2308438964546,800.6246934027718,794.8197279383794
1731140833.9291449,851.4695772668701,802.5229655957168,800.346463275083,820.8745856335612
1731140833.9318228,868.1124077274762,801.2027719043757,800.0679927915712,839.6204607047558
1731140833.9337947,855.2030693567809,800.682274816134,799.7925127189709,841.0129969950532
1731140833.9357195,827.5622641187937,801.2194314205119,799.5232082295805,828.3617199286884
1731140833.9396162,812.726615852294,802.9127409286475,799.2585613289343,815.8861805315474
1731140833.943513,827.3024307401424,805.6746342274763,798.9883519133384,817.1689096734632
1731140833.9447184,862.4637556605353,809.1334595065368,798.6970037179472,833.9062904141812
1731140833.94741,890.8384505885672,812.5158500597387,798.3791526915735,854.3343207532462
1731140833.9476092,888.9494743773407,814.7023188084389,798.0610144740632,862.750761175057
1731140833.9513066,856.4586391714902,814.6299934998274,797.8041661241496,852.3370196993103
1731140833.952659,816.3448652834137,811.942275323205,797.6628679180692,830.7445096890125
1731140833.9552033,796.0293161372028,807.4471021315625,797.5951860420164,813.8985968052682
1731140833.9591,805.1015040779846,802.9086005272011,797.3953719762754,813.1852868506772
1731140833.960292,828.0419606627163,800.1328085515613,796.7725813970942,826.5991843415939
1731140833.9629967,837.9683770719573,799.9226108372023,795.6512724146186,841.0735121849713
1731140833.9668937,819.9524097066678,801.6906433831291,794.5372753054362,843.8458274809776
1731140833.9707904,784.3326085584938,804.0299161293028,794.5187094263341,833.1502166624633
1731140833.9715228,758.7031721113242,805.7335035294243,796.5971811520865,819.1769012859236
1731140833.974687,765.0966032194837,806.4229600663352,800.7504397307501,814.6259992733742
1731140833.9758654,801.237244972053,806.427205885104,805.6457546467775,823.1704517773834
1731140833.9785838,841.3394146203257,806.26152708411,809.4092617674553,835.9516696795954
1731140833.9824803,855.9135029717298,806.2361312050608,810.8212879652382,839.2197862264762
1731140833.982508,834.7611325976427,806.3912177279512,809.9738750618006,826.4806141131127
1731140833.9863777,794.9306636183455,806.6297122251759,808.0295684141769,804.5613858105886
1731140833.9902742,767.3795928991025,806.8574692321029,806.4508639123051,788.2855809113063
1731140833.990387,772.7933344188184,807.0408519642598,806.2650196515824,788.2601943576116
1731140833.9914389,805.4725168812653,807.1933962847227,807.6741729632539,802.0991081574674
1731140833.994171,837.9892959765737,807.3405131828231,810.0579806269457,816.4059814969555
1731140833.9980676,843.1442284477077,807.496867500146,812.3300294981105,817.8195413948476
1731140834.0019646,815.9859663780888,807.6633594582179,813.5299889482144,804.0331589253315
1731140834.0058613,778.2288207731674,807.8344243465818,813.3486107618417,785.8848251051313
1731140834.007012,761.2023460315079,808.0052081137648,812.2106214179926,778.9191415481328
1731140834.0092509,780.755555878104,808.1742066783213,810.8360124888156,791.1519600109037
1731140834.009758,824.1901168097636,808.3423065894629,809.6890924303157,816.5897925424508
1731140834.0136547,859.7450573085619,808.5108786681222,808.8733574839257,839.4845590161817
1731140834.0174067,861.1597161794244,808.6806561237306,808.5675620123493,846.0589643647421
1731140834.0175514,827.8441955605437,808.8516508632192,809.437591020491,834.7122548350721
1731140834.0214484,784.6762554232612,809.0235675197335,812.3428361367621,816.8046332840019
1731140834.0225856,761.7209716786878,809.1961711475539,817.3457591470916,807.400185362461
1731140834.025345,770.3672794428421,809.3694041971904,822.9205328968463,813.3478523963918
1731140834.028115,795.3276063153578,809.5433242869732,826.3831624785255,828.3026553946801
1731140834.0292418,808.9119294206466,809.7180093680294,825.6001538394696,838.631692176341
1731140834.0331385,795.456767552083,809.8935146431315,820.7394720125875,835.1451580994732
1731140834.0370352,765.2274348695676,810.0698779514903,814.4768009464158,820.8207858375846
1731140834.0381591,745.9450893126332,810.2471261493962,810.2144934972297,808.2026171796737
1731140834.0409322,758.9986328716811,810.4252486957806,809.6274708540758,808.8783313723368
1731140834.044829,800.3177964416877,810.6041572028237,811.5753584920434,823.9096865306624
1731140834.046979,841.97364721696,810.7837014429163,813.3147433571813,843.0261332426116
1731140834.0487256,853.5005266050568,810.9638075667759,812.9573012236613,853.043278448213
1731140834.0523057,826.0161283276626,811.1446980670189,811.0672388794219,848.5601060041065
1731140834.0526223,779.9820818172306,811.3269747534837,810.0933615335126,836.306564457031
1731140834.0537326,750.1801443038519,811.511257141891,812.197106377195,829.5989764990109
1731140834.056519,759.2578097350311,811.6973111192274,817.3236818528728,837.1993907494034
1731140834.060416,800.4412967082707,811.8832597863449,823.0610662724976,855.474885979982
1731140834.0643127,843.1638136736395,812.0661342619393,826.3150922020623,870.4153896035111
1731140834.0658429,857.1351332023482,812.2447418923987,825.4047294285712,868.3142347525242
1731140834.0682094,835.3664413263584,812.423756241691,820.9717616963271,846.771826688134
1731140834.069306,797.7200744297518,812.6147032678144,815.1623161971311,817.1098672338306
1731140834.072106,773.0340014562413,812.8282914679779,809.9081053516816,796.0661011523472
1731140834.0760028,775.5351898356598,813.0577498174285,805.7055857305892,793.3385157037517
1731140834.0798998,795.0319126577688,813.2654566673834,801.7270946342891,804.8905101848419
1731140834.0837965,807.8180471711867,813.3966320160479,796.9920957916853,817.0936213646912
1731140834.084707,797.9136226697635,813.4359947684135,791.5818956083019,817.9628226277895
1731140834.0848796,770.70022154402,813.4817263364425,786.9712354182376,806.3642046729553
1731140834.0872045,748.2607184237564,813.7512827098286,785.2666842814157,792.2123898332347
1731140834.0876932,750.7771769966297,814.4174475830805,787.9007484010439,787.9880781353291
1731140834.09159,779.2292717695407,815.2792944806744,794.6462479858233,798.4499421559552
1731140834.0954866,813.5253737540354,815.5013243199978,803.5627663524948,816.542180323622
1731140834.0993836,828.0544984135249,813.8102765503838,811.8910078858682,828.6734623201808
1731140834.1004531,812.4919575637224,809.3093955286221,817.3628176702277,825.2942785498541
1731140834.1032803,780.7779234126402,802.4608952636913,819.1973296564732,808.4218175379546
1731140834.1035707,760.2701580688735,795.3801038570289,818.2650480984015,789.9956713750439
1731140834.107177,769.374815276833,790.9387322408799,816.3790707925991,782.2737159816618
1731140834.1110735,801.9168897941838,791.1087347375961,815.1788875621819,788.0826416307577
1731140834.1149707,831.393856137813,795.7152643263919,815.3171340933562,799.0076188273545
1731140834.1160264,832.0904776619735,802.5990348877731,816.4248129711593,803.0479387479842
1731140834.1188674,800.2293462985746,809.1024013842148,817.7285445258328,795.2616241911452
1731140834.1221037,758.1112444394386,813.6838215599025,818.7114898448511,782.2780548379086
1731140834.122435,737.4820368888522,816.3980191983172,819.2871154791651,776.6231141900669
1731140834.122764,754.6560489283279,818.0428559489843,819.4980599806512,785.4336730236652
1731140834.1266608,796.8828340274927,818.932626202996,819.1980635379853,803.1788594574875
1731140834.1305575,831.4973771701867,818.4441804861342,818.0883525441099,815.0885917196384
1731140834.1316,831.6539580277082,815.6463042247694,816.0156656904746,809.1297879555317
1731140834.1344545,798.26816709892,810.3405646285281,813.1442344546189,786.7274661618152
1731140834.1383512,759.6057396379192,803.5736460349549,809.7993367728391,762.7542092034953
1731140834.141299,747.9999442985765,797.2298949932992,806.1855933080185,753.9872617126882
1731140834.142248,772.8951377786927,793.0891480361264,802.3233257793523,765.2271433885084
1731140834.1461446,813.1695814137619,792.0735935751984,798.2953997301569,784.8319300023712
1731140834.1471734,835.3619152645018,794.1114073050245,794.5813754540934,793.887609423137
1731140834.150041,822.1348697700474,798.4652503936647,792.187667309246,781.7793895228197
1731140834.1539383,786.7309243420484,804.0546184771185,792.4192717565584,755.3801036003945
1731140834.1570022,761.5454997443201,809.50691803074,796.2966932638781,734.2710157839575
1731140834.157835,770.9746469661789,813.1594697645968,803.79741561588,735.8954571015586
1731140834.1601632,811.3930217306748,813.4586018025557,813.3431560462477,762.5510627369738
1731140834.1617315,854.4720498875224,809.8354018382594,822.0538507299492,800.1917824437251
1731140834.162747,870.5004694061613,803.4698661667085,826.9337288387682,829.2719868469461
1731140834.1656284,852.2142449065082,797.1121249533185,826.4358368872256,838.6090312555317
1731140834.1695251,819.6580513397755,793.7398505655027,821.3704982371206,831.6611856350054
1731140834.173422,802.4649664863724,794.8497797197255,814.4266336834282,821.3019630560124
1731140834.1773188,814.6390264649511,799.6230895223988,808.5463275974977,818.305492971233
1731140834.1783204,842.9763815717954,805.5739066805563,805.2769123886198,823.1298228317944
1731140834.1790273,858.6239973366446,810.151421560322,804.260508657741,827.2015163171491
1731140834.1812155,841.895684333299,812.1377361472664,804.1229356122059,821.9367817398024
1731140834.1851122,799.6489900623459,811.9947580293982,803.9149185305426,807.6016850027356
1731140834.189009,760.9269822825213,811.1367730816266,803.8788118483227,794.4288474466866
1731140834.1919012,754.4221988149876,810.76823460932,804.981262390973,794.7421583744165
1731140834.192906,785.9122047118617,811.0866522534519,807.7613031104473,812.2692410738024
1731140834.193894,833.6320489379912,811.3285407095758,811.6118207016697,837.522328655061
1731140834.1968026,865.1363801705029,810.5434637560755,815.1536643749184,853.6843699130486
1731140834.1978912,862.1830735336513,808.466376866916,817.3046984776068,848.9627301405144
1731140834.200699,833.8863005637808,805.7992571146668,817.9699194942895,825.6115873187562
1731140834.204596,807.7891331404528,803.7032008477851,817.6563960615869,797.9822896215135
1731140834.2084928,806.3596206616605,802.9534074129176,816.445003746529,780.913592594756
1731140834.2094674,828.4005589452818,803.4439808328996,813.517297773499,778.1163772318376
1731140834.2123897,850.7721590275072,804.3613187429614,807.9603080526064,780.3580248048554
1731140834.2162864,848.7080462827678,804.7775514873917,800.2088725768215,774.71705206593
1731140834.2167552,817.3982286043714,804.1800412930263,792.6211777762791,756.551952386792
1731140834.2201831,776.7958716185192,802.6484301555903,788.3233158891952,733.7768194705052
1731140834.2240798,755.9874873306165,800.6985754144114,789.0778661621495,720.1357469662065
1731140834.225041,770.2651810932838,798.9600841190746,793.9478021100203,723.7418513211785
1731140834.2268,809.4051790930132,797.8607938959544,799.9251621042115,740.7932780440437
1731140834.2279768,846.0776842808053,797.4663185220421,804.0264679076995,759.4179611750822
1731140834.2318735,857.2007797380799,797.5467656318386,805.1447210903535,769.7909414858967
1731140834.2356193,841.0800126228287,797.7914760010955,804.2419190443708,771.6014140724059
1731140834.2357702,816.8005834188186,797.994862510481,802.9623257711371,772.6746157901879
1731140834.2396667,806.7414540782784,798.1039896495435,802.0980877935482,780.4875675527616
1731140834.2406142,816.9964096653671,798.1577861503694,801.3272422126222,794.4870914710702
1731140834.2435637,832.3692573541616,798.2081151696127,800.2929085232631,806.1284488472443
1731140834.2474606,830.3130361857066,798.2792613470241,799.7143154527267,806.4360681597893
1731140834.2513573,801.8331083153716,798.3682354982083,801.182841413214,794.2126552048652
1731140834.2544832,761.1696088751997,798.462105459988,805.638281540387,777.7126167520732
1731140834.255254,735.5394194519001,798.5517097517385,811.9107518658557,768.4962847762032
1731140834.2561877,743.1277825943145,798.6352131209784,816.8148922036544,772.7149513927383
1731140834.2591507,777.4663722168772,798.7150630241371,817.0217037354104,786.7830416751228
1731140834.2616987,811.2923298384092,798.794007715617,811.4322535274624,800.5042161457809
1731140834.2630477,817.3632797012918,798.8731978451146,802.2715018373663,804.912302291436
1731140834.2669444,789.9929277474591,798.9523694075307,793.9926242217698,798.8223230219936
1731140834.2708411,750.0408485669561,799.0308068831806,790.6641811932722,789.3283333301919
1731140834.2717612,728.8457321329181,799.108039893649,793.6065364809876,785.9869195094113
1731140834.2733474,743.458702980789,799.1839900221588,800.8242931595291,793.0439938713109
1731140834.2747378,783.0029450115738,799.2587895703076,808.4670677870336,805.6885542314951
1731140834.2786343,817.4556483666615,799.3325725607519,813.2046137740456,813.5850339473463
1731140834.2825313,821.9750447393719,799.40538440779,813.9763876467424,809.344801069196
1731140834.2864282,796.9348080534887,799.4771990434436,812.1764904041694,795.2179918317075
1731140834.287335,767.2100281782052,799.5479715373039,810.3721164834302,782.1035655315436
1731140834.2903247,761.4344241370883,799.6176731008369,810.4670631110902,781.0769176041657
1731140834.2922113,788.4175767060044,799.6862966544705,812.456303452162,794.168013866688
1731140834.2942216,829.9234176827698,799.7538462687469,814.5259042100186,812.2370679610827
1731140834.2965977,855.3994030853706,799.8203262762376,814.4316836438705,822.1394038951056
1731140834.2981184,846.5347038626173,799.8857370488988,811.2561688852807,817.5330978304239
1731140834.3020153,811.7749718757835,799.9500762817332,806.3105205211448,804.2856800406432
1731140834.3029082,779.0390108159024,800.0133418432869,802.441348349361,795.6175683087415
1731140834.305912,772.6069256933116,800.0755335201337,802.1297088045482,800.7562474440978
1731140834.3098087,793.3903614702937,800.1366531971164,805.7522792461568,816.7088715962288
1731140834.3110754,819.227865452239,800.196704253147,811.3388538966167,830.3991338792991
1731140834.3137054,824.9006772085487,800.255690996683,815.9880318800843,829.5277643310134
1731140834.3176022,804.5088365929527,800.3136184684562,817.759047536346,812.9021007625661
1731140834.3184817,776.7812492664677,800.3704925210629,816.5677240113481,791.4919302357404
1731140834.3214989,768.8175013110471,800.4263199636405,813.6126639957143,779.5349395453179
1731140834.3253958,792.4171842065944,800.4811086430477,810.1363882090259,783.3247833419024
1731140834.3292923,833.2022465200155,800.5348674506242,806.7049038693268,796.7979858861178
1731140834.3299394,861.5221039798932,800.5876062968349,803.465747412557,807.0268765054503
1731140834.3314965,855.9952346863076,800.6393360811685,800.8335876298925,804.7587835919824
1731140834.3331892,820.631821776298,800.690068649491,799.6964514433719,791.5808647380844
1731140834.3340552,781.9674505281067,800.7398167255269,800.7917625273276,778.3403423163127
1731140834.337086,768.4484608890122,800.7885938450131,803.8136233320879,776.3145593761827
1731140834.340983,788.2674787616724,800.836414377552,807.2093928719296,788.129225398907
1731140834.3448796,823.331067471063,800.8832937142737,809.0710681187597,805.5508076768276
1731140834.3487763,844.372169111775,800.9292485576698,808.4853404603825,815.8677470818093
1731140834.3488035,834.956593771046,800.9742970093208,806.1755632127442,811.7509756223899
1731140834.3496284,804.6246229786941,801.0184580361728,803.8187977133513,796.7492889443122
1731140834.3526733,780.4803058201695,801.06175024139,802.5830265218193,782.1864963377186
1731140834.3565698,784.5844689985131,801.1041907785861,802.1399341762753,778.1297139939231
1731140834.3604667,815.9859197139712,801.1457961524034,801.0258866632529,785.6391478635081
1731140834.3643634,851.7315850314424,801.1865862174385,798.0823324550579,796.2700432958907
1731140834.365202,865.3581568032174,801.2265897770085,793.7707899007262,799.0877490799013
1731140834.3663957,847.7218323421463,801.2658457354603,790.1982830509116,789.7800879529041
1731140834.3676674,813.9310229083528,801.3043921994387,789.6930507591617,774.8635965497961
1731140834.36826,791.2923344246756,801.342243353023,792.9728776192287,767.4589799267117
1731140834.3721569,797.6606529879914,801.3793714712648,798.3947788913747,777.327031232207
1731140834.3760536,827.0597673510181,801.4157270004731,803.023795171885,802.5885324515448
1731140834.3799503,854.3512268935804,801.4513179756065,804.8017364729267,829.9804105354424
1731140834.3807757,855.9246125597817,801.4863120018196,804.1078339535659,844.1694070740657
1731140834.3838472,829.7690388260793,801.5210424440702,803.3964231446238,839.0753008633978
1731140834.3865316,797.708132153011,801.5557827161465,805.1334589946036,821.9776154997338
1731140834.387744,787.0399012024304,801.5903091186773,809.6613271098385,806.9325392630693
1731140834.391641,806.6970279687683,801.6236071859054,814.7082054359141,803.0298199662725
1731140834.3955374,838.4730882186684,801.6543387466062,816.9539507019127,807.378115011032
1731140834.396349,851.4424627187595,801.6823997968448,814.4554197175289,808.6169063076541
1731140834.3994343,827.9609970738001,801.7107514440821,808.121476101881,797.82176520546
1731140834.4012942,779.6188913885405,801.7452244055473,801.2320605178803,777.4822725500285
1731140834.403331,739.6289582704975,801.7898928224262,797.4596602239045,760.8127612296835
1731140834.4053955,737.3555295078917,801.8388642004456,798.7972875869713,761.5756908221908
1731140834.4072278,775.2365965895136,801.8716639207303,804.6516127898959,782.460586596785
1731140834.4111245,826.5820300615965,801.863685070274,812.4582924748751,811.593043970671
1731140834.4119225,855.9279432181056,801.8164757412159,819.2455256209273,830.5008777595948
1731140834.4150212,845.1894533948575,801.7900838993141,823.1233602202168,827.4897499701848
1731140834.418918,804.388955617643,801.8929651596466,823.8492028482343,805.5764273361362
1731140834.4228148,759.8379073251729,802.1872009657297,822.2899043968741,778.6661973603028
1731140834.4242597,732.6831966780035,802.5325315598938,819.3940607188706,760.185994421085
1731140834.4267116,726.9936682581102,802.5088131017732,815.6276594559446,754.6475528866522
1731140834.427496,733.8577546015839,801.6153367613846,811.3411430479185,758.0768393796563
1731140834.4306085,742.5228643764165,799.778819210915,807.5638228227353,763.9984985156989
1731140834.4345052,747.5237973236096,797.8015048390924,806.1697074044097,768.3518231113228
1731140834.436193,748.8968667319941,797.1596016860764,808.8457735878993,770.4706007658862
1731140834.438402,748.960038088357,799.028241395531,815.4663152538955,771.5053761041357
1731140834.442299,749.5441418588075,803.2746209183276,823.2810880164162,772.6498177946017
1731140834.4430697,751.1204335555684,808.3776028852583,827.9556300032572,774.3643207446914
1731140834.4431236,753.2794181749989,812.3932541773386,826.1228187690275,776.5046544551428
1731140834.4461954,755.4883830734396,814.1152079096461,817.762526721172,778.7564076152042
1731140834.450092,757.4944487965059,813.5437061266309,806.5729957259117,780.9284960892455
1731140834.453989,759.3231081774169,811.5661396043542,797.844753286178,783.0024005500192
1731140834.4578855,761.1037093656284,809.3668305968661,795.2468556988796,785.0455482651553
1731140834.458643,762.9295664662083,807.9661692980123,798.8145897387692,787.1203908969695
1731140834.4617825,764.820350704585,807.8883261850696,805.4782353437059,789.2484330501519
1731140834.4619875,766.7519399319698,808.9212208409044,811.4769718067605,791.4203526101988
1731140834.4656792,768.6966112378803,810.1768134317992,814.6677792866454,793.6196076999332
1731140834.469576,770.6425652112327,810.6142049454263,815.1574856171119,795.837089624659
1731140834.471092,772.5923668622268,809.7491408452066,814.3169995088158,798.0727712724575
1731140834.4734728,774.5532984533817,807.99466893716,813.4317263033216,800.3307356902003
1731140834.4742162,776.5302636481362,806.3648908303937,813.037786334533,802.6144654607319
1731140834.4773695,778.5242219486573,805.8198910260894,813.0437011980292,804.9251874126475
1731140834.4808517,780.5339783816206,806.751908291321,813.1549531566288,807.2625647561662
1731140834.4812665,782.558297037283,808.8769265910926,813.1768714564867,809.6259655779214
1731140834.485163,784.5968329948867,811.4610309559947,813.0803309364876,812.0151862245715
1731140834.4890597,786.6499736796371,813.6887950919703,812.9258694748519,814.4304880709101
1731140834.4897895,788.7183102083401,815.0156071550987,812.7748253918716,816.8723159575019
1731140834.4929566,790.8022800460791,815.3610140810094,812.6505698051443,819.3410558331502
1731140834.4968534,792.9021073752599,815.036641880981,812.545542989302,821.8369612077158
1731140834.4997156,795.0179099575624,814.4715115690932,812.4435976940299,824.3601986644888
1731140834.50075,797.1498111465504,813.9568841012601,812.3349660929318,826.910915707765
1731140834.5046468,799.2979816801544,813.5728390855375,812.2187060442329,829.4892735975459
1731140834.5053632,801.4626195981735,813.2681674243942,812.098237710716,832.0954412041959
1731140834.5059907,803.6439111835348,812.9703277189107,811.9766993008852,834.7295745304292
1731140834.5085435,805.8420117318581,812.6439511689332,811.8551270165369,837.3918079744678
1731140834.5124404,808.0570648602155,812.2920833820542,811.7329861735936,840.0822687851119
1731140834.5163372,810.2892515289435,811.9324948072481,811.6093810741273,842.8011041628757
1731140834.5185795,812.5388263725565,811.5782258005056,811.4838006670046,845.5484891160661
1731140834.520234,814.8060767241777,811.2321562359524,811.3561987670719,848.3245792299097
1731140834.5209367,817.091169767999,810.8910119871998,811.2267381235699,851.1294086631135
1731140834.5241306,819.3939660547168,810.5509293385599,811.0955499286251,853.9628121901759
1731140834.5280273,821.7140256412804,810.2102138974303,810.9626502821957,856.8245169243673
1731140834.5319242,824.0510512082914,809.8691703408601,810.8279764104445,859.7144943120132
1731140834.535821,826.4057017847703,809.5287796546412,810.6914518019967,862.6334047488274
1731140834.5365102,828.7800850897161,809.1897074245197,810.5530230190582,865.5826107733047
1731140834.5374436,831.1767865334594,808.8520739177225,810.4126610771341,868.5631673375409
1731140834.5397177,833.5959054611643,808.5156952409939,810.2703464076944,871.5739002087289
1731140834.5408895,836.0317635630603,808.1803766451283,810.1260561702495,874.6101563701606
1731140834.5436144,838.4736352862291,807.8460456817606,809.9797613040815,877.6659343352767
1731140834.547511,840.9147734327928,807.512733827209,809.8314311131747,880.740781006034
1731140834.551408,843.3676129999327,807.1805037548557,809.6810392029817,883.8477520181698
1731140834.5520835,845.871246811089,806.8493962016662,809.5285646480445,887.0122742502331
1731140834.5553048,848.4700532530517,806.5194154265398,809.3739850578793,890.2514950072509
1731140834.5563078,851.156275379308,806.1905404517315,809.21726437053,893.5382512614835
1731140834.5592017,853.8121989555307,805.8627476142306,809.0583469509132,896.7816299157819
1731140834.5630982,856.2354375772846,805.5360372138475,808.8971741278605,899.874372457307
1731140834.5669951,858.3207658585967,805.2104533576911,808.7337279183661,902.8268383920401
1731140834.5676572,860.3416944239638,804.8860726210658,808.5680740322737,905.9074697242952
1731140834.570892,863.0543344413237,804.5629378752243,808.4003408069256,909.593759579666
1731140834.5747886,867.2354736562652,804.2409559320182,808.230580005481,914.1523102012462
1731140834.5751717,872.5716632187259,803.9198554032032,808.0585553453345,918.962364518287
1731140834.5757885,876.6405425580062,803.5993444384152,807.883670381619,922.2134164906507
1731140834.5786853,875.5482440816617,803.2795048919523,807.7053254386028,921.8743132787981
1731140834.582582,867.3720612708958,802.9611647563903,807.5237538623337,918.0936275390965
1731140834.5832305,856.7526198527642,802.6456792998038,807.3407578044544,915.2888896459217
1731140834.5864787,855.2072017855356,802.333654724175,807.159140717718,920.8509819356514
1731140834.5903757,872.8493723962661,802.0230667404107,806.9799327640656,939.362157300274
1731140834.594036,906.4935052172381,801.7087062978272,806.7985148753875,966.0909504398529
1731140834.5942724,937.0263573224133,801.3855189987217,806.6038151360387,986.2500202413667
1731140834.598169,942.4653491771592,801.0561499091435,806.3858218031239,982.9417748626743
1731140834.598804,916.8477627813274,800.7373078024,806.1515252817362,949.1956183774037
1731140834.6020658,877.3955626720826,800.4541410243074,805.9373005654436,894.8310597425033
1731140834.6059628,852.0727826656702,800.2149281361096,805.7950231776649,841.7488574144563
1731140834.6098597,857.1448876446233,799.9768557111028,805.7373048752601,809.9697522500506
1731140834.6106873,883.4864653894272,799.641096207535,805.6673735400904,804.4437478169756
1731140834.6128998,903.4372192962533,799.1240933103841,805.3756000997043,812.7636625440504
1731140834.6137562,893.1852192342502,798.5052407953427,804.6974834658188,815.7413760821939
1731140834.6143775,852.7638384124512,798.145985227198,803.8217724829952,802.5841401055377
1731140834.617653,807.0545836804847,798.595059664477,803.5127725880617,778.5372861577796
1731140834.6215496,786.1180867713915,800.2131298540015,804.8492131759155,758.9560620932966
1731140834.6254466,800.4514561874475,802.8109275872741,808.3207053798448,755.1793277402338
1731140834.6293433,831.9982374803941,805.75709970779,812.8624634434334,764.6040277630386
1731140834.629951,849.1750096523496,808.5102970419682,815.9496370266052,773.5161773127513
1731140834.631764,833.561549884063,810.9326589255458,815.1850073015847,769.7056494625801
1731140834.63324,795.4096217695204,813.026833750319,810.2129922485051,753.227849337307
1731140834.6371367,764.6515487396371,814.5543510891367,803.1350586315128,735.8254362583305
1731140834.6410334,765.3220322985862,815.1286030549345,796.9071567709686,730.113842221711
1731140834.6449304,795.3202992389383,814.671705620603,793.1446544858736,738.5765203120624
1731140834.6455245,828.2802077992986,813.580981083555,791.2784405631784,751.8674520976022
1731140834.6455865,835.3376035583651,812.2721764017325,789.6356176128194,757.2489416749092
1731140834.6488273,808.452622844741,810.5549320243192,787.2247888527087,749.4384661281447
1731140834.650628,766.4813051313806,807.6201001795075,784.5233763983675,734.7324265305383
1731140834.6527238,739.6160053197384,802.8753124389752,782.7009921341438,725.342475710434
1731140834.6566205,745.1307650595161,796.9657908490207,782.2426162907843,728.9925106224331
1731140834.6605177,774.15479714652,791.9486104736023,782.4143161409971,742.5734602690386
1731140834.661098,800.1551815036981,790.1886536647766,782.0968795027076,755.1865915692342
1731140834.6644142,801.902839803442,792.6781301265949,781.1403617879384,757.969336798518
1731140834.6683109,781.5703639151286,798.142764483043,780.8569880924365,752.2479536151266
1731140834.669492,762.7420674103864,803.7903358345898,783.0502526739851,748.9030439265033
1731140834.6722076,770.1573024242986,807.2237949685535,788.3497997405008,759.3191656222805
1731140834.6761043,808.2942848525225,808.0399265589788,795.3345929701383,785.4380176364895
1731140834.6766715,856.5613755045808,807.8667809735588,801.3232078177722,817.1805919059184
1731140834.6800013,884.9289671130473,808.8573370600179,804.2958273834349,839.4481303791448
1731140834.680485,877.304120501874,811.8722905326607,804.4040499333612,843.2171506395642
1731140834.683898,844.0235246116489,815.772974219678,803.7938509001743,832.0292323184409
1731140834.6877947,813.6269817495685,818.3109165872509,804.8087168903398,818.8091430865396
1731140834.688356,810.3754655750855,817.8347565285743,807.9654627753878,815.5579516902593
1731140834.6916914,835.2337019123887,814.4538259439274,811.3389239115069,824.1667309412344
1731140834.692245,865.5202285201669,809.8323510410577,811.9447534929411,835.7786028251578
1731140834.695588,873.7469403725022,805.9424461178165,808.1502141902745,839.17118821515
1731140834.6994853,850.599741078224,803.882850259533,801.2566508415258,831.0633994158109
1731140834.7033818,813.2343118594591,803.6427649529861,794.9279409824986,819.515074639921
1731140834.70722,791.7497416421554,804.7266484992768,792.7786252884046,817.3979965359484
1731140834.7072785,804.6378852110423,806.7744009655221,795.9137173653453,831.355354126923
1731140834.7078185,843.2623681827515,809.4541312274446,802.2590812058054,855.4340652132269
1731140834.7111752,878.1496780166653,811.8322716149997,808.0550055378125,874.6203422604514
1731140834.715072,882.110600495806,812.1805105157788,810.2081745868335,875.51784168421
1731140834.7153838,851.5805459179726,808.8878090926822,807.7813061402214,856.0229253827936
1731140834.7189689,809.0726465201876,801.9786613276947,801.9420518533461,826.92870714493
1731140834.7228656,784.9395384103203,793.8599338887891,794.9986472729437,804.5281762447204
1731140834.7233918,793.3498238097454,788.317891665601,789.4734325837596,799.7038344141162
1731140834.726084,821.9826136150351,788.2091123764185,787.5021705250529,811.2372394115436
1731140834.7267623,843.6183873788931,793.466381562749,790.2526115579019,827.826940412018
1731140834.730659,839.6807812938553,800.9341757474112,797.2825122576634,836.9568578395824
1731140834.7345555,815.7951105828336,806.2431196420929,806.370734406554,833.8122600911653
1731140834.738453,796.1714229909496,806.4568166136313,814.3694082251483,823.5757309111269
1731140834.7389653,801.7266631153884,801.6955675659073,818.8130132719101,815.7273696740448
1731140834.7423494,830.8892223020644,794.7440945231431,819.2292702022643,815.3808663043941
1731140834.744948,859.7469241510474,789.1285831513391,817.2123255795553,818.9798118523864
1731140834.746246,861.6297861339111,787.1093331110125,815.2405600082119,817.8854247963619
1731140834.7501428,829.7383173460988,788.7935373409747,815.0833103343953,806.6658002503938
1731140834.7502828,783.8762076612179,792.5529444625605,816.8039836935658,788.8705479352706
1731140834.7540395,755.4735125426141,796.1380058837718,818.8951621603164,775.0849956567571
1731140834.7545388,762.8738530874621,797.8208383972534,819.3917370666,774.4986352224502
1731140834.7579365,796.883582163133,797.2058438821571,817.2526480669737,786.8868680870733
1731140834.7618332,828.3994684904314,795.4657068854788,813.130696131554,802.0349569286075
1731140834.763812,832.0514796404483,794.7458233030644,809.0193103794861,807.7049000396812
1731140834.76573,806.6437440732386,796.8157801940235,807.0220113668925,799.8164812457486
1731140834.7696266,775.6465086912206,801.743726388282,808.1002552734229,786.0345352659895
1731140834.7701125,767.3472576038712,807.6687336701472,811.6163326035039,779.2401502441535
1731140834.7735236,791.0857764062252,812.0224842131247,815.8472884080409,786.2867861688162
1731140834.7774203,829.1804412531076,813.2974574749644,818.9722340831269,801.9195813545753
1731140834.781317,851.0485454376337,811.9222865900254,819.8568478849028,813.3070159649684
1731140834.7826762,837.7806755967822,809.5933901022729,818.303723097921,811.1800250752846
1731140834.7851815,797.2173847853915,807.7764679523242,814.9036461463994,797.7789012115499
1731140834.7852137,757.6603177103174,806.7337120149455,810.7955758082427,784.7943297369053
1731140834.7856858,745.5762623646152,805.8205146449683,807.4474177994543,783.2546235995645
1731140834.7891104,765.1828740927317,804.5780829814609,806.3074253530982,794.048222728219
1731140834.7930074,796.0756927273342,803.4535939750647,808.2136367817699,806.9708645196678
1731140834.796904,810.5374327152145,803.4074168218358,812.7992649659498,808.9248359219388
1731140834.8008008,796.2297086710867,804.7992243033011,818.3819041870029,794.413317375025
1731140834.8012593,765.571153397051,806.7062250225625,822.5927134015723,769.8599582389332
1731140834.80154,744.2554387941678,807.4573079052633,823.4409855495439,748.5687363982838
1731140834.8046975,748.8991346100178,805.9899245136489,820.177274767808,740.6909103592101
1731140834.8085942,772.806078749689,802.8047123830154,813.5270476531051,746.2372696926867
1731140834.8124912,791.7088307421383,799.6438840456373,805.3449903111907,756.3399552454757
1731140834.816388,784.4353703685714,798.19656662252,798.004641910428,761.2349042431188
1731140834.8168323,751.1523729542256,798.9560846729518,793.7417615176053,758.2319232990023
1731140834.8200805,714.1174773696275,801.0729992040032,793.9806199637393,753.2657106017203
1731140834.8202846,700.2857471319614,803.0936679246337,798.7084774462653,755.0377387120765
1731140834.8204043,719.7004531182636,803.8580048359225,806.2218342713811,766.8147994239583
1731140834.8241813,756.9858313054028,802.9914412534554,813.6773452061677,782.7955653385833
1731140834.828078,783.0600297858214,800.9202944088195,818.4694518950023,792.1832472117255
1731140834.831975,778.1805152235337,798.5826368527489,819.6850373925112,787.758271441621
1731140834.832406,747.9676753498588,796.9690630060596,818.5116338305263,771.937539416719
1731140834.8358717,719.0857049778583,796.6348834516946,817.1229093637791,755.2185415457355
1731140834.8392682,717.5491163703424,797.4384324319117,816.8613443556512,748.1074968872682
1731140834.8397684,747.1511776408541,798.7078785243616,817.2667508750301,753.022656703248
1731140834.8436651,785.8594392601702,799.730084287219,816.8213513902947,762.7109670519454
1731140834.8475618,803.4071270501106,800.2035174880175,814.7172371412511,766.3991087237165
1731140834.8479795,785.8363549953402,800.3849062424797,811.968316229528,758.6991193279049
1731140834.8514588,747.0937645352567,800.93362832066,810.7676824931092,744.2268820900864
1731140834.8549793,718.4525763040334,802.586164675598,812.6245378335385,734.3739927005204
1731140834.8553555,724.3476918917261,805.7443644331696,816.956888122177,738.7137803759654
1731140834.858132,763.6840503633523,810.0730883253616,821.3817805643986,757.495010998001
1731140834.8592522,811.0240065910159,814.3456692445219,823.3838290362702,780.8298183426753
1731140834.8631487,836.4457455028203,816.8116534113655,821.886687718801,795.2949577742125
1731140834.863553,828.3637782576292,816.0783045637797,817.5549710593278,793.2478762870838
1731140834.867046,801.2887788165274,812.0377469066825,811.9463362663895,778.0638910567342
1731140834.8709426,782.4783423429991,806.1600115524733,806.5192899553291,761.3354585162223
1731140834.8748393,788.5964793251924,800.8165292074931,802.2226892826005,753.9739942836335
1731140834.8769965,811.8557901269936,798.0164984707098,799.5459845643114,757.8938515645258
1731140834.878736,827.2748605190123,798.4117324705712,798.5531619758978,764.8459601885563
1731140834.8791263,814.9006043386044,801.1827822298458,798.7936549026036,763.6462359065525
1731140834.8826327,778.1422485353139,804.6870293924267,799.4022165776939,750.2166003719603
1731140834.8865297,742.5275614429363,807.2481794892283,799.5717861966436,732.0194049161212
1731140834.889878,735.5223994994054,807.6183732916294,799.0959105663359,722.5930007526824
1731140834.8904264,763.8908452715694,805.1552239771645,798.4647758223796,730.2562050512129
1731140834.894323,807.3430535011242,800.0210767977869,798.3593181350351,750.6022193847374
1731140834.8947,834.0762428889686,793.4711243764796,798.9675398986514,769.7221454927528
1731140834.8958602,825.9165612352162,787.854984267048,799.7444172452856,775.8365888623812
1731140834.8982198,792.6219041689028,785.8712426117797,799.8377076085889,769.2197235466369
1731140834.9021163,763.3950436029863,789.1607904301893,798.7937402357518,761.3891755046338
1731140834.9060135,762.3848569449788,797.1137418369434,796.9258560562212,764.1034931757079
1731140834.9099102,788.6239080606343,806.9502785215375,795.0742237704607,778.1904663635903
1731140834.9102736,817.4074311650764,815.264897180274,794.0504573207054,792.5538401490065
1731140834.913807,821.8072013007679,819.9499811500449,794.2975375919677,794.2587000146838
1731140834.9147243,795.6581820929279,821.0429975403017,795.9909275288351,780.312022571869
1731140834.9177036,758.4037338008305,820.0483337011063,799.2722998851389,760.4378738292243
1731140834.9216003,738.2752113423631,818.5941734047559,804.1082645787902,748.7476636753275
1731140834.924777,748.8443061637313,817.5541770583716,809.696611033318,752.235515119315
1731140834.9254973,778.922934568825,817.0080672593849,814.055832002175,766.2478200205298
1731140834.9258468,803.5780094657696,816.6692898536681,814.6362733660878,780.1176835358434
1731140834.929394,805.8582662742116,816.28096174602,810.0120984350508,786.979002658829
1731140834.9332907,790.2598530153032,815.7620803693596,801.4893128502986,788.6617358754299
1731140834.9335885,776.8129372430617,815.1587044312855,793.0544518163135,791.7929001344118
1731140834.9371874,781.7570600660011,814.5430038349147,789.2077371013024,799.5787700496663
1731140834.941084,802.229550711503,813.9533672725025,792.0754307961271,807.5014968299112
1731140834.9414203,818.4396020594846,813.3897061698209,800.0422266932937,807.0595022281116
1731140834.944981,811.2276237230411,812.8354585793461,809.0408627731061,793.8694513403528
1731140834.9488778,779.6022479289624,812.2773339544685,815.4779037918332,772.4977843455423
1731140834.9524524,743.2032540404808,811.7117540785861,818.4795852412186,753.7901972761846
1731140834.9527743,727.6113930123954,811.141552561213,819.8194691601483,747.3321251078752
1731140834.9566712,744.3979320870254,810.5705498424128,821.8677615301413,755.2806979016271
1731140834.9569938,781.5439817581496,810.0006047539946,825.4464363164492,771.6680765942779
1731140834.9596758,811.5119563248394,809.4315728607223,829.350175834681,786.6823248393363
1731140834.960568,811.0826452009629,808.8625405226691,831.7299041349307,792.6815892507298
1731140834.964465,778.5873575584382,808.2928367895383,831.920912177389,788.6696381166582
1731140834.9683616,735.8010743745147,807.7223179729639,830.9985067463944,780.9975789742256
1731140834.9713163,712.471780856209,807.1511612617636,830.5904798791902,779.4294236549293
1731140834.9722583,724.344511829508,806.5795742674927,831.1434574046596,790.1471257037877
1731140834.972567,761.2641766559525,806.0076473964815,831.3841996094791,810.1864467306794
1731140834.976155,795.0946070833579,805.4353597801833,829.5801783104882,828.1781368711992
1731140834.980052,801.8314582502428,804.8626532327362,825.4308350868108,832.057336308991
1731140834.9839487,780.4687405636535,804.2895001401771,820.7414982124426,818.3136359901378
1731140834.9878454,753.3325017057828,803.7159334104307,818.1571353404182,795.2681493419212
1731140834.9881408,747.6219270400395,803.142029311217,819.078586641828,777.488840951556
1731140834.9901805,773.2530256295576,802.5678416447527,822.6378739451073,775.7833210326937
1731140834.991742,814.9032758000941,801.9933109690046,826.5811555218911,790.5338532616292
1731140834.9945748,844.4829123244073,801.4182262776214,829.1652647375797,812.9174218416279
1731140834.9956388,843.8981030227262,800.8423503564221,830.3614195257844,832.2025970207953
1731140834.9995358,819.717802717854,800.2657415974445,831.4065216584753,843.1017421110367
1731140835.0034325,797.563145553149,799.6890694088706,833.2457336913468,847.777245976225
1731140835.0037143,800.322864769182,799.1134606249805,835.3247958698518,851.5998762401495
1731140835.0073292,828.069550785336,798.5394797260681,835.8095507188084,856.7643539367482
1731140835.0090444,857.025751265189,797.9655757548471,833.0566727125974,859.5992635513787
1731140835.011226,859.413943309238,797.38754508161,827.119367543791,854.2151200424263
1731140835.015123,828.0176831935606,796.8011380169318,820.052559456383,839.3407556618113
1731140835.0190196,784.4697846836896,796.2081909391724,814.7171845752412,821.8631304129121
1731140835.0192878,763.4886994770408,795.6220483083158,812.903060563727,813.1041616199028
1731140835.0229163,785.4900867188088,795.063455927463,814.0847948292133,820.3316527788365
1731140835.026813,839.8271291129934,794.5402708711895,815.7060354535527,840.5491747985067
1731140835.0279086,892.1506651714328,794.0190639249802,814.8761406201348,861.9930233164235
1731140835.0294735,909.8872293836678,793.4192889166303,810.3959039722912,872.4204893459513
1731140835.0307095,885.7905586136062,792.6688858871211,803.6998128461474,867.7418588106399
1731140835.0346065,841.5893241342005,791.823382706012,797.9144412098113,854.3262926019271
1731140835.034861,809.5934760144219,791.1638991448035,795.5584670589369,843.3547052619164
1731140835.0385034,807.3106360896145,791.116852861244,796.5757765642668,841.8405637252886
1731140835.0424,825.3985786367791,791.9163448604488,798.3430471175385,847.5240525541111
1731140835.0462968,838.2502829682537,793.2262473366625,797.8022081405823,851.6583097576429
1731140835.0467725,827.7668746506243,794.1839313586919,794.0652520144657,847.1917710981594
1731140835.0501935,799.9461345635317,794.05842012768,789.3386765718012,835.3569403016432
1731140835.0504346,780.2081348454392,793.0251948277314,787.3530337336886,825.0503242799132
1731140835.0540905,791.5498264232954,792.2582055120138,790.5302986773704,825.5050276758358
1731140835.0579872,834.0702236898185,793.108016512549,798.1169606730502,838.4001552402553
1731140835.061884,883.0351930841393,796.0143418989772,806.6528343301726,855.9798636678264
1731140835.0643723,907.1272887529171,800.0794998680087,812.2521445368873,866.7556698286728
1731140835.0656366,892.1625005151574,803.6597198827942,812.8798305727541,864.215261181641
1731140835.0657806,851.5038536703196,805.481413158667,809.0835000184973,851.6235306151431
1731140835.066008,815.188518045429,805.4007095435355,803.0261096921453,839.1465208980527
1731140835.0696774,806.496986027702,804.2756024012103,796.8766614374803,835.5872803298769
1731140835.073574,824.5104557694214,803.1827331758549,791.7909280766207,841.3560696551091
1731140835.077471,846.5297789937173,802.7063317468019,787.9707983495281,848.4641968989398
1731140835.0813675,848.2186021916597,802.8048063065642,785.3667085682995,847.6500786041482
1731140835.0815816,824.5681326362394,803.1382281397902,784.1904158583707,836.6302354232475
1731140835.0845006,793.9489187287342,803.425840756524,784.7684223063239,822.3037602996936
1731140835.0852644,781.9474306128382,803.5796312037788,787.0031780890839,814.9379717085317
1731140835.0891612,799.0432420324072,803.6467964347308,790.1064789809335,819.427722527784
1731140835.093058,831.2548280760466,803.7023140888582,792.9554260291717,831.1891469523629
1731140835.0969548,851.4986569727937,803.7859884609816,794.7643609703307,839.9699763156492
1731140835.097155,841.8868373570141,803.8975573636695,795.4685615613142,838.0111162198924
1731140835.0992713,808.5073596778115,804.0196851162154,795.541037744333,825.7493393849048
1731140835.1008515,776.8924109983723,804.1385335290975,795.5106521744392,810.8886972513928
1731140835.1033647,772.0037601093344,804.2504250038926,795.6539590014517,802.1903770239137
1731140835.1047482,798.5511806476302,804.358360043868,796.051183159196,803.0753739611599
1731140835.108645,837.0756547301088,804.4663485430386,796.7854633680042,809.7603196155362
1731140835.112542,859.0926732388148,804.5763428820144,797.9709560573106,815.0126440075919
1731140835.1127286,849.6587723912314,804.6882053013055,799.5808659026862,814.3908290562376
1731140835.1164386,819.4000843442648,804.8009995125368,801.3293196642123,809.9220429650553
1731140835.120335,795.959877240573,804.9140442930882,802.7916387934855,808.149849720497
1731140835.1222286,801.4386638699015,805.0272068541466,803.6587410379632,814.1756388050458
1731140835.124232,834.2251495334576,805.1406872171603,803.9150301969063,826.9292310441926
1731140835.1281288,870.3035486842612,805.2547195997377,803.8776422589573,839.9823003873328
1731140835.128302,882.9879019362158,805.3694241598857,804.1182391820604,847.2123358762566
1731140835.1320257,864.6317638137665,805.4848124792231,805.1817408161421,848.068469620568
1731140835.13417,832.3098427028843,805.600850366132,807.0505339166715,847.5038363814518
1731140835.1359224,813.0262641979381,805.7175042377423,808.6891701243566,850.6291949594925
1731140835.1398191,821.1280394923642,805.8347604469113,808.3050011705765,857.1029475780547
1731140835.1410928,846.9498001603661,805.9526419344609,804.5540535900195,860.6241744010572
1731140835.143716,866.1129847021521,806.0712317880916,797.9505213494244,854.4127988694759
1731140835.1438756,861.3954751817894,806.1906706739592,791.1896076653202,838.2002559637332
1731140835.1476126,838.2833396010756,806.3110747465075,787.7477536852173,820.5173168352076
1731140835.1515095,820.4933492134797,806.4323731888375,789.5753221748523,813.5050503756216
1731140835.1554062,828.9281403962959,806.5541927452707,795.6221860383513,823.602540708188
1731140835.1593027,862.1333784448149,806.6760239667852,802.3981211374175,845.40486003881
1731140835.1594489,895.451621015457,806.7978057690008,806.1894069216803,864.1502635205367
1731140835.1599567,900.1970884163245,806.9206351509475,805.3200722618952,865.7034023900038
1731140835.1631997,867.1089661048355,807.0467357871124,800.9560114927677,846.7955541874359
1731140835.1670964,814.7185713330604,807.177746786604,796.1319457206919,817.7366542924269
1731140835.1690688,775.7674671258794,807.3115901526312,793.8606337244196,795.3633376289146
1731140835.170993,772.6295315215406,807.4405852845742,795.5635790127365,791.3003186895608
1731140835.17489,801.2109076972117,807.5552062012894,800.6211676687319,804.0777654287052
1731140835.1750224,835.4718516347299,807.6555059283894,807.046230722499,820.6993107366577
1731140835.1787868,847.9151966340795,807.7637738263638,812.6560036672411,826.219789365116
1731140835.1788208,829.0487560143044,807.9216692248053,815.984661797291,814.0885993500613
1731140835.1826837,791.0211830419177,808.1554292596815,816.551617488724,789.714702087534
1731140835.1865804,754.9932884399997,808.4174507840646,814.636960975278,765.1660905418161
1731140835.1904771,735.0947767242817,808.558053687445,810.9731507323283,750.0362282364501
1731140835.190596,731.9763709843035,808.4092049291738,806.6018412311818,746.1266418579104
1731140835.1943738,737.7042238482933,808.0091524979654,802.8273510516666,749.0645488121802
1731140835.1976848,744.1782440855835,807.8349211604657,801.0496680909596,753.4010617211634
1731140835.1982706,747.7269604798911,808.7353602037704,802.3451106400765,756.1566115762878
1731140835.2021673,748.6941784043523,811.3271039608385,806.8574173668749,757.1211412831287
1731140835.2039678,748.875579603017,815.1220192983362,813.2892291739852,757.3564127912028
1731140835.2060642,749.5497584674342,818.2360307500192,818.975988488895,757.7913147969485
1731140835.2061694,750.9680162201305,818.3446487437857,820.9295644145063,758.7120764576345
1731140835.2099607,752.7811749353166,814.4268411441758,817.6079371886257,759.9482639930018
1731140835.2138577,754.5996032650381,807.8702821317627,810.2968274963741,761.2392193394801
1731140835.2165487,756.2596497539132,801.8319646519844,802.7855556813051,762.4483125917052
1731140835.2177544,757.7971054135857,799.1677628453333,799.0935403982616,763.5776552275519
1731140835.2216513,759.311223881511,800.4855545316356,800.7012553691783,764.687770719562
1731140835.2217429,760.8666333413789,803.8345733320514,805.4766902766066,765.82657910945
1731140835.225548,762.4728134811953,806.2479132426896,809.3235138450765,767.0067489585873
1731140835.2294447,764.1097318748061,805.9045829644847,809.3415151759981,768.2179871635798
1731140835.2333417,765.7573012723316,803.2643294482606,805.9574849577984,769.4466659195314
1731140835.2354128,767.4080729815099,800.4283314001354,802.3272198755443,770.6863395083651
1731140835.2372382,769.0647933393798,799.3816343923606,801.6388390525071,771.9377739811503
1731140835.2373164,770.7329807079127,800.5366482191592,804.6845082181405,773.2044506411372
1731140835.2388666,772.4160003155308,802.6042580733383,809.6444115650886,774.4889336170817
1731140835.241135,774.1142902272132,803.7118917205892,813.9000081694026,775.7918785188855
1731140835.2450318,775.8268553224511,802.792757322169,815.9870799545076,777.1127957395191
1731140835.2489283,777.5528025879014,800.2257604092218,816.1211893281945,778.4510909791406
1731140835.2528253,779.2919344842022,797.4165019224558,815.3858757650667,779.8065746315917
1731140835.25289,781.0445660394878,795.8150154621156,814.7087601518392,781.1794243651246
1731140835.2542768,782.8111221852718,796.1415455078273,814.425708094873,782.5699359113415
1731140835.256722,784.5918929910333,798.2541608083852,814.4262081993282,783.9783387541222
1731140835.2606187,786.3870119571466,801.5458835718227,814.4827305711918,785.4047555634282
1731140835.2645156,788.1965461375737,805.4375220018468,814.4614963305837,786.8492494791142
1731140835.2684124,790.0205771866101,809.5798713008653,814.3532205405254,788.3118792953004
1731140835.2684634,791.8592206715242,813.6866848458477,814.2081248342188,789.7927212305859
1731140835.2723093,793.7125951700478,817.2627015364302,814.0706881543174,791.291859031327
1731140835.273141,795.5807839956269,819.6100539538521,813.9551454703255,792.8093650558592
1731140835.2737656,797.4638350563441,820.2471837729793,813.8538396165866,794.3452948526062
1731140835.2762058,799.3618215278814,819.4229406339088,813.7544852634587,795.8997049417304
1731140835.2801025,801.2749332460739,818.1888238693115,813.6504795560987,797.472682706769
1731140835.2839994,803.2035005372783,817.8076876343753,813.541782627113,799.0643549261623
1731140835.2840366,805.1478308552541,818.902951688918,813.4311949606135,800.6748361082913
1731140835.2878962,807.1078536756152,821.0578189035521,813.320982331784,802.3041159325057
1731140835.2917929,809.0828384846808,823.1837499307144,813.2117590139403,803.9519709924406
1731140835.2920048,811.0716923776803,824.266026265186,813.103039453605,805.6180614303807
1731140835.2956896,813.0741718201807,823.82603508683,812.9941623845433,807.3023161861408
1731140835.2995863,815.0924584207092,821.8748347561932,812.8847976030361,809.0054287066615
1731140835.29961,817.1312904943563,818.7026595883718,812.7749567057261,810.7288886093778
1731140835.3034832,819.1945435075075,814.8687297900835,812.6647839041451,812.4738876755947
1731140835.30738,821.2785198957652,811.2808685138048,812.5543830122448,814.2391973524457
1731140835.3086643,823.3673376669097,808.9793896491863,812.4437680819726,816.0197388610582
1731140835.310869,825.4399052550903,808.5737727060695,812.3328980272574,817.8088431407144
1731140835.311277,827.4937125562475,809.8083820715217,812.2217257118454,819.6058098241035
1731140835.3151734,829.5731599897931,811.7434755183986,812.1102225809321,821.4248058690642
1731140835.3151836,831.7672624867339,813.4348550930882,811.9983773895647,823.2939445992898
1731140835.3190703,834.1394375630738,814.4585084663629,811.8861845917186,825.2328568283691
1731140835.3229673,836.6013412526789,814.8081169285564,811.7736355408216,827.2128246888386
1731140835.3268638,838.839902586175,814.4116732937852,811.6607163982218,829.1342908963614
1731140835.329733,840.4741014126062,812.9312982571172,811.5474102337249,830.8774588685467
1731140835.3307571,841.5180549754218,810.1322395041701,811.4336996181128,832.4492972994268
1731140835.3307605,842.8826641535773,806.387216413377,811.3195678104731,834.1408664698549
1731140835.3346572,846.2349855367263,802.67845837401,811.204998603495,836.4791331910072
1731140835.338554,852.5593168074879,800.0062220873581,811.0899756929861,839.7681772234178
1731140835.3424509,859.7635385401728,798.758620590096,810.9744822417686,843.3342786745831
1731140835.3435633,861.4639478183033,798.6049756282257,810.8585008050713,845.1555847894059
1731140835.3463306,850.0325465706997,798.9013480547591,810.7420134639223,842.851338183828
1731140835.3463476,824.3750175824949,799.1555304102599,810.6250019711883,836.1699466291952
1731140835.348597,796.3598733360536,799.203692004778,810.5074478189792,829.0280686687213
1731140835.3502443,786.3711532527371,799.1110710117474,810.3893322377724,828.0025356386681
1731140835.354141,807.0079388097255,798.9958943314931,810.2706361745718,836.854263420551
1731140835.358038,848.7495616709933,798.9237493142801,810.1513402835137,851.6020185574148
1731140835.361904,883.6862773215162,798.8961016244899,810.0314249356455,861.8382103097873
1731140835.361935,887.137980915845,798.8857595588645,809.9108702397309,858.7095211658843
1731140835.3658314,858.7957610161442,798.8701321824666,809.7896560657142,843.1351300592303
1731140835.367461,824.0152167089942,798.8426851096793,809.6677620677459,826.5226021969077
1731140835.369728,813.2290627825346,798.8078433500045,809.5451677055863,822.3943857602254
1731140835.3736248,836.834555350451,798.7719564518452,809.4218522601408,835.6029242960313
1731140835.3774776,876.8139149716836,798.7382139204051,809.2977948368286,858.3845110983407
1731140835.3775218,901.8423972961896,798.7064347995433,809.172974357957,876.7026884270183
1731140835.378462,892.9577173020358,798.6750835275175,809.0473695638404,881.4210712219913
1731140835.3814185,858.6540060063625,798.6429830211985,808.920959057918,874.9080737015287
1731140835.3853152,827.5021190876805,798.6098271306677,808.7937214154675,867.9198232177062
1731140835.3863251,824.7560398487566,798.5758567716559,808.6656353097827,869.8705335848787
1731140835.389212,852.0364546573371,798.5413790471216,808.5366795232935,880.7731686252808
1731140835.393051,886.3816462912986,798.506519700186,808.406832702719,891.3660031894748
1731140835.3931086,899.1893524231109,798.4712309891976,808.2760729027754,891.1405739298714
1731140835.3970056,879.4777480116892,798.4354044960378,808.1443773297717,877.6630421203756
1731140835.4009025,842.5388677303199,798.3989576463672,808.0117229518595,859.5684701412075
1731140835.404799,817.254304883602,798.3618530470554,807.8780882676343,850.6146863056631
1731140835.405189,822.8422711960035,798.3240755812832,807.7434552280439,859.262214445911
1731140835.4086244,853.929479271532,798.2856075223212,807.6078087505941,881.8091320189507
1731140835.4086957,885.3607167338628,798.2464248443897,807.4711313677188,904.407887928146
1731140835.4125926,892.1494556131748,798.2065128076222,807.3333943638497,912.5547855237877
