timestamps,eeg_1,eeg_2,eeg_3,eeg_4
1731652644.4947467,808.709489567332,821.968636852566,824.2254992332394,772.6157584268849
1731652644.5035384,805.7116644494647,822.0033184706956,823.4407193418481,769.4968487841641
1731652644.5137558,821.2609888955541,822.332821843831,821.7974862504358,776.4206636700098
1731652644.514367,858.1960038081608,822.8064159998845,819.6748292325017,795.9180571976875
1731652644.5182662,899.7381083817572,822.6893400491701,818.7782091414712,820.5155367971828
1731652644.5221653,920.8530831980308,820.989492924468,820.8911737593835,837.2087136409853
1731652644.5223844,907.0918612869405,817.1377517827747,826.2289038280828,836.2821317160735
1731652644.5260644,866.9216309521719,811.6154514566852,832.7086491348464,818.6095047608808
1731652644.5293334,827.6255702857152,806.0199949391313,836.8100280050414,796.0973781411493
1731652644.5296664,816.7861689756064,802.3385704732516,835.5956850918387,784.3275836936848
1731652644.5299635,842.4814439924149,801.7821104198943,828.6800760119291,791.981404892261
1731652644.5338626,887.111414833076,803.9899717302752,818.8845201748866,814.444283815079
1731652644.5377617,920.1923516284179,807.2708475112855,810.9922580076181,836.6591861874844
1731652644.541231,920.9394854896534,809.7754561520599,809.130742325535,843.7742798471255
1731652644.5416608,893.2190639825224,810.7205381620947,814.2919747130618,831.9187026376828
1731652644.544911,861.0030070399835,810.7407265816018,823.6456013505209,810.7386946192102
1731652644.54556,848.189632006177,811.2046209423579,832.2667650344896,795.4523871912915
1731652644.549459,859.5360962241057,813.1628872648528,836.2149830130852,794.5893187009591
1731652644.553358,878.2707699975726,816.7338363355091,834.8005551303589,803.2746986904571
1731652644.5572572,881.7037712962127,821.1730771173493,830.4052283120031,807.5679234016498
1731652644.5600767,861.2017923500509,825.2970287082101,826.1655329889339,796.4150913298932
1731652644.5604882,829.8050236392406,827.8858730701228,823.5767718345214,771.5811300768446
1731652644.5611565,811.5080118513981,828.0281799380275,821.9965381627954,747.488621136265
1731652644.564586,821.3394429833787,825.516799393882,820.1529047627216,740.8342284589546
1731652644.5650554,852.6060970836319,821.1396617825694,817.9190864926089,757.893503299551
1731652644.5689545,881.6895883538261,816.4635484708419,816.5876467050208,789.3939745187618
1731652644.5728536,886.6295543393758,813.0064600576032,817.5560739204384,817.1328456834431
1731652644.5760655,864.5820767954393,811.3634170142577,820.9063146612998,827.3248263583821
1731652644.576753,834.008341393925,811.0903000035634,825.2797512279607,820.2223165032021
1731652644.578923,819.713517899836,811.5066464700187,829.0004704309508,808.5354410576712
1731652644.5806518,832.8038066565629,812.6275692443876,831.2005487578125,806.3307952605314
1731652644.5845509,861.7956645375216,815.2194864704779,831.900032375763,817.6873409624194
1731652644.58845,881.9816274427025,819.8182700831152,831.2099679471758,834.0808884546913
1731652644.591643,875.3077583054585,825.657306581909,828.7472740490346,841.9358619136175
1731652644.5923493,844.7716727122805,830.7055904225388,824.082954456922,833.7438191460936
1731652644.5962484,812.2346140361678,833.0622886530628,817.8785572945998,814.0288260411397
1731652644.597769,801.9116839782675,832.594828861566,812.4459729776434,796.0729775515173
1731652644.5995057,822.5210675667626,831.2473988764355,810.7656529584503,792.289996285581
1731652644.6001475,861.3043314612943,831.4930210961886,814.3936641280463,805.3094275514386
1731652644.6040466,893.7952568014175,834.1274267574913,821.9403316428968,825.979645452001
1731652644.6072204,901.641473722828,837.3563807098508,829.6187889265791,839.6379924443936
1731652644.6079457,885.0195279577406,838.0613963080626,833.6909896233291,836.1829965768185
1731652644.6118448,860.3672888076599,834.1917109833877,832.9278440904585,816.5765590578307
1731652644.615744,845.7147297110233,826.2859159395628,829.1073909298251,790.9762728277925
1731652644.6166153,846.0443687670708,817.0108400826432,825.2705686381931,770.3158047410452
1731652644.619643,850.9998144894747,809.3176859126864,823.345891099967,758.4272791412088
1731652644.622798,846.3540637094401,804.7371381036446,823.0922998890754,750.9755846740569
1731652644.623542,828.489435839228,802.9120532254194,822.9461800998487,741.3162903297348
1731652644.6274412,808.8000424297184,802.417014593665,821.7288026250831,727.5975650687461
1731652644.6313405,804.2887096083701,802.1298768212444,819.6922685131132,714.9510451926031
1731652644.6344252,822.7891301317572,802.2017585804748,818.1870390970129,711.2065939114486
1731652644.6352394,855.4575556192665,803.9476436432615,818.4014589625658,719.8862163594813
1731652644.635461,882.6478266032294,808.6583485179252,820.2449833558222,736.2229493430737
1731652644.6383753,888.354339168721,816.1551472124054,822.2567541621936,749.6021460908057
1731652644.6391385,871.8902023095465,824.2810103628848,822.6654067928258,750.9689467817441
1731652644.6430376,847.8093752784151,829.9516252259853,820.8540706459504,739.6908266524188
1731652644.646937,834.2115620786483,831.1384704536862,818.0544074859289,724.2708364782187
1731652644.6508358,838.706562470252,828.2645446245896,816.567608281592,715.9112161304124
1731652644.6539528,853.2909850958087,823.8619536588476,818.0204086726111,719.9511515928441
1731652644.6543076,862.167731766907,820.7470059406363,822.1045161342211,732.3182975937257
1731652644.6547348,855.785575699113,820.1718460833429,826.9081127144814,743.9555864917292
1731652644.658634,839.215993088281,821.3522037432656,830.5128587043632,749.1839181899182
1731652644.662533,827.8647795848545,822.5728553131646,832.3841400318679,750.5136036915645
1731652644.666432,834.1533659756433,822.828196820682,833.3669348208672,755.6874611186527
1731652644.669345,856.1990736075775,822.6623148981506,834.4678611772448,769.6934452531821
1731652644.6695302,877.8487823525271,823.6296036089609,835.6560618902247,788.8915678549928
1731652644.6703312,880.3995330470407,826.8822263875912,835.7304774228932,802.5540915805173
1731652644.6731536,857.0894169941367,831.9745379745797,833.2632973407364,800.8322902584717
1731652644.6742303,818.908537913524,836.7475136220063,827.7911722856124,782.7842075878816
1731652644.6781294,786.6443882683209,838.4039509845221,820.386111628636,757.9434395036404
1731652644.6820283,775.0456963318027,835.1357978955792,813.2866440187366,740.010741965865
1731652644.6851077,781.9439551852734,827.3294821210459,808.8685769588685,737.5057206804464
1731652644.6859276,791.5653832156697,817.5982738787892,808.5438146702469,748.5895446490231
1731652644.6898267,789.264091200407,809.5465891572633,812.1430575926768,763.8108781423783
1731652644.692,774.8555026199225,805.9124712404046,818.0488489690714,774.0973470365872
1731652644.6937258,762.898159179985,807.1322728057087,823.9490657537463,777.288701253095
1731652644.6976247,769.7241829053899,811.1657899521313,827.7849556253362,778.1642423739173
1731652644.700685,798.4357947556821,814.711804559635,828.439988147226,782.6201761621827
1731652644.701524,834.6266607546189,815.1394273322368,825.9440817760199,791.4318530474625
1731652644.7042642,856.4992630071615,812.0245716177839,821.2646595338612,799.0090168518011
1731652644.705423,851.3231060461625,807.3843223660742,815.9226156882918,798.0752810158137
1731652644.7093222,825.1809478489082,804.452524836602,811.635089127531,786.2000788119324
1731652644.710846,798.257952892975,805.6842569586763,810.0098165854541,768.6399615416332
1731652644.7132213,789.2629262777513,811.0938697101142,812.1566659029505,755.0299871137992
1731652644.7162626,801.1988497148375,817.8370674465472,818.1390374643893,752.4978139196645
1731652644.7171204,819.7975489505225,821.3581046872288,826.5095606979651,760.6768498700599
1731652644.7210195,825.8802497088913,817.7198720326641,834.455037122204,772.522971553306
1731652644.7249186,811.5350685744862,806.0756143798579,838.857043286662,780.0696339367931
1731652644.7288177,786.750987748648,789.8811960191556,837.8510212432811,780.2894138548395
1731652644.7296922,771.0351922986905,775.8169890507951,831.8923109293087,776.4587244803187
1731652644.73184,777.0407844945721,770.6138979625277,823.5511774884313,774.5057404880775
1731652644.7327168,799.7703578359589,777.4158962801481,816.1265099072087,777.9535387977398
1731652644.736616,820.2067649621949,793.8761611399872,811.953399815856,785.6760350947685
1731652644.7391837,820.4541343286993,813.2662222809795,811.4243520368433,793.6840725912622
1731652644.7405152,798.2085608721244,827.9789898675077,813.2388365043138,798.6316557643429
1731652644.7444143,768.8274467678921,833.2801429568591,815.593201878274,799.847084354254
1731652644.7474174,753.1089508798216,829.1531522158812,817.4053307550313,798.7895281563134
1731652644.7483134,760.5221503035864,819.508789318801,818.6777510950458,797.2877256544866
1731652644.7485385,781.6524662653031,809.6606472160663,819.8211667477927,796.3353404462689
1731652644.7522123,796.3277975026389,803.6419486185516,820.675771831895,795.9949736773044
1731652644.7561116,790.8482953112771,802.5744071818629,820.2725812735009,795.9057551296954
1731652644.7600107,769.8191319590343,804.5913765890225,817.7011097564166,795.7554185437488
1731652644.7629948,752.3434548632135,806.2169217892201,813.337204692855,795.4493635367422
1731652644.7639098,755.540129391833,804.5298160053858,809.2079619716278,795.0461866975985
1731652644.7673843,779.3040036615421,798.9351903195139,807.9787305771314,794.6338806583205
1731652644.767809,805.4204690726405,791.4422033127086,811.299847392431,794.2581336600995
1731652644.771708,812.1525077916102,785.3211180148796,818.8063416239485,793.9179046255534
1731652644.7741032,792.3572044108846,783.2355580514652,828.4087561471454,793.5927060257319
1731652644.775607,760.0334460666405,786.2329734135036,837.4051439639285,793.2664767636929
1731652644.7785723,739.6185075744452,793.9796908588788,843.5056853610623,792.9350751528108
1731652644.7795062,746.5727344891593,805.4089682030485,845.3373820345826,792.6020497669639
1731652644.7834053,775.0831248963266,818.8527577967628,842.6433770046755,792.2720143352739
1731652644.7862306,803.0340659886576,831.7786940524592,836.4658200956904,791.9471335175643
1731652644.7873044,810.2998238315894,841.0983024363644,829.1557280469859,791.6271443064708
1731652644.7912035,795.3800292041378,844.526583151594,823.7468085386266,791.310886318422
1731652644.7941496,776.5734248502639,842.1298732028797,822.5691800405092,790.9975230571705
1731652644.7951026,776.5397831755906,836.5630208558946,825.7797873362756,790.6868586838951
1731652644.7990017,802.8893492970774,831.4558798529314,830.9671224329093,790.3790553086732
1731652644.8029008,840.8250900256314,829.1278340514208,834.4683119831716,790.0742653069017
1731652644.8050768,863.9913261653724,829.5068184854946,833.7242054224353,789.7724791990469
1731652644.8068,854.8757234878912,830.9619202991911,829.0012768908497,789.4736122978034
1731652644.809023,818.5518985504305,831.9545983108318,823.1366087680874,789.1776835097623
1731652644.8097272,779.0126606572217,831.9735765717043,819.4668981110003,788.8848850329723
1731652644.810699,761.0791599660052,831.3483018448987,819.5291191430784,788.5953907661265
1731652644.814598,772.0649842856811,830.603509368781,822.2402351485835,788.3089382590514
1731652644.8184972,797.4591259056566,830.0329393171593,824.9921244897664,788.0245340590676
1731652644.8223965,813.7300410476132,829.6517192317141,825.5824613236389,787.7408645267911
1731652644.8239229,807.6106210666183,829.3471473719553,823.4655093899454,787.4577244965765
1731652644.8253045,786.0828401429164,829.0224532864403,819.6774939449525,787.1777203428171
1731652644.8262954,769.215541477615,828.648335772695,815.935521817573,786.9061335276169
1731652644.8301945,772.428014907155,828.2428610068837,813.7355625124865,786.6467083185103
1731652644.8340936,793.3679899065131,827.8331941731531,813.8076089389832,786.3940857660763
1731652644.837993,814.1978416523207,827.4334553478418,815.8737264186607,786.1294358858776
1731652644.840882,816.8304991627274,827.0433492492956,818.7361800886132,785.829879598439
1731652644.8418918,798.0904015814656,826.6565825023907,820.867250664355,785.4962956171438
1731652644.8427691,772.4576949924946,826.2682291491999,821.3779430409086,785.1834787739452
1731652644.8439424,760.5489152579778,825.8770421102943,820.7334099600139,784.9919332018756
1731652644.8457909,772.7238509749881,825.4841480886491,820.5306295702144,784.9823539002198
1731652644.84969,800.6739355682697,825.091003464092,822.3065354974653,785.0346060754358
1731652644.8535893,823.5705180804227,824.6983097342892,826.1905309791176,784.7827250975007
1731652644.8564594,824.1894768389766,824.3060190020016,830.4893581352529,783.8217248183136
1731652644.8574882,802.5160127931358,823.9138045213753,832.686249796007,782.2475369758954
1731652644.8613873,775.8756126298013,823.5214371655329,831.2531333799691,781.1913781546021
1731652644.8616152,765.0859865464952,823.1288863781579,826.9342738957188,782.5775529993192
1731652644.8652864,777.5452215943254,822.7362397933076,822.418481448293,787.4672617625158
1731652644.8691854,801.0510184586813,822.3435950886354,820.5149820101285,793.6452739219981
1731652644.8720367,813.6331694523277,821.9510069733144,822.1845484774566,795.0029887841163
1731652644.8730843,801.5900401479417,821.5584901546156,825.9530050597283,785.1470941130812
1731652644.8769836,771.1354927532699,821.1660440912219,829.1059276605283,763.673377513555
1731652644.878862,744.1813271491105,820.773672804994,829.6192389051054,739.2890339691676
1731652644.8804617,741.4838037305981,820.3813933295369,827.3268513620889,725.4042235823606
1731652644.8808827,766.422652708159,819.9892371640354,823.672574948335,730.5810612071534
1731652644.8847818,802.2776931781282,819.5972464301424,820.5953811518239,751.4830189834943
1731652644.8876145,825.3462726181732,819.2054601833089,819.528148999127,774.5426962366912
1731652644.8886812,823.5490315676506,818.8138895784463,820.9929230627578,785.6220542081971
1731652644.8925805,805.3615189309166,818.422497981404,824.6344987615438,780.2380952056347
1731652644.8964794,791.5659844905579,818.0312207819659,829.4208374217541,766.1783878362611
1731652644.8993075,796.7854428584843,817.6400504315637,833.9794822986273,756.4366380147572
1731652644.9003785,816.693580576081,817.2491512453174,837.0715968302769,758.3040473810414
1731652644.9031918,831.9682481404448,816.8588771593411,837.9792086250378,767.4728866532764
1731652644.9042776,825.49815904872,816.469537663323,836.5634550913488,771.7847379439307
1731652644.908177,797.9561662421086,816.0809176642671,833.0922349755639,761.5162430129909
1731652644.9120758,768.4984626970441,815.6919225599995,828.1640071511224,738.0611015333379
1731652644.9137814,760.1280909215084,815.3010305344573,822.8081451133307,714.1921735006981
1731652644.9159749,781.8230910223023,814.9079654546584,818.4629762852002,705.4725508862008
1731652644.9181538,821.6117134582524,814.5157777028198,816.578125191526,719.0141644114856
1731652644.9187691,855.6234821904,814.1308491216505,818.0172532296925,747.9210561454007
1731652644.919874,865.7369551505104,813.7580608677075,822.6887836411256,775.819085077154
1731652644.9237733,852.1758949633733,813.391731254948,829.6120404983143,788.3807402832527
1731652644.927672,831.5369778007828,813.0098835398953,837.2485047708664,783.0600667242448
1731652644.9315712,822.1873439986937,812.5845865342991,843.8323651816394,769.2640676197378
1731652644.934347,829.1586061959636,812.114634785002,847.6481265224172,759.0023734684881
1731652644.9354703,841.1287523275751,811.6626268876579,847.3957495399873,756.3763062021411
1731652644.9369998,841.7716794205631,811.3481644865767,842.7021794750643,755.2600716661376
1731652644.9393694,825.2602541009902,811.248201361674,834.563756440731,746.8349851565392
1731652644.9432683,802.197623797658,811.2242370726701,825.3358919313437,729.4992235704872
1731652644.9471676,790.8846946514587,810.824370502792,818.0354724377265,711.7746562546967
1731652644.948701,801.6625205025047,809.4829857802683,815.1172601061473,705.5889743323373
1731652644.949924,827.7508201881474,807.0644171353615,817.2636593149583,716.030076564955
1731652644.9510667,850.176906529206,804.3409832345154,822.861419341462,736.5721608219609
1731652644.9549658,852.6534908421118,802.7619059763632,828.6311391357966,753.9026078654011
1731652644.955846,834.3425753736047,803.4387837427557,831.3146485130065,758.3953829348103
1731652644.9588647,810.2461424322871,806.180822842189,829.5869788896813,751.5995878866621
1731652644.962764,798.8231174000589,809.5034788536423,824.9478653845742,744.4785063696752
1731652644.9655015,806.7494802609234,811.6520814578444,820.8019398751227,747.7339951924871
1731652644.9666631,823.358710959571,811.8152086248374,820.167785990064,762.3188678561792
1731652644.9705622,829.6807947702001,810.614971397665,823.5569735391858,778.3505137588171
1731652644.9744613,814.9023979211336,809.5793783331109,828.5634829912984,783.5769272406548
1731652644.974692,786.5511497592043,810.0687958980292,831.5195826031045,774.2256254826599
1731652644.9783604,765.5954236054381,812.4756252153958,830.1044555042922,758.9033570264404
1731652644.9810789,770.0506372382995,816.2174080325548,825.1049523086618,752.1774579777149
1731652644.9822595,800.1886102822774,820.3648811188785,820.0610686040417,763.1656761190656
1731652644.9836204,837.2811259941262,824.2633108647059,818.925939681399,788.3744525175264
1731652644.9861586,857.1565133509159,827.6329712130866,823.2701196994204,814.2970355193455
1731652644.9900577,848.2325546204073,830.2225497021107,831.0106566777267,827.4790761570956
1731652644.9935384,820.0438103410092,831.5334389082948,837.6692031851396,824.1473790718182
1731652644.9939568,795.4945653150055,830.9933318146544,839.3104937631464,812.1096658060227
1731652644.9966564,792.8609328771447,828.4280449540605,835.0120003628147,803.7442605133677
1731652644.997856,811.944453781605,824.3466237456757,827.1225085706707,805.8185645715209
1731652645.001755,835.5584645466425,819.7353616964333,819.3798652771196,814.2799175115282
1731652645.005654,844.8027817368416,815.5138055287428,814.5693528995922,818.0721292895615
1731652645.0095532,834.9704822382928,812.0848602244424,813.4260684651151,808.6554651955701
1731652645.0122335,818.645508748704,809.3096493264471,815.1080334103802,787.3400047328446
1731652645.0123844,813.8491512987421,806.902811371006,818.2819999659611,764.5702704689016
1731652645.0134523,827.8496564271039,804.9439526308518,821.8200272317986,751.985347362982
1731652645.0173514,850.4859990832242,804.1174932449977,824.9541659921184,753.6830128384056
1731652645.01854,862.4600448848917,805.4612496245435,827.2826539343621,763.3621685049618
1731652645.0212505,851.576931296559,809.7183871938652,828.7771424375275,769.3082700223703
1731652645.0251496,823.4772574851328,816.6534940067384,829.5778300947276,763.3924293923382
1731652645.0278113,797.8661486288704,824.754630068224,829.5771114630824,747.4051643924321
1731652645.0290487,793.0076124522172,831.5826319558132,828.2669953958491,731.9172369119038
1731652645.0312307,811.0255855962029,834.7329779031946,825.2372549964238,728.2695645342578
1731652645.0329478,836.3044467991141,833.0395431447946,820.9751585981619,739.6731770554876
1731652645.0368469,848.732446949518,827.3898024478428,817.0929228422476,758.6045707384324
1731652645.0407462,840.9828200908344,820.5373144702131,815.507246211946,772.9982982602643
1731652645.0433886,825.1129102034799,815.763197283749,817.0809388574799,776.296525288382
1731652645.0446453,822.4135123691442,815.0147648501305,820.8234135837486,772.6887785853057
1731652645.0485444,844.715713050635,817.6889370045258,824.375545858928,772.8382545914794
1731652645.0500767,882.9316932300549,820.9738232840912,825.5220571490031,783.8562775789342
1731652645.0524435,912.7995479923255,821.653116926947,823.6874897696538,802.4392725024805
1731652645.0534596,913.6237032304008,818.24979560131,820.3544837496428,817.2075619193417
1731652645.0563426,885.1119987577079,812.1291383345347,818.0950566333859,818.2251608332599
1731652645.0589662,848.6633473420225,806.8399300704175,818.8961452119628,805.6186447765768
1731652645.0602417,831.5049439525435,806.0381211394265,822.9573782898593,790.0324944382329
1731652645.0641408,845.7054537479407,811.1803127416163,828.740851390291,784.3678754884613
1731652645.06804,878.7217193045897,820.3983419693079,834.0798059145077,793.4149834852561
1731652645.068923,903.4991057955774,829.4077914189795,837.4269116347459,809.938346361052
1731652645.071939,900.3895093164758,834.0992601825451,838.4152235974219,820.7383413845508
1731652645.0745437,873.1072267666142,833.2384279667411,837.607221438493,817.9383255103244
1731652645.075838,845.5710608322089,829.3904602578469,835.903325037918,806.0377529427935
1731652645.0797372,842.3242252345111,827.2688682566707,834.1026254514234,798.4731095838491
1731652645.0836363,868.7660006420471,830.5544221650864,832.7289258993229,806.223768921935
1731652645.0875354,907.1092063127369,839.3852205228734,831.948405760651,827.8917133747974
1731652645.087769,930.5963914335155,850.193016811156,831.4623644788887,849.6159678463922
1731652645.0883791,923.969117106067,857.841240041095,830.4906994567012,855.1399857743423
1731652645.090121,894.2349809520671,858.5832258048175,828.0549129343619,838.2434309568847
1731652645.0914345,864.2676936359643,852.1450858720955,823.5902918122625,807.9882309646522
1731652645.0953336,854.9687849530516,841.9462208872361,817.5939847210043,782.7232869843413
1731652645.099233,869.8006514403585,833.3688030787202,811.8140831368613,777.2016223613313
1731652645.1031318,893.2715912081646,830.8178961511788,808.626238829303,792.4074649802875
1731652645.1056983,904.242765098967,835.0601191976842,809.7467160266297,815.8134275840742
1731652645.1066153,893.4078060000875,842.556609544165,815.0178892934214,831.8189802089321
1731652645.1070309,870.8326232673659,847.58566296931,822.1911873648717,834.0267513998771
1731652645.11093,857.309598056622,846.0451060373654,828.0817542966239,829.4324669703511
1731652645.1148293,866.5740728801343,838.3007186261929,830.4200719010137,831.1973975901967
1731652645.1187282,893.193146413196,828.849353873378,829.0381784412871,846.2413820796348
1731652645.121276,916.4042192746305,822.9443059344891,825.4688896802306,868.3824478706579
1731652645.1226273,916.9627927491093,822.7937645693505,821.3754354412065,883.0884242461033
1731652645.1232986,893.219361698001,826.289250335282,817.2615212459336,879.8913458305594
1731652645.125461,863.1375549786857,829.1069652114909,812.6189097252023,861.7908404331341
1731652645.1265264,850.261890346468,828.3095919671067,807.286891081229,843.4254264833968
1731652645.1304257,864.6775728975911,824.531017749661,802.6069342237515,839.3643719332854
1731652645.1343246,894.474173281094,821.1638668789097,801.0673562150687,852.4194698374779
1731652645.1368532,915.2056484546904,821.4361147069782,804.4894977601009,872.034316666256
1731652645.1382236,910.0695301656315,825.830702309826,812.2318098350531,884.1610876978793
1731652645.1421227,883.9794411435957,831.8218483449053,821.0793788843439,883.8380108390372
1731652645.1443076,859.2362848541047,835.9408452996784,827.1707599086577,879.1022866279382
1731652645.1460218,856.2020807329432,836.4211103691293,828.5802749116375,882.6902106855251
1731652645.1499207,875.6627438732111,834.4253397253567,826.5528443514353,899.2613384641319
1731652645.1524308,898.2004379541993,833.0929972487215,824.4361239783087,920.0209064713063
1731652645.15382,900.9162992390603,835.2442884700175,825.1493922778333,929.6381091626325
1731652645.1577191,876.8551637207859,841.38157197921,829.0827444616198,919.0303531881173
1731652645.158218,840.7037987445732,849.2643789559945,833.8913738527995,892.6196298938814
1731652645.1616182,816.5482375510611,855.2445219697772,836.2001548182458,864.1793230964045
1731652645.1631536,818.4116332917398,856.4850278412351,833.8939306416822,845.5505544025298
1731652645.165517,839.5753726447622,852.6987676855864,827.3788147539028,838.0557155601052
1731652645.168008,858.9492780999442,846.3139768311174,819.0917558679206,833.3024156563876
1731652645.1694164,858.8728227805701,840.8937783730187,811.8549034840852,821.8340940036574
1731652645.1733155,839.5895663693809,838.7894005512635,807.3643552396713,801.7967740338028
1731652645.1772146,818.3085343331605,839.6535457845046,805.719388658501,780.2308582886699
1731652645.1811135,813.4079507718772,840.9240382671288,805.9558887254833,766.0779476527741
1731652645.182,826.9386361694886,839.8893026090274,806.9199003901629,761.1113516225925
1731652645.1835856,840.4991015025704,835.6663861300536,807.8611403547823,756.8375916698828
1731652645.1850128,828.7573428369788,829.560396800051,808.5475259162343,740.4346909472376
1731652645.1889122,780.2268728648567,823.7353086168148,809.0635804327866,705.1964824263433
1731652645.1928113,708.5545071963145,819.5155599069715,809.5593784689395,657.0518036056081
1731652645.1931376,644.7427733827298,816.6986475416156,810.113643343274,611.6081357142509
1731652645.1967103,615.5978349683705,814.1337901360738,810.7233755538775,583.4081580199766
1731652645.199163,624.5398837871737,810.7546257040723,811.3517226083906,575.1045011847216
1731652645.2006094,649.4420155581552,806.1821206414922,811.9701184795049,574.7239240103145
1731652645.200846,659.4901036755591,800.6916104239906,812.5713525451183,563.7675700362017
1731652645.2045083,638.4911966898426,794.8709965949329,813.1618872695749,531.0322524839675
1731652645.2084076,596.5849416584616,789.2708719153184,813.7500273505339,482.0522664983775
1731652645.2123067,560.8798204542525,784.1359564786433,814.3396884981665,436.2236170839919
1731652645.2147405,552.4106044428197,779.328726323871,814.9304634400613,412.6748857222783
1731652645.2162058,568.4692912925696,774.6261588279972,815.5203523722977,415.44423008635295
1731652645.2196922,585.2797153229183,770.2804508710192,816.1079322459109,430.1801604592917
1731652645.2201047,578.8508592671518,767.2580959453572,816.6929292982114,435.7734265463453
1731652645.224004,546.2694561368797,766.6224335606103,817.2757474875223,421.82192927555116
1731652645.2279031,509.2924889586541,768.3640287545603,817.8568427927703,397.51378110277665
1731652645.2280574,497.1121559137425,770.8163954966277,818.4364222217805,384.3759844142505
1731652645.2303178,522.509902545236,771.5433909805549,819.0144704440996,398.63512835105746
1731652645.2318022,570.8474883723525,769.2369657303511,819.5909005567196,437.44681364187795
1731652645.235701,610.7957024270765,765.0145503328636,820.1656639262462,480.17426627614327
1731652645.2385385,618.3785190627109,761.8357900891757,820.7387737594191,504.0060441340357
1731652645.2396004,595.4138090494694,762.3870020001758,821.310276931518,501.8410599793918
1731652645.2434995,567.7393765879394,767.1551365184185,821.8802213981833,488.2426907626875
1731652645.2458954,564.5129224962867,774.2025684846698,822.4486423091395,488.27722630245046
1731652645.2473986,595.0357831247511,780.6237895306147,823.0155647486904,517.6032240004864
1731652645.2512977,641.644497026843,784.3324988696501,823.5810111698053,569.5515563747892
1731652645.2551968,674.2151473056849,784.858348946131,824.1450049970935,619.7451254878382
1731652645.2573843,674.388424927761,782.9539594265509,824.7075697785676,644.8624986801603
1731652645.259096,650.1475816306627,779.7954046815154,825.2687286950277,640.7787396008122
1731652645.2614727,629.5387184893166,776.5489119491936,825.8285090539997,625.7854087561599
1731652645.262977,638.8239233337789,774.3357225729634,826.3869505179154,626.3465431275964
1731652645.262995,682.096492820916,774.0919682632035,826.9441074867439,656.4758685030088
1731652645.266894,737.9993524352142,776.0746432154248,827.5000328947596,706.8850686807893
1731652645.2707932,776.1659493272651,779.4550297680023,828.0547421781025,752.6784167109156
1731652645.2746923,780.8294435909071,782.6751162147079,828.6081840054833,773.8140288240838
1731652645.2762306,763.058667143356,784.5944962394177,829.1602697469797,771.9032541428959
1731652645.2770505,751.6028622130723,785.5331361016327,829.7109968828821,769.1978281596184
1731652645.2785914,769.4734870703951,787.1756821048368,830.2606114507712,789.9515977881796
1731652645.2824905,815.327656118607,791.2507745972939,830.8096250005835,839.3399201718328
1731652645.2863896,864.9539790984494,798.0449023865998,831.3584683070518,897.7662134732458
1731652645.2902887,891.3624645221284,805.9848921376613,831.9068033537995,935.7053358550721
1731652645.2926276,886.4678156319619,812.5586469199292,832.4530404473121,936.8705805228761
1731652645.2941878,866.5535087890084,815.7496543550219,832.9950345546579,910.6901319614226
1731652645.2950768,857.8920018243499,814.9763425811326,833.5325129104093,884.5800332945097
1731652645.2978964,875.2894759914599,811.2032096285878,834.0700015882577,883.3011453264062
1731652645.298087,911.1997509634941,806.5103624968174,834.6166589648749,912.1490959542209
1731652645.301986,943.4445026866507,803.3971740858987,835.1791562537326,956.0456535641382
1731652645.3058853,954.2551320586786,803.84810505514,835.7487350584072,993.2639321417448
1731652645.3082051,944.6553557389361,808.3507667431055,836.2935434070096,1011.8138786932071
1731652645.3097842,932.6337145577709,815.5002623482426,836.774428791157,1016.0863531460632
1731652645.3136833,937.207913601357,822.7584824069327,837.1924553520836,1020.22286979872
1731652645.313923,962.0652675552974,828.0597528008735,837.641487855777,1035.0570653709592
1731652645.3175824,992.4105098222615,831.068302227534,838.2971529775839,1059.393194264086
1731652645.3214817,1007.2871260858986,833.0460375641255,839.2769963919066,1081.771635374197
1731652645.3237824,996.8241503643316,835.4718985530177,840.4140107946062,1090.2766171355083
1731652645.3253806,970.264572901919,838.6328174787373,841.1603134286332,1082.1844286771423
1731652645.3292797,948.6757173966058,841.3662094023251,840.8536606323984,1066.171277955473
1731652645.3327692,948.6765821392796,842.0996907635139,839.2447281364266,1055.941247406041
1731652645.332816,970.2098613273862,840.2868317357772,836.7849505581664,1060.4721606642847
1731652645.3331788,997.6518557936209,837.0906766151736,834.2883577628512,1078.1047017443561
1731652645.337078,1012.9513298832352,834.7727629397702,832.2220742790298,1098.4849226804158
1731652645.33936,1010.186597925335,835.1908497395469,830.3340191626239,1110.5453454543658
1731652645.3409772,999.8130595440281,838.4710686831826,828.0237137859922,1110.3622107332112
1731652645.3448763,999.0328489982127,842.8635924569709,825.0879622072719,1102.937697340821
1731652645.3487754,1016.1780610412563,845.9724508167984,822.0579455315211,1096.7748631100958
1731652645.3516152,1042.398573523499,846.4883017186914,819.7539094536154,1095.9969116989555
1731652645.3526745,1058.182890733016,845.1084918462021,818.5043758111467,1096.8576752661993
1731652645.3549373,1049.713306267462,843.9641275799758,817.8469346871773,1091.7589007607205
1731652645.3565736,1021.4428206230709,845.0807312150423,817.0446030364066,1077.3058714752851
1731652645.360473,994.1084942921119,849.0969900315613,815.8949508156264,1059.1729017575979
1731652645.3643718,989.3276582253766,855.0778026061281,814.9666992440013,1049.0249646890106
1731652645.3677354,1012.9223489264957,861.2684948215948,814.9683233264083,1055.498800626723
1731652645.3682709,1050.1759042163508,866.0215922891479,815.892045822915,1076.5702060324747
1731652645.3704617,1076.7525307949384,868.3279909815823,816.896827336773,1099.9234703943569
1731652645.3705149,1076.7650941244342,867.9595264930111,817.1867291525801,1111.5890939831327
1731652645.37217,1053.9589226139262,865.4769830845289,817.0697871660699,1106.2015687175226
1731652645.3760693,1027.3428218840781,862.128501105258,818.0615090136045,1090.5009631885944
1731652645.3799682,1014.9143468523082,859.441399314586,821.740537923389,1076.9946363617746
1731652645.3838673,1018.9300480388703,858.5182347052621,828.2908502955172,1073.0009579971932
1731652645.3860922,1025.1370894130134,859.4748384098958,836.0413569930851,1074.4833099815514
1731652645.3877664,1016.5935020515877,861.5215663751344,842.4399272676335,1070.0656333119523
1731652645.3893075,989.9336690665814,863.6844549247443,845.6437424091164,1051.653294471128
1731652645.3916657,959.59908885251,865.5555021433694,845.4635088695319,1022.1903021148534
1731652645.3955646,945.9808912827896,867.3840092354457,843.0565550955145,993.580329149327
1731652645.3994637,957.4399944108329,869.400304494593,839.7925272737159,976.4168065350983
1731652645.4016695,981.598599331775,870.99360297062,836.2522798481206,970.3644941428058
1731652645.402655,993.6957885570125,870.5825268107906,832.0908363015844,963.6836260059082
1731652645.4033628,975.7045034611907,866.4856590858159,826.788918689457,942.7626857109399
1731652645.4072618,930.8635207897679,858.2354349575631,820.6363857263369,903.9276876200819
1731652645.4081538,881.5998556529127,847.3133216800857,815.0830630932376,857.448252554799
1731652645.4111607,852.0430391677351,836.6332818981238,812.0397603968515,819.8041253068845
1731652645.41506,848.9971984574346,828.9989982425207,812.5549638791329,800.114373479922
1731652645.4172473,856.880606796162,825.514742917066,815.9043651481245,792.0058954823457
1731652645.4189591,850.9475623051827,824.9961742878016,819.9399839640879,778.2395222002054
1731652645.4228582,818.0223608729378,824.7697825577864,822.5642539152234,744.8900763083766
1731652645.426757,767.6643616504798,822.315783080529,823.1833166815155,693.4647764122764
1731652645.4269998,724.6404563392962,816.6578669803818,822.9189476808967,640.5383257088166
1731652645.4306564,709.0531160214018,808.6563158074197,823.4193399688965,604.7439818589875
1731652645.4328246,720.3251983797862,800.203716325801,825.3580282342394,591.6413073902188
1731652645.4345555,737.5815506381522,793.0370026122797,827.9268477309806,588.8757571149341
1731652645.4375746,735.5499278736617,787.937736980771,829.6250926789355,575.5990955549843
1731652645.4384546,703.1818342196718,784.6352123523766,829.4736091306293,538.5556215212525
1731652645.4423535,650.820342888717,782.262988672137,827.5656484245185,482.073084526775
1731652645.445846,601.2158551864876,780.0247162384104,824.6577230477549,424.3721248328814
1731652645.4462528,572.2163950101819,777.7156844993254,821.3929066279484,383.62066215826485
1731652645.448402,564.8704156993274,775.8064892960326,817.9170203947168,365.0042482411037
1731652645.450152,565.661087088193,774.9737778088506,814.1145972420245,358.64912244518877
1731652645.454051,559.9003780436997,775.3133035465332,810.0990795856069,349.11637755105477
1731652645.45795,544.4749255348431,775.8269498075241,806.466177295956,328.06638082860314
1731652645.4618492,529.3289955791558,774.7872957591075,804.1247837424845,299.900046922222
1731652645.4639795,527.1000566291659,771.0300650123991,803.8563720495298,276.7376241943384
1731652645.464692,540.4941515445023,765.3618651158381,805.8574343579894,268.03127377859226
1731652645.4657483,558.6327021283121,760.8164522223431,809.4736817519523,273.80130003491837
1731652645.4696474,565.6285186264844,761.0756676011669,813.3066533057913,286.3908932529631
1731652645.472494,554.1351086106546,767.815770390313,815.8049883427775,298.0811960323583
1731652645.4735465,532.3775256354171,778.9344184730949,816.1753757111437,307.537638108239
1731652645.4774456,518.5174509615877,789.3349530624068,815.0605863608398,319.8901553349322
1731652645.4795568,526.6227897480821,794.084452668005,814.3522864739061,340.91302921783983
1731652645.4813447,555.5174579927034,791.735261144408,816.0211027107099,370.4424612228462
1731652645.4835384,589.6668936536984,785.2433629525708,820.6652581864129,400.5972284842753
1731652645.485244,611.5890895368063,779.7335686730685,826.875114792838,420.6410681189505
1731652645.4891431,615.7896134902207,778.8846420479055,832.0028344264991,425.175730341185
1731652645.4930422,612.7531278827927,782.7618493479793,833.8381632332625,419.4061104734094
1731652645.4951344,619.604600529067,788.6104432137478,831.9550184626809,416.8853295821848
1731652645.496941,645.1495744761428,793.6277309447053,827.7821152763271,430.6529650591905
1731652645.5008404,681.7456175306172,797.2268815331236,823.4950225017666,463.9997626379368
1731652645.5023844,710.838390269066,801.0020367653437,820.67903526178,507.88238243359285
1731652645.5047395,717.851092012398,806.7362017098714,819.6918530399196,547.3071583417391
1731652645.5074136,704.5727360063713,814.412999385498,819.9390537308883,572.182299229943
1731652645.5086386,688.9820894732234,821.9614558617844,820.5862983769435,584.3914863406967
1731652645.5107117,692.033113660365,826.7785703761092,821.0996702278969,595.3532290613252
1731652645.5125377,721.2393446434842,827.5706883742408,821.3588850513021,615.7457405492362
1731652645.5164368,764.1222486862532,825.0193468046106,821.4797366514765,645.8403395429026
1731652645.520336,797.4886242848909,821.0207482249326,821.601662226935,674.9992129326756
1731652645.5212307,805.7150498560378,817.4496548886483,821.7853626823759,691.2934917554448
1731652645.524235,793.1181789581736,815.4854546733864,822.019197979304,692.9747794868338
1731652645.5262892,779.8364635728296,815.6724952149314,822.267528131497,691.2775821491946
1731652645.528134,784.5743234149419,818.128228337691,822.5066143338381,701.4819235951699
1731652645.5320332,808.9415757157237,822.4237259925258,822.7326551108289,729.7835302456003
1731652645.5359323,836.6324408100338,827.3549231390273,822.9527962856163,767.4369013614938
1731652645.5398314,847.7547424980845,831.1964660924617,823.1744308874486,797.291014676732
1731652645.5400767,835.9263234379116,832.6148422073072,823.4004468445429,807.260692486829
1731652645.5418663,814.0272382900348,831.6599486086709,823.6299995822003,799.8456447572805
1731652645.5423331,804.2147321527622,829.9717076984987,823.8611762416483,790.4459498740041
1731652645.5437305,820.2999565847828,829.8589766544319,824.0928081242766,795.9963039164804
1731652645.5476296,856.3024946057609,832.8025058401405,824.3247845599211,822.4016107957597
1731652645.5515287,890.2625676348891,838.4490822678456,824.5575267110025,859.9685005269938
1731652645.5554278,900.7765401485284,844.8455921201962,824.791429316661,890.3656721503869
1731652645.557444,883.5775354309909,849.7175710210107,825.0266374813651,900.2016509927337
1731652645.558923,854.8337711214485,851.7924359302457,825.2631063977234,890.9434714737918
1731652645.559327,838.1163006016398,851.2200138747927,825.5007443141654,877.2830044256874
1731652645.563226,845.4650753022112,849.013421842583,825.739501247432,875.1537077276464
1731652645.567125,868.1990059155771,846.2688772908267,825.9793800609806,889.1537906142213
1731652645.5710242,885.0538122425984,843.8923967661005,826.2204109773951,909.6139275493359
1731652645.5730214,880.5989899740418,842.7688799822821,826.4626306725191,921.3694286140202
1731652645.5749233,858.4280898433669,843.7078800386207,826.7060759198494,916.6165270580914
1731652645.5772526,838.3981459676423,846.814951163677,826.9507763786315,901.2747907161558
1731652645.577769,840.5126955521001,850.8177344787991,827.1967318825174,890.0239723026186
1731652645.5788224,868.5904605607957,853.2809037569239,827.443886256549,894.4007109599503
1731652645.5827217,906.7225821873355,852.0057167419327,827.6921410842086,913.6843329629291
1731652645.5866206,931.4329071101004,846.758282843889,827.9414506092629,935.9197912171217
1731652645.588599,930.092394300327,839.9042450291702,828.1919697603446,948.2026261867184
1731652645.5905197,910.8033826598961,835.1680994785407,828.4441089242164,947.5806611521664
1731652645.5944188,895.3573070689557,835.1708359928608,828.6982898093721,943.1059541873547
1731652645.5966153,900.6763152707188,839.499207842154,828.9543596206595,947.0141109409265
1731652645.598318,924.1400099250002,844.8463193233359,829.2110619579162,962.7188031294245
1731652645.602217,945.3767367516884,847.2436484002186,829.4664093842948,980.5410437005766
1731652645.6041763,943.3047103722869,844.7312820403693,829.7196125551252,985.4649222772634
1731652645.606116,914.1885683116777,838.4324200263604,829.9738263962934,970.4086152225196
1731652645.6100152,875.5470502239501,831.3222328278922,830.2368047196387,943.3092364899253
1731652645.612172,852.6551556548151,825.8753690546769,830.5157362087891,921.5237554430464
1731652645.6139145,858.8189715660758,822.5682032595912,830.8060475052267,918.0124777593326
1731652645.615461,885.4881538139139,820.2843586321328,831.0824397272745,930.8655357833026
1731652645.617813,909.9762657042484,817.9813922428928,831.3081275930426,944.9912302333005
1731652645.6197538,914.2100262422574,816.0256727792724,831.4729236398852,944.7157951413205
1731652645.6217124,899.0802115336321,816.0583202653625,831.6428440038198,927.0206943614087
1731652645.6256115,882.6385215598135,819.5574057391386,831.963716391671,904.4798867771841
1731652645.6295106,883.7837679752372,826.310743348562,832.5504003139858,895.2461183587566
1731652645.6334095,905.3487123640552,834.0619609217559,833.2643755881211,908.0349301379164
1731652645.6343076,931.117315751665,839.6756227670799,833.5348007783273,934.2807432524294
1731652645.6353312,939.4003866828293,841.0009534804817,832.4834271936619,953.9468735498817
1731652645.6373093,921.5877685096648,838.0899588141048,829.4691949931527,950.539790867096
1731652645.6412082,889.9094133943552,832.9438424834284,824.7730413813991,923.6078566863561
1731652645.6451073,867.8662738774295,828.0815790952049,819.8618277596426,889.0908587073017
1731652645.647092,871.2681664298136,825.0247278888779,816.8603395564891,867.437552547576
1731652645.6490064,895.3994500975816,823.6785166649946,817.4099467905565,868.7795500729385
1731652645.6509087,918.6653773478608,822.7927506219947,821.5603374501763,886.3827547733197
1731652645.6529057,919.7762948677379,820.9628659049024,827.4084542503231,902.8424437004743
1731652645.6531537,894.8009775474388,817.4954460749851,831.8376234938316,903.6058689806035
1731652645.6568046,860.5295679725535,812.7838438527937,832.0980163522704,887.1880579584503
1731652645.6607037,841.3620993682671,808.1659016793316,827.400721231698,864.7005824736964
1731652645.6646028,850.0111690816251,805.3507843388305,819.5160494063925,850.0114146861085
1731652645.666486,877.3131211772587,805.5639098238543,811.8298640434027,848.8639733566417
1731652645.668502,899.2219787041419,808.7546286432297,807.3134888454415,855.3214658698819
1731652645.672,895.3938435066832,813.3999974532431,806.7549104855135,857.5899677826462
1731652645.672401,864.750965839137,817.2446489747471,808.5540938498962,848.0082798092585
1731652645.6763,826.1247883740912,818.6461714705079,810.2289393188094,829.2360251918038
1731652645.6801991,803.9139675440726,817.5703519842402,810.4060038358233,812.0115016520758
1731652645.6820114,810.0524268355742,815.4196630081385,809.7201031611806,806.4575305001235
1731652645.6820636,835.8815102478892,813.8268317126742,810.0375111996891,813.8718393880264
1731652645.6840982,859.5838999465689,813.4454180459297,812.7951556269564,825.5919766923809
1731652645.687997,863.0361387312904,813.7206528874864,817.8018549540437,829.9927840591743
1731652645.690846,845.0228605724582,813.6776496654923,823.2891131606426,822.0369693994242
1731652645.6918964,820.755105147463,812.8693508449013,827.0194446748376,807.411955911519
1731652645.6957955,808.4511720496621,811.6228615609431,827.6504329502984,797.5491958729717
1731652645.697641,814.1812370290216,810.519288186958,825.5438876380659,799.5913548570903
1731652645.6996946,827.6284942819273,809.7837527243031,822.5898013725914,809.9767766118435
1731652645.7035935,832.14195479028,809.2319739601384,821.1394646818276,817.377292487218
1731652645.7074928,820.09959004032,808.7472130411644,822.6369760498729,812.5774708362774
1731652645.7096922,800.0396975423387,808.712386176,826.7698317329705,796.7415586047405
1731652645.711392,789.3473157852466,809.9192018938725,831.7010159961776,780.8495964091052
1731652645.7132185,798.8924824070101,812.9913514047578,835.2639689803747,776.6368234655515
1731652645.715291,822.85119805858,817.7383796373001,836.3361220422488,786.5602385217674
1731652645.7169309,842.4464290982979,822.8859253714526,835.4457433435081,801.1751382162726
1731652645.71919,840.6876489712429,826.4450153471236,834.1619506803614,806.2627223710181
1731652645.7230892,816.0733346547319,826.6748374595841,833.6774871216572,794.0571903292125
1731652645.7269883,783.9977601843552,823.170484725443,833.6575336130147,769.4800792106903
1731652645.7285385,764.6396399305371,817.3177328575434,832.367558834613,746.3161785023559
1731652645.7287958,767.2399605543485,811.6045486459674,828.1819684589784,736.509746068415
1731652645.7308874,783.6681896964418,808.0775965435384,821.3645856467899,741.3293456529575
1731652645.7347865,796.4245021790861,806.9859429355438,814.5353818369382,751.4135513671181
1731652645.7386856,794.1158444013847,806.6677751175716,811.1577176584742,755.2719446530276
1731652645.7425847,781.1561353449308,804.891507683779,813.1079572850158,748.9797951645725
1731652645.744373,773.4047345477499,800.7605569449427,819.3287763459248,739.1326521520671
1731652645.7464838,783.5328571828943,795.7773369429273,826.6732392582071,736.8778117176407
1731652645.7473843,808.7513945938991,793.1760721439264,832.1020221025078,748.0645901996426
1731652645.750383,831.6260043837447,795.8609800389161,834.3193297486284,767.5196378768018
1731652645.7518504,833.792339281069,804.3489873732216,833.7196686319182,782.1724416104656
1731652645.754282,811.5592490129558,816.1869881832882,831.2123949041957,780.9175068283092
1731652645.758181,780.3844608865104,827.2643824912948,827.3375257302772,763.6941611827709
1731652645.7599506,763.7733392873816,834.0515072461405,822.4132924008508,742.3604464021563
1731652645.7620802,774.8181507496969,835.2008587419151,817.2036960072977,731.9925985984278
1731652645.7659793,805.234836217798,831.6268204567485,813.1175321177677,739.0670028976034
1731652645.7662306,831.3712374887906,825.4348843971571,811.5816135870272,756.1242581266531
1731652645.7698784,832.9473922200269,818.7310658304948,813.1317670992725,767.6454159572723
1731652645.7737775,809.4768995084211,812.988364885467,817.0104268692614,762.5735897963702
1731652645.7755282,780.8425887661393,808.9335191338103,821.5727061091836,743.2135395754603
1731652645.7776766,771.4103863897271,806.6408337934425,825.1825056036674,723.2820073187238
1731652645.7815757,790.5271297513852,805.711586161189,827.0209898603925,716.9690559979374
1731652645.7850769,825.0440960906001,805.5623847701739,827.3615520303582,728.0640745758257
1731652645.785475,849.6521804894558,805.7264734532696,827.1898518829001,747.6590161648504
1731652645.78677,846.6547485204178,805.9836978824576,827.4053661061049,761.6887506322678
1731652645.789374,819.5820413740644,806.2888032364067,828.1079844922284,761.8521804425716
1731652645.7911055,790.0757893178774,806.6443452455591,828.4923870966171,751.2611113428582
1731652645.7932732,780.6248862284648,807.0386173843549,827.5298830901952,740.7890218296913
1731652645.7971723,796.8639423842014,807.4475649965678,825.0175781044775,739.6263054147067
1731652645.8010714,823.544209706927,807.8524318893494,822.1336759581768,747.9830837129274
1731652645.803923,837.3608867108929,808.247008697568,820.8539535701267,757.708851382405
1731652645.8049705,826.1182111467642,808.6338760796029,822.4998146061747,759.7214843104741
1731652645.8066833,798.4938205001994,809.0176126857912,826.5802647529201,751.4840188698868
1731652645.8088696,776.4670537410728,809.4007303591941,831.0114497114196,738.2432653420942
1731652645.8127687,776.8915392201403,809.7832524721119,833.6328380066187,727.7781518891148
1731652645.8166678,797.6061201292044,810.1640992516845,833.7423363272393,724.1993248330606
1731652645.820567,819.4639324404313,810.5423769252786,832.3564265397259,726.2301800610022
1731652645.8216894,822.330913623225,810.9178176507343,831.1027489198101,730.076499076669
1731652645.8222604,801.7569315494849,811.2905787529406,830.8500711968554,732.9247484506833
1731652645.8227692,772.7766963247249,811.6608917440303,831.2201603412497,734.1462982160697
1731652645.824466,757.8412027424109,812.0288660298861,831.1302101418719,734.4727012127437
1731652645.828365,768.5946710972162,812.3944818501868,829.6261221513652,734.7721281160836
1731652645.8322642,796.2584840411785,812.7576691203018,826.3228480382206,735.4318488579005
1731652645.8361633,818.7186947234298,813.1183739547768,821.4538954012505,736.3912645558459
1731652645.837838,818.8237895036733,813.4765780007399,815.9051749246338,737.43529145178
1731652645.8400624,798.7180921054253,813.8322847358168,811.2793015245613,738.4167798526807
1731652645.8416152,777.8754062130963,814.1854996334968,809.5837272922793,739.3096008406045
1731652645.8439617,776.1728442021252,814.5362207201539,812.297023911507,740.1558266245053
1731652645.8478606,796.299261309551,814.8844418338036,819.2696112956561,741.0004084532411
1731652645.8517597,820.6269228388041,815.2301621985794,828.3573187832487,741.8613012024628
1731652645.8534153,825.5411417632209,815.573392710188,836.2966927580342,742.7334932060796
1731652645.8556588,801.5373270451715,815.9141501042014,840.3982080826707,743.6050928638329
1731652645.856609,762.4850191455456,816.2524369105738,839.9674557925283,744.4685465854593
1731652645.859558,736.1161335501973,816.5882198892846,836.5120359656338,745.322753324694
1731652645.8604617,742.7827356038346,816.9214358463136,832.6244387057851,746.1699417158917
1731652645.863457,779.0306957670603,817.2520513002831,830.3272688384606,747.0122446315822
1731652645.867356,819.2354095594769,817.5801597487417,829.9902181818659,747.8502868173107
1731652645.8689928,834.7189144398976,817.9060248400287,830.4579438110691,748.6835319080556
1731652645.8712552,815.7688051701357,818.2299351873814,830.1286261733877,749.5111841804307
1731652645.8751545,779.0440568306786,818.5518322842904,828.0982627574384,750.3327670811915
1731652645.8790534,754.1562705503433,818.8709515205226,824.6034558839489,751.1481690792324
1731652645.8793075,760.103382937549,819.1860154740547,820.6614774453769,751.9573674192986
1731652645.8829525,790.5948293313844,819.4964310031528,817.375896934943,752.7601403906782
1731652645.88457,819.8933190420391,819.8040814280246,815.4207701147079,753.5560190601411
1731652645.8868515,823.9359227894586,820.1138978625488,814.8896039506321,754.3445993668953
1731652645.8907506,799.3995078721866,820.4307595400168,815.4159519892689,755.1260894733427
1731652645.8915286,765.6841835705148,820.7523590521529,816.41956026278,755.9016032395541
1731652645.8946495,748.9144031455792,821.063050532384,817.3752686728897,756.6724962527934
1731652645.8981538,761.2251824116158,821.3389243702163,818.0065150306876,757.4384901108908
1731652645.8985488,791.8039252203192,821.5716140352274,818.3157440348758,758.1957192780077
1731652645.9001477,816.4352605764589,821.8010461310346,818.4605372382301,758.9374274552815
1731652645.902448,817.507366225545,822.1212968932634,818.5941101980742,759.6598016407216
1731652645.906347,798.1005758777916,822.6150841403148,818.7834920225862,760.3712709731102
1731652645.910246,778.6071381128972,823.2165876174641,819.0204903553371,761.0963490228984
1731652645.9141452,778.7967397142675,823.604269345913,819.2708961695284,761.8611987980547
1731652645.915725,800.5309534657014,823.3110805032861,819.511073705771,762.6576608762346
1731652645.9169998,825.8230459790096,822.1424219535797,819.7368161789421,763.4094655744074
1731652645.9180443,831.8599631498165,820.6132496161085,819.9549262785032,763.9926355449601
1731652645.9219434,810.2507052050772,819.8024942179127,820.1726903309691,764.3522817546323
1731652645.9258423,774.4388517551615,820.4362298367118,820.3930429163673,764.6738065112313
1731652645.926448,749.3852449676792,822.0049522984148,820.6152048424099,765.4315957210739
1731652645.9297416,752.2624192658163,823.0125843439976,820.8372770733075,767.0812440050051
1731652645.9313023,779.7952514066087,822.350237514545,821.0580552425938,769.3678323445317
1731652645.933641,811.9405935159158,820.4523066472165,821.2773755866999,770.7402618096219
1731652645.935846,828.2951252824537,818.9698105162244,821.4956135846921,768.8445467317283
1731652645.93754,823.7308582840094,819.2018041751535,821.7131317783952,762.7512966172307
1731652645.9414392,810.8277155987754,820.8196926207445,821.9300508955625,755.7984229386645
1731652645.9453382,807.65234346937,822.1192519546488,822.1463030012244,755.6390517593469
1731652645.94688,821.507878437758,821.5139315894329,822.3617724950211,768.8215678537284
1731652645.949237,842.4908855213984,818.8411395040001,822.5763863445262,792.9989607251681
1731652645.9531364,852.1994159385765,815.3648538476849,822.7901257253404,814.9678148032838
1731652645.954692,839.9442211076074,812.6622584470348,823.0029968655587,819.0371481211553
1731652645.9570355,812.5152775715412,811.5154912115324,823.2150039820269,799.8737026831145
1731652645.9609346,789.1884058809192,811.6736432623646,823.4261420737361,768.2865454946987
1731652645.9613676,786.1141317620128,812.3901860464322,823.6364033189237,743.8821062384549
1731652645.9624574,802.9905189621508,813.0584058433886,823.8457816269497,740.0323567950945
1731652645.9648335,823.0523862468256,813.4676756362247,824.0542653250562,753.600659577436
1731652645.9687328,826.669676656875,813.6952304418794,824.2618225114196,768.1596235161011
1731652645.972632,807.7364182081377,813.8892473858232,824.4683988172765,768.1017682755956
1731652645.9735384,779.334348892645,814.1343575547002,824.6739497415414,751.6945741712049
1731652645.976531,763.4412301131396,814.434545341695,824.8785048793276,731.9291855718177
1731652645.9780347,772.6038178396168,814.7565138971098,825.0822107036664,724.5635551462254
1731652645.98043,798.7608928465795,815.0717248572682,825.2852600915876,733.9552095976844
1731652645.9843292,819.0939299926586,815.371529160015,825.48766085322,749.1286258958046
1731652645.9882283,814.66527579219,815.6612543347483,825.6889667325298,753.3743795004465
1731652645.9921274,786.5243744829944,815.9489336317507,825.8883125673093,738.8660468052282
1731652645.9923844,755.6963735038064,816.2387719728316,826.0851060861556,713.794755843539
1731652645.9936123,746.7351744806356,816.530729805453,826.2802416319654,696.3231221604648
1731652645.9960265,768.0405776084494,816.8229965099612,826.4767636124026,700.6465431277197
1731652645.996287,804.7646734582916,817.1141605206868,826.6782850263788,726.3265634176743
1731652645.9999256,830.0963122301861,817.4038931821458,826.8844814819382,758.8823711495603
1731652646.0038247,826.1705691871256,817.6925659966917,827.0863297115422,780.7370551438348
1731652646.0077238,798.0980133032414,817.9806474765224,827.2676675972167,783.8945121207126
1731652646.0091896,769.8018394000294,818.2683811606853,827.4191756903687,774.6566819135174
1731652646.0112307,764.7658761365572,818.5557863836583,827.5608777526398,767.009675620806
1731652646.011623,787.0897717605529,818.8428008659897,827.7515824597448,770.3165283973073
1731652646.015522,818.2397245732238,819.1294001839442,828.0536957165832,781.5582427400008
1731652646.019421,832.21854181261,819.4156337086047,828.4437467338332,788.6032727566004
1731652646.0233202,816.797975977657,819.7015924757776,828.72174068435,781.7267049201241
1731652646.0247672,783.4989311701297,819.9873472143399,828.5343507798334,763.5613641484065
1731652646.0272193,758.357359396728,820.2728961497608,827.582475191648,748.8446519271464
1731652646.0300767,761.244606491958,820.5581674804578,825.8784282495191,753.7004115354772
1731652646.0311184,790.4894519047443,820.8431147363741,823.7676644938392,782.7412214894243
1731652646.0312066,824.8010718738301,821.1278837548507,821.6413375986543,824.1610659115967
1731652646.0350175,840.4756901921589,821.4129120175587,819.653678409183,856.9352495233853
1731652646.0389166,829.9194025137158,821.6987355375151,817.781793086256,864.9914022781221
1731652646.0403445,806.7706882389825,821.9853999223717,816.1677631947117,847.781869692735
1731652646.0428157,793.7784760100582,822.2718057452814,815.3462553175964,819.3446186477727
1731652646.0467148,803.5502616322304,822.5558502924164,816.0241684342819,796.862232836448
1731652646.048923,828.0904376433366,822.836214480045,818.4704886877568,787.9549797924122
1731652646.050614,845.7366787768543,823.115379419763,821.991650083644,786.7528205066999
1731652646.054513,839.572419292391,823.4011190073886,825.0578226880863,781.4137919784006
1731652646.055922,811.8587189255494,823.7022773055692,826.204220491123,766.2632700199295
1731652646.058412,782.5939942982585,824.0173868611721,825.080030172403,748.0351743840496
1731652646.0623112,773.8316270289343,824.3231735470058,822.6846407411462,740.8721237920223
1731652646.0661263,793.1439269392226,824.5794982738689,820.5145837370304,754.3564255005147
1731652646.0662105,829.5655423203121,824.7653268586018,819.4580379153717,784.7434396430576
1731652646.0677693,863.8900246237406,824.9345096938328,819.4389060073306,816.8671907595041
1731652646.0701094,882.973836643372,825.2362890158879,819.8705955567402,835.2919070886777
1731652646.071499,886.0661696096826,825.8230893328416,820.2495686169897,835.6250759235336
1731652646.0740085,880.6161033695103,826.6275189581655,820.401799670843,826.7580490653847
1731652646.0779076,874.3774851290325,827.1512788724767,820.3968723062846,822.301777083228
1731652646.081807,870.9286711596723,826.5640896522051,820.3634094744497,828.5050731525829
1731652646.085706,869.9852330811964,824.304564010835,820.3743365111699,838.9091098464611
1731652646.086615,869.8347470612756,820.8462292442905,820.4328490863174,840.2651901733389
1731652646.087077,869.2387801467163,817.7799342402335,820.510108426211,824.6372039999977
1731652646.089605,867.9422809797045,816.7381142729382,820.581511028989,797.3441367072368
1731652646.0935042,866.274189686995,817.9256997811916,820.6396486822599,773.9012294114334
1731652646.0974033,864.6096081407167,819.7322794018725,820.6891403402836,768.3005593489765
1731652646.1010458,863.1093719384934,820.0179591360305,820.7368977378833,782.1073499830212
1731652646.1013024,861.7418576143323,817.9852118576862,820.7865097375812,803.1610553559752
1731652646.1026542,860.4125659752897,814.8640389851804,820.8379057497344,814.926448059404
1731652646.1052015,859.0590916867127,812.7267037616805,820.8894983598062,809.0976186578281
1731652646.1054614,857.6718835424111,812.5412742680041,820.9400519943446,791.559946624007
1731652646.1091006,856.270137203071,813.2881466064593,820.9892648892379,777.082378818409
1731652646.1129997,854.8734651797982,812.9461721115387,821.0374336440665,777.0145095680875
1731652646.1168988,853.4894551330647,810.4508631601182,821.0849347678854,789.8943713229235
1731652646.1182318,852.1158379328567,806.9090895709695,821.1319564083818,802.6769354814334
1731652646.120798,850.7475892343606,805.0239041347842,821.1785103963376,801.7526490038987
1731652646.1243076,849.3817150719289,807.141749342574,821.2245554993658,784.8172185864513
1731652646.124697,848.0180332914172,813.4060726969144,821.2700761743416,763.7254325347011
1731652646.128596,846.6577091408689,821.440628826343,821.3150684123403,755.6530790871784
1731652646.1324952,845.3017152041264,827.8538262197496,821.3594840293717,769.3700226473243
1731652646.133809,843.950258471001,830.4623283080512,821.4032294605977,797.5027751167565
1731652646.135965,842.6031100175333,829.5725402074313,821.4462834019373,821.1430016971003
1731652646.1363945,841.2602711264791,827.4427223640988,821.4888819349859,823.649351145865
1731652646.1402934,839.9223571217112,826.5129018876014,821.5315651028661,803.2667900760823
1731652646.1431537,838.59024062281,827.8379603277793,821.5748284766046,774.726369302466
1731652646.1441925,837.2639136403075,830.7420285890414,821.6183695834146,758.1508267552651
1731652646.1480916,835.9413233255027,833.6097463363084,821.6604952594193,763.534283043743
1731652646.1493866,834.6187671627821,834.9996871739856,821.6987682087496,783.0393708184678
1731652646.151991,833.2942251966723,834.3423987125243,821.7325958818368,797.5852963459477
1731652646.1558895,831.9726183335272,831.986477586236,821.766572655192,792.6802138601332
1731652646.1597888,830.6679031746395,828.7614987780119,821.8107146181201,770.5854034503205
1731652646.162,829.3947883324098,825.4075157222538,821.8731230285666,748.6760895551279
1731652646.163688,828.1483685029283,822.2565855276683,821.9456971868126,745.2751723937992
1731652646.164964,826.8852609322677,819.3885047006627,821.9944426454273,764.6492351591107
1731652646.167587,825.5356554725116,817.0775972371885,821.9745492393794,793.4810326772603
1731652646.1708848,824.0697655618898,816.0023709485922,821.8811460540732,811.5829133078666
1731652646.171486,822.5942505289888,816.8571485723214,821.8091793573204,807.9152547697726
1731652646.1753852,821.3782237930327,819.6493098279547,821.9471686249896,788.7290780063888
1731652646.1792843,820.6777100540357,823.4074663334638,822.4252737476686,771.3164566179619
1731652646.1805415,820.3466081669684,826.6853191457969,823.0424126724741,768.9219623049651
1731652646.180846,819.5172142972688,828.4349099343733,823.0998648361675,779.7377339381611
1731652646.1831834,816.909219000829,828.4616865315953,821.6974104099712,789.2922185000407
1731652646.1870823,812.158507727724,827.1708608443292,818.5917218972363,783.9847004754283
1731652646.1909816,807.6078950824935,825.0558776672456,815.008258367254,763.907233682616
1731652646.1948807,808.6339716235981,822.5183625920765,813.3829563811997,743.7190738559783
1731652646.1961188,820.2917183012864,820.0856896955394,815.8239512681254,740.6702735545963
1731652646.1987798,840.8812043538794,818.5830445710084,822.503089713208,759.9249306200248
1731652646.1996922,858.4050517479889,818.8498516360594,831.4088679358738,789.5604455114686
1731652646.202679,857.0021953673704,821.0581648052622,839.5857164930648,809.3595354304007
1731652646.2058043,831.1711703372298,824.1484538342252,844.7355404265559,806.1340685297673
1731652646.206578,794.2933442849121,825.9913998985808,846.0761353288756,783.3139234763416
1731652646.210477,770.5683245347182,824.4769728922037,844.2373643869236,757.516248353995
1731652646.2116964,775.5912506185267,818.9860306828609,840.6492500654683,745.2764010805239
1731652646.2143762,802.8048284304315,811.16650588541,836.8687969745407,750.6784466280252
1731652646.2182753,828.4912294358387,804.236906697554,833.9958587026414,763.533852340325
1731652646.2185383,831.5564578356489,801.1430798265349,832.2487265175969,769.07332726289
1731652646.2221744,811.1660987783546,802.8794521112654,830.8898290723581,760.8145391099506
1731652646.2260735,787.020291964233,808.17996212537,828.6632346476608,745.8865227031132
1731652646.2272737,782.1177798906378,814.6447056524131,824.6111114176562,738.5804662180176
1731652646.2299726,802.8783276148652,820.2762008435756,818.8285977094264,747.7819769772415
1731652646.233872,833.4379418667163,824.3086535902297,812.687129881291,768.9132671320574
1731652646.2373846,848.6496469044466,827.015282077801,808.3402495236577,787.1055936107358
1731652646.237771,834.7904430742083,828.983134700806,807.7228582301101,789.0686799761871
1731652646.2407238,801.0153365284385,830.505074797407,811.5281270807199,774.1349897428546
1731652646.24167,772.3718397046831,831.3922350074507,818.6751724949668,755.5797155035391
1731652646.2428513,769.9843867062518,831.1707424076671,826.5765357800746,750.8607816738675
1731652646.2455692,794.2579340025029,829.5107495225161,832.1618288466822,768.1138424082335
1731652646.2494683,824.721210447583,826.6757145453055,833.2449992725709,799.4324876052619
1731652646.2533674,836.8498592548399,823.6740603429563,829.6115587054844,826.4082899007805
1731652646.2562306,822.1481284251363,821.850459288995,823.2761411271981,833.7151172287919
1731652646.2572663,794.7141864144343,822.0467311868167,817.6957930396726,819.9973840384012
1731652646.2584286,778.7451700828791,823.9293975664515,816.1881237210517,797.6124013418507
1731652646.2611656,787.7186947050071,826.0959056215303,820.2519261588998,782.0577287848765
1731652646.2650647,813.0327656567823,826.9810455982091,828.7085912930282,780.1784468558208
1731652646.2689638,831.4682322660005,825.8980654171278,838.2788431867176,786.5372072430354
1731652646.272863,824.693069113525,823.4363385903653,845.3478584703901,789.9129829017155
1731652646.274006,794.3899668799472,820.9939020395823,847.8230959322224,783.5668908865996
1731652646.2750769,760.9948210631458,819.8826463394951,845.9316549982026,770.5517742358036
1731652646.2756436,747.5829402489062,820.6313330215206,841.6395406109874,760.1584736690111
1731652646.276762,761.7998071444782,822.8090568165438,837.3299271643772,759.037865415471
1731652646.280661,789.885034395885,825.3014096942779,834.6534019527473,764.736440863776
1731652646.2845602,807.6209061131424,826.8016945335917,834.0481574326685,767.3875008663048
1731652646.2884593,799.9769572628576,826.3173709415947,834.8986197550433,758.6010232373018
1731652646.2895834,773.7998844824492,823.5736496648208,836.0650080333651,740.1901716946875
1731652646.2923584,752.6594668250746,819.2182649127135,836.5079041437909,724.6705702828569
1731652646.293923,757.3372732613387,814.7080491490005,835.7442136383823,725.8669908936542
1731652646.2962575,787.8857488699286,811.79162735595,833.912237652825,746.6754956440905
1731652646.3001566,822.512070684053,811.6928854898816,831.4360508921386,774.4544859548224
1731652646.3040557,834.6325705657581,814.386376961835,828.6040449318793,789.0070987593764
1731652646.305161,814.1305607717183,818.4751683874808,825.48082712245,777.777773595348
1731652646.3079548,775.3984468461925,821.8989325773047,822.2369517800763,746.3980508117396
1731652646.310563,745.8811821061742,823.1158982006707,819.4893032278482,715.7879942808548
1731652646.311854,744.7273127417479,821.965828026924,818.1586413518507,707.3846061213628
1731652646.3127692,768.670792312213,819.571174128966,818.8374204426214,727.4954741619586
1731652646.315753,796.01849088178,817.3572220512967,821.2239017491771,762.8265974230368
1731652646.319652,805.1414938430702,815.9960824403418,824.1946485118532,790.8716876625961
1731652646.3207383,792.413916599416,815.1200825430042,826.5081829399737,797.2137269115524
1731652646.3235512,774.9192899323687,813.9215183029494,827.5432067711005,786.0300908657089
1731652646.3274505,775.5327650059444,811.9609204618047,827.4828166169192,775.3987388631853
1731652646.3313494,802.6713443765334,809.4341999863974,826.9249861913762,781.5163486206935
1731652646.3316152,841.7638148675596,806.8057673385568,826.378426517724,805.0874720357436
1731652646.3352485,865.87174522071,804.3426133481433,826.0359708125491,830.952568840568
1731652646.336316,856.9497572810233,802.0497955403961,825.8470396609889,840.6592737544398
1731652646.3391476,820.5467887519695,799.9619932017248,825.6922047819015,827.2334852656597
1731652646.343047,782.2849966706145,798.3466094325236,825.4984194627334,800.3745659161589
1731652646.3454826,769.0339913165991,797.5268383086504,825.2586497944268,778.5957617199514
1731652646.3469458,789.3731424690062,797.5221429610847,824.9987675832094,775.1042071880466
1731652646.3504615,828.0367595728455,797.979431196108,824.7426625770499,788.5606635654975
1731652646.3508449,858.1749401560415,798.6035539337879,824.498453699042,805.5472850474158
1731652646.3518932,861.8267049715687,799.7086555807704,824.2624060545056,812.2572516617879
1731652646.354744,842.8413376624444,802.2061594343791,824.028017732995,805.7090469991539
1731652646.3586433,822.278740449596,806.7518126853151,823.7916532363104,795.2914462966332
1731652646.3625422,820.0994230519611,812.6413566204185,823.5531733877838,793.5170182345296
1731652646.3664412,838.157408975613,817.5419875650215,823.3140213422195,804.0813389583675
1731652646.3674707,858.7047870620706,818.6491495388002,823.0754112443303,817.7741954741243
1731652646.3693075,859.8348235007478,814.6619976112478,822.8376927870758,820.0674124424262
1731652646.3703403,834.9727865686141,807.1186000761016,822.6006180318726,804.0573383696388
1731652646.3742394,799.8784195870401,799.9445639416455,822.3638290018184,777.7289065790719
1731652646.3781383,780.915388571842,797.3571827947638,822.1271354256072,759.179691429738
1731652646.380402,793.9782313140794,801.4848552745593,821.8905293647223,763.3054376213811
1731652646.382038,831.352160328506,811.2337606239677,821.6540789790178,790.3072829583084
1731652646.383048,867.3762406223992,823.0002146093768,821.4178378537463,824.9940042037882
1731652646.385937,878.4319550695562,832.6114028120465,821.1818166149893,847.5861744355433
1731652646.3881538,861.0810889649347,837.2624598436453,820.9459944583432,847.8844603651147
1731652646.389836,833.661080563892,836.4425536177698,820.7103344941846,831.8607569102725
1731652646.3937352,820.2150897306296,831.564880895212,820.4747903597288,815.44318283702
1731652646.3976345,830.2936020725476,824.7726029879711,820.2393177632234,810.5842209851126
1731652646.3986256,851.6144586804994,817.8090290557066,820.0039067800609,815.3176191811556
1731652646.4015334,861.5698848047928,811.6513268812328,819.7686214851793,816.2734205598507
1731652646.4054325,847.3891619029705,806.8834417501561,819.5335926849452,801.3163305288364
1731652646.4069998,817.4908842748575,804.1105537240367,819.2989044127121,771.1553414718026
1731652646.4093316,794.4415323020894,803.7716221703182,819.0643948166211,739.8685404971307
1731652646.413231,795.7853016455412,805.4890064867178,818.8295478645083,723.9902586533442
1731652646.4142027,819.0496347986909,807.7892957411192,818.5937556873097,729.3273627058035
1731652646.4153216,843.3932498348146,808.8302740734016,818.3570631780067,746.2355602442506
1731652646.4171298,846.4742090432504,807.7796694638109,818.1209523884249,757.1151667525336
1731652646.4210289,822.7203316979943,805.6822080383406,817.8880788398326,750.2367802373254
1731652646.424928,788.0693876949539,804.8968941826834,817.6599522350643,728.9948862558165
1731652646.425846,767.2030289020337,807.3658164419688,817.4332057653373,709.1312618398398
1731652646.428827,773.6220243011919,813.033790342434,817.198003957054,706.0108731161483
1731652646.4297805,798.9462678031427,819.6786002372341,816.94373711387,722.2555527818205
1731652646.432726,820.3271025771237,824.2717663366332,816.6733799141736,745.9228071483061
1731652646.4366252,819.7919171436159,824.8042384086781,816.4171023282341,760.6343523757585
1731652646.4405243,799.3257147307831,821.2927772024295,816.224256029359,759.0045036770214
1731652646.4444234,779.1045701693425,815.4827211959076,816.1163957509683,748.1529857338271
1731652646.444692,780.4297747771654,809.7483722604171,816.0170039009284,743.0586898064031
1731652646.4453578,807.4853765633975,806.0435062342885,815.7262947532561,753.6445142158418
1731652646.4483223,842.7552824003455,805.3846865930408,815.0286693302111,776.2320963902409
1731652646.450241,859.836068440408,807.8001169739694,813.9253380944854,796.1113458882842
1731652646.4522216,843.7337733421773,812.4713845327426,812.7925038579018,799.1361574255081
1731652646.4561207,802.9319008180606,817.9709287347614,812.2351019843132,783.2453838789894
1731652646.4600198,763.6891251932433,822.685095411749,812.7271246670111,760.6420440361334
1731652646.4609354,750.6040317213683,825.4083829644503,814.4145172171094,748.3799191203917
1731652646.4635384,768.2994204773956,825.8225802744987,817.2255310761843,754.430831588254
1731652646.4639187,798.5694725075178,824.5241906548657,821.0037268437457,770.6318971316031
1731652646.467818,815.4059599043834,822.5758513441041,825.3915084681909,779.0216109593097
1731652646.4717171,806.0570837009151,820.9168049160913,829.593646582348,767.1011995860824
1731652646.4756162,781.1620290915264,820.0041924518204,832.3865355141113,739.4786075699693
1731652646.476513,765.6384115132925,819.8044488373598,832.5611355705607,715.6269297596724
1731652646.4795153,777.7121852280748,820.0155609419616,829.6191586905849,714.8635669826657
1731652646.4823844,813.3244274681128,820.3269602626303,824.3019618191818,740.5455073909318
1731652646.4834144,848.8261153056785,820.5706174028495,818.5597674443328,776.4760810182817
1731652646.4851608,859.9015967453741,820.7258479354778,814.8385011839109,798.7933914166878
1731652646.4873135,841.301718418119,820.8420862586929,814.9544125835487,794.1853712761964
1731652646.4912126,811.1008055023862,820.9660318340838,819.1424543153753,770.0563282525651
1731652646.4920902,795.7384501448004,821.1133935332995,825.8683728067002,748.4406386709838
1731652646.4951117,808.1111314791433,821.2765473132322,832.5843516036617,748.4085473231835
1731652646.4990108,837.116284598099,821.4425493750796,836.9897061096754,771.1456724637617
1731652646.5012307,857.6287134729265,821.6042488712001,837.9963763331473,799.7647767017264
1731652646.50291,852.4498849663088,821.7614597428833,835.8484482172676,813.6403747537792
1731652646.506809,827.3269298853417,821.9171173431992,831.5451185100559,805.0438978064878
1731652646.5076675,806.0389253147221,822.0736775482387,826.2344532181271,784.4394488320186
1731652646.510708,809.7900394181655,822.2318689652135,821.0692337143133,770.8243505671252
1731652646.5146072,838.6184345703605,822.3912358565337,817.3397380779024,775.8471314289638
1731652646.5185063,870.5954005174535,822.5511113730863,816.289820692892,794.7527536762309
1731652646.5200768,879.3660047752626,822.7111675421269,818.3947132321555,810.8479478201493
1731652646.5200803,855.4231437927212,822.8714396169916,822.655044240426,809.2681071297037
1731652646.5224054,813.8259389115555,823.0321092860916,826.7421124920035,789.014754356098
1731652646.523245,782.3031704923688,823.1933198146764,828.2039655599813,764.0070407940289
1731652646.5263045,779.3823190975434,823.3551206062854,825.9763133826771,752.3873552596972
1731652646.5302038,800.1120142207121,823.5175020772446,821.0839853850946,762.3436905733167
1731652646.534103,820.9423490365452,823.6804471853925,816.0140901836181,785.6261348179695
1731652646.538002,819.8094684965762,823.8439570961158,813.2324628761996,804.082064225789
1731652646.5388224,794.8036325904566,824.0080490039334,813.8566767590208,804.0456304024153
1731652646.538923,765.803309104898,824.1727439546497,817.2637629321001,786.8870204248183
1731652646.541901,757.6925457732593,824.3380607098676,821.7302419041434,767.2217313256433
1731652646.5458002,779.229370714908,824.504019730417,825.5861612201479,760.5678525331884
1731652646.5496993,815.1819892930203,824.6706495609358,828.1133585337934,770.8408630209611
1731652646.5535984,838.2279580617768,824.8379826786179,829.6316473763513,787.9063390346378
1731652646.5544,830.8687249978002,825.0060339460248,830.8143328353787,796.9050347199517
1731652646.5549998,799.6070722836265,825.1747737173841,831.8678849893636,791.3477369426059
1731652646.5574975,769.9945590840546,825.3441301907876,832.280929312959,778.8932520624865
1731652646.5577693,766.4017388326891,825.5140568273058,831.3009670078061,774.7296516052043
1731652646.5613966,792.4625503102616,825.6846523848785,828.6661682538631,787.8716552206552
1731652646.5652957,827.8442280051654,825.8562280655316,824.9959904950996,812.110568033831
1731652646.5691948,844.343873194091,826.029153686918,821.6251465880972,830.0805202580781
1731652646.5699773,828.7619728011044,826.2034134549868,820.0559544420461,827.8355260218076
1731652646.573094,793.9810665043909,826.3781321013417,821.2880295906147,807.5913510330288
1731652646.576615,768.8196259026114,826.551721079786,825.2386111001914,786.996696861304
1731652646.576993,774.6447187163102,826.7232549113658,830.5427954500237,784.7241764554108
1731652646.580892,807.8670575536278,826.8947088809886,835.0555731035646,804.3922042800796
1731652646.5847912,842.6700301437875,827.0719483121977,837.0068594470598,830.6614599306253
1731652646.5855548,851.6359194484469,827.2613769857165,836.1126675439741,841.0361191879653
1731652646.5886903,827.4523145337871,827.4613639543609,833.7266067436383,823.6923683131185
1731652646.589919,788.4449713076704,827.6540013880605,831.7843192709415,786.9419317376244
1731652646.5925894,763.9978047817928,827.809664784508,831.3419057948123,753.0790459075537
1731652646.5954614,771.7432631491615,827.9148849102357,831.9074242608106,741.7676900585374
1731652646.5964885,804.4335930955124,828.0144170604898,832.0913742990203,755.8948111370861
1731652646.6003876,836.5293361975711,828.2266586657138,830.9841433825784,780.5365964125588
1731652646.6011322,845.0162682320774,828.6791816218085,829.0881283755967,795.4743564198136
1731652646.604287,827.639489957338,829.3660703830594,828.0211347420859,791.1618977850173
1731652646.6081858,803.7245531427851,830.037174018737,829.2083479453543,775.2839910724415
1731652646.6120849,797.0280891346035,830.24413663246,832.618285318646,764.7240443317843
1731652646.6143076,815.1294337953135,829.5234701277822,836.6095981698854,770.0453793155991
1731652646.615984,842.8301721144558,827.6133568213254,839.0605750497696,786.0339836147026
1731652646.6167097,855.1270109443843,824.6684058880646,838.8525315282725,796.5370782425218
1731652646.6198833,838.7723135007843,821.3775356754443,836.4777474668617,789.2736358148439
1731652646.6237822,804.2951671509251,818.7115061504944,833.3702254582828,767.5682611746073
1731652646.6248388,778.3614243869074,817.191697683295,830.711180105602,748.6252732445544
1731652646.6276813,782.5696802945229,816.1498150940952,828.7973847668472,749.4995017586147
1731652646.6315804,815.8797209210628,813.8007121902015,827.3357158233073,772.4069523943513
1731652646.632287,855.0114542892743,808.4962184628992,826.1168419320057,801.7994338722123
1731652646.6331537,872.734986417543,800.4719615500355,825.3553417786738,816.1839819643576
1731652646.6354797,859.4588702964303,792.642206792414,825.527060541851,805.5461752933146
1731652646.6393783,830.5493533686458,789.3887642788274,827.0125788598716,780.0974369501442
1731652646.6432776,813.1873287608623,793.799521251383,829.8049200272768,762.4895860798907
1731652646.6471767,823.4944478811362,805.2924966405732,833.2863483368146,769.1793872685934
1731652646.6478646,853.0256881316516,819.5742573051793,836.1232094212513,796.2719528548785
1731652646.6510758,875.9641040842821,831.1405036997448,836.5717222639845,822.0733966174578
1731652646.652,870.8372516533136,836.4568807375251,833.3798467895291,824.6141293264836
1731652646.6549747,838.4540451831341,835.4555533543102,826.8497651212683,799.5774369204455
1731652646.658874,801.2981340305457,830.516645711083,819.1140992976216,763.7695622353464
1731652646.6597583,785.2764358859637,824.2221029269731,813.0509127735834,741.6029122914777
1731652646.6627731,799.0598496937272,817.9365941059144,810.4635463499543,746.0406847679793
1731652646.663442,827.7563217989322,812.1155619925265,811.0394910178604,769.3259179317866
1731652646.6666722,845.7059784947024,807.430755564294,812.9878901360626,790.1643331199454
1731652646.670571,837.6969104461588,805.1465810774447,814.5982418715955,790.7606486547135
1731652646.670846,811.2115849278674,806.2301291527864,815.2261259086753,769.9819114282984
1731652646.6744704,789.7323057686694,810.2107041220771,815.1529880145881,742.8924394900222
1731652646.6783695,792.7299941956713,815.1500691256377,814.9196642404966,728.024600051101
1731652646.6790197,818.9941621913925,818.9245925630348,814.8526730809726,733.0118892157864
1731652646.6822689,847.198859088519,820.6746876514953,814.9863367035377,749.707539045455
1731652646.686168,853.2709185495165,821.1650590249542,815.2092213507117,761.8557146415666
1731652646.6896925,830.2465562887279,821.9024102712464,815.4172895908332,758.4960011950968
1731652646.6900673,794.3944383901936,823.9181499491859,815.5748264709881,742.2961429556316
1731652646.6939662,772.7117101541645,827.1547501902918,815.6978457395655,726.6188779506667
1731652646.6945968,781.830284790011,830.630027310307,815.8146061370749,724.1913084245418
1731652646.694678,814.9420944363885,832.9329135406733,815.9409797771743,736.5513721364773
1731652646.6978652,846.908523101516,832.6575818089896,816.0776014393803,752.5370000541801
1731652646.7017643,853.6496413243689,828.8025496656659,816.2181631423703,757.0850783038828
1731652646.7056634,830.8315176588943,821.3156196367147,816.3573172322393,743.6887776640259
1731652646.7085383,797.1008073052843,811.6310347212932,816.4934734193679,720.6655243426728
1731652646.7095623,778.955650356143,802.6216512866263,816.6276536256504,705.6100306832602
1731652646.7101743,789.1374577372306,797.4843430135298,816.761367945269,711.5883325133829
1731652646.7134616,816.2132198435362,797.8738125297753,816.8953967839028,735.8968958285897
1731652646.7173607,834.2229668823217,802.5227724533436,817.0297229797662,761.0774392901027
1731652646.7212598,824.5488851985308,807.6550613846576,817.1640003218797,768.2318371949848
1731652646.7251587,791.7114998625228,809.2964686471834,817.297960420907,752.1538740915754
1731652646.7257516,759.9010899866515,805.9685091141287,817.4315405873965,725.7099381862431
1731652646.7273846,753.328651901035,799.7376308928418,817.5648138755264,709.5790937914595
1731652646.729058,776.8147910337739,794.8096335823017,817.6978774972013,715.6351397567644
1731652646.7295976,812.4301292892553,794.7569748172131,817.8307878714318,737.5834631141581
1731652646.7329571,834.5881758591557,800.3740667011205,817.9635472864836,756.5697136873542
1731652646.7368562,830.9271603147371,809.4458333479462,818.0961162762366,757.1748420963125
1731652646.740755,811.5764004246707,818.2310574314153,818.2284412887387,740.4295955611753
1731652646.7413292,798.9923438942349,823.4804200371086,818.3605052334605,722.6595828438568
1731652646.7446544,807.1016273785748,823.8540594539677,818.4923913324196,720.9018100957111
1731652646.7462306,828.1069934899139,820.2449087753707,818.6243002768767,737.4921098620462
1731652646.7485535,839.0194761650813,815.0855871486694,818.7564315884546,757.566905250682
1731652646.7524526,822.6058529416234,811.0222392424815,818.8887131919596,762.029938696605
1731652646.7563517,784.34498213702,809.5655851133599,819.0205652087899,744.7207440443149
1731652646.7569065,750.168287667607,810.4509425484929,819.1510856641218,718.6139067615208
1731652646.7602508,746.4190466776677,812.1230332825022,819.2799494210387,705.4736160904184
1731652646.76415,778.6319175779762,812.9970907869805,819.4086614022146,717.7426649171691
1731652646.7645173,826.4409411843664,812.5530086091316,819.5408129197411,747.8836276161022
1731652646.7650769,858.5396802444428,811.4926350001908,819.6796457393915,773.9117169367908
1731652646.768049,855.9034336911403,810.9803182593544,819.8228927184836,776.6201634882726
1731652646.771948,825.5332629631445,811.6787609921901,819.9587808819063,754.838161209401
1731652646.772484,794.4236073790448,813.3516281994779,820.070545406199,726.6819354973815
1731652646.7758472,788.3872117224192,815.2554380634987,820.1541710244933,715.6093104416956
1731652646.7797463,811.9528648612388,816.8484065589411,820.2410812690543,732.0312262492719
1731652646.7836454,845.0201877784983,818.1000412932847,820.3992459957842,765.076732481524
1731652646.783923,859.1015806198243,819.1646916444836,820.6821303904281,791.3316919714599
1731652646.7875445,840.4211128524868,819.9299199483436,821.0294684536868,793.690426592947
1731652646.7880614,801.4444589341496,820.105233378063,821.1970019354143,775.0665307902258
1731652646.7914436,771.5606084228249,819.8240645039674,820.8459101390854,755.8812887403772
1731652646.7953427,774.3088788788065,819.9937993162966,819.8435031784217,757.576844034222
1731652646.7992418,809.1496913903238,821.7869120912875,818.5807527375465,785.5947416262113
1731652646.7994366,851.9359893524114,825.6017765409731,817.9459956801826,825.1956947639553
1731652646.8027692,873.467760708782,830.4689605971566,818.8220866592264,852.89477363208
1731652646.8031409,861.6306465302573,834.5137958898548,821.4316967437455,854.1818799002816
1731652646.8036387,830.04255648525,836.1299168069115,825.0495506880993,833.8262115301162
1731652646.80704,806.5126403075693,834.9528850144661,828.3692356687571,811.1135834066195
1731652646.8109393,810.3217958844879,831.9889990509541,830.3274742936527,804.0342462888152
1731652646.8148382,836.5625270810675,828.9377280708906,830.7504886688102,815.0789876603251
1731652646.8187373,860.6311541060171,827.2065927849098,830.277425249703,830.1227764292722
1731652646.8192165,859.4697388603885,827.1558759904686,829.715939234463,831.2704875046185
1731652646.8216152,831.6731198418968,827.9408481754092,829.4951928302013,812.8784246095353
1731652646.8226364,799.0851405506131,828.0835389363692,829.6023347551768,787.1983999498552
1731652646.8265357,788.2756316213353,826.5194475779346,829.8321377952402,774.7910363112939
1731652646.8304348,807.7212735543618,823.411300451639,830.0215361764408,787.595355596923
1731652646.834334,840.2697996434392,820.0154265351908,830.1263780467716,818.5319763019454
1731652646.834356,857.3370532400518,817.6705808069073,830.180857402723,846.0389312926281
1731652646.8347938,842.8199738324547,816.8584195495487,830.2313653403264,849.9490510279109
1731652646.838233,806.6609706618328,817.1361838904639,830.3005148714561,826.4216169691847
1731652646.8404615,776.7535704945785,817.7508505948425,830.386560480644,790.6563482627549
1731652646.842132,775.8239177201408,818.2067125229256,830.4783766341197,765.4933738200941
1731652646.8460312,802.4112524650826,818.4024407058733,830.5677592533259,764.5990238861793
1731652646.8499303,831.9809732565409,818.4610916641213,830.6528883536013,783.0815355359374
1731652646.8503711,837.6661710232813,818.5225305481497,830.7358273271058,802.7947581983043
1731652646.8538294,813.4540004252821,818.6455576165622,830.8190212579215,808.0236832695645
1731652646.8577285,780.0862580253128,818.8170932143988,830.9035527969512,798.6773096686989
1731652646.8593075,768.2704374296172,819.0012339418474,830.989243289951,789.9373568494284
1731652646.8616276,792.9368226180275,819.1746625443401,831.0754841553473,798.5005006840678
1731652646.865527,839.8229286421232,819.3340241357799,831.1618631245824,826.8787128318639
1731652646.865949,875.4954605587906,819.486630008127,831.2483111344458,859.1494383890081
1731652646.8692756,872.9584673961509,819.6397992911159,831.3349505509597,872.3821613579798
1731652646.8694258,832.6964908816235,819.796273446869,831.4219079699049,855.0355522284441
1731652646.8733249,782.6593851152359,819.9551058768269,831.5092272018298,817.3079767391091
1731652646.877224,757.1119631587911,820.1143489034849,831.5968811446326,784.2418778971694
1731652646.8781538,770.8107254258391,820.2728340538116,831.6848250882819,776.3702453726868
1731652646.8811233,808.7828810367052,820.4304495765819,831.7730430156545,793.5989108260513
1731652646.881526,839.6654496053671,820.5875980953535,831.8615631039377,816.0353700478885
1731652646.8850222,841.5574865571466,820.7446412671421,831.9504326772114,821.3623639903059
1731652646.8889213,819.1592735432899,820.9016880921605,832.0396557186045,804.016157755276
1731652646.8928204,798.3713651207397,821.0586661845016,832.1291275525004,779.7334250014591
1731652646.8967197,803.4388292083535,821.2154705141231,832.2186438120822,771.7391906291693
1731652646.8969998,836.0479410928004,821.3720462998427,832.3080606888509,790.6340705364545
1731652646.8971035,873.5418895409304,821.5283793054384,832.3975734028877,825.0289059139939
1731652646.9006186,887.2030126714958,821.6844434503379,832.4878679406892,850.4341439510358
1731652646.9041953,865.3732508486556,821.8401751438965,832.5797601580864,848.7253189649857
1731652646.9045177,822.8688269885923,821.9955190813025,832.6731678118546,822.3206707614772
1731652646.9084167,789.4357905667009,822.1505297460442,832.7660245620473,791.905029473302
1731652646.9123158,786.5576862688689,822.3054316217007,832.8546369388977,779.7419260999859
1731652646.9126809,811.0155131457307,822.4604959418792,832.9368790791821,791.9560358397847
1731652646.915846,838.2893053958549,822.6156799344286,833.0173453962825,813.9801971383292
1731652646.9162147,843.1492228288314,822.7702460668236,833.109567981441,822.9376224562769
1731652646.920114,820.8278381368522,822.9228904673915,833.228180918205,807.0594557587734
1731652646.9240131,791.3268617485437,823.0728675662381,833.3690839118156,776.2261890286233
1731652646.9279122,782.9228437638438,823.2217952690136,833.4905139187387,754.6059935895382
1731652646.9282584,808.1392161887692,823.3744180660332,833.5237206697205,760.9664196376898
1731652646.931811,852.0399385635361,823.5358362856045,833.4369219160963,792.626612842874
1731652646.934692,882.9113623782484,823.7045413259801,833.3300112048972,826.3910410004363
1731652646.9357104,877.1937027900597,823.8658159793106,833.4624187298538,836.1413259741184
1731652646.9391148,838.7477484395575,823.9955706159458,834.0827414410384,813.1946767457414
1731652646.9396095,796.6419454746145,824.082858752941,835.0380555856744,773.0733772858671
1731652646.9435086,782.5194515018757,824.163048344673,835.4193545532905,743.0696062898068
1731652646.9438355,805.2043530935767,824.3273425260155,833.7388641929755,740.521016264545
1731652646.9474075,843.2060747113313,824.6627578485173,828.902067758997,759.5042963446319
1731652646.9513068,861.9292149080974,825.1154754689338,821.4168585037033,776.9463574822802
1731652646.9535384,842.1152491028071,825.3681410931031,813.6698108235614,772.9852268199159
1731652646.955206,796.1033863474985,824.9082314747667,808.6879909196335,748.2393531188966
1731652646.959105,758.0571883274288,823.3807904905894,808.2437518274701,723.1702443313944
1731652646.9594133,756.0207575676329,820.9966130032007,811.8776116625562,720.1477433989177
1731652646.963004,789.0797118762544,818.5452547123577,817.5686380275165,743.7931423636123
1731652646.9669032,828.5477765871017,816.890816472192,823.2874617372064,776.503853754656
1731652646.9708023,841.7761268718679,816.4003194115147,828.038284301784,792.7505284354663
1731652646.9723845,818.5088888534975,816.7814151862029,831.7019419967862,779.7630988371291
1731652646.9740343,778.2646023002904,817.3019133565032,834.178904835403,747.3802321410426
1731652646.9747014,753.373495012867,817.0761023653363,834.8607316573714,719.5073696567993
1731652646.9749906,762.128607520013,815.3061686486811,832.9691918430439,714.8333461307923
1731652646.9786007,794.140309775979,811.6149428529294,828.3806547003505,732.6232626261541
1731652646.9824998,819.7573958042782,806.4855354831836,822.0887536136521,754.6454384651041
1731652646.9863987,815.5478919831758,801.4717232408198,815.8320341510074,761.0216116628301
1731652646.990298,784.3373211801843,798.7409078336716,811.1972277319826,746.6863660361118
1731652646.9905682,752.73787674379,799.9135643445837,808.9250819561894,725.0022532095945
1731652646.9912307,748.2621063983205,804.8153966707216,808.8520683065547,715.9032775863257
1731652646.9941971,775.6137984417622,811.1121162752316,810.3146333271707,728.6968894075214
1731652646.9980962,812.2918717646058,815.4182031092331,812.5612440592377,753.8013040233787
1731652647.001995,827.0038581100079,815.4185415348703,814.936969440666,770.1245739637355
1731652647.0058944,805.3189855366526,811.5468636399385,816.9391835438109,762.0899394861709
1731652647.0061457,761.589221540515,806.8166915801429,818.2880438295483,732.7811960915021
1731652647.0089538,727.9934990028748,804.7418681709574,818.9628198976875,702.8779655420869
1731652647.0097935,729.8689596917638,806.8754524907025,819.0790597889679,695.9441307206879
1731652647.0100768,766.625660369947,811.871351683942,818.667356763414,720.8432157614617
1731652647.0136926,812.6609802932154,816.7220279390134,817.6037819738007,764.3844144483347
1731652647.0175917,837.298795498066,819.0455682275556,815.8277649683445,800.1768572880321
1731652647.0214908,828.24165909842,818.5457331674363,813.6428884916587,807.7396681899506
1731652647.021723,800.1008835886652,816.6407387765596,811.7363948444685,787.611031136297
1731652647.02539,781.1444216657749,814.8905588293376,810.8087587451921,760.46547952957
1731652647.028923,789.0858738315017,813.764295589471,811.1151462199373,750.4940768222142
1731652647.029289,816.0825813167183,812.7352819684687,812.3259438990602,766.214889304679
1731652647.033188,835.6601955419939,811.3216727960661,813.8123969289134,794.397801761516
1731652647.0370872,825.8272287119248,809.8632954434673,815.105754105437,812.0675442410015
1731652647.0373003,788.8632447460868,809.2605119115253,816.1992423228419,806.3654612886111
1731652647.0409863,750.9990407168468,810.0293147013545,817.5269124508935,785.5072380230268
1731652647.0438733,741.9966020392019,811.6795749749692,819.6420002651911,771.8258198064749
1731652647.0448854,771.1886479119414,813.0412214610096,822.7519828371924,783.0325935667207
1731652647.0477693,819.3904677624429,813.2360174779047,826.3811188093466,817.4033853987169
1731652647.0487845,853.4499357724363,812.4262053433209,829.4486490616223,855.0070079170989
1731652647.0526836,852.240715280468,811.7120848817949,830.8321468316606,873.7998579451969
1731652647.052878,823.456561128593,812.2947308810473,830.0948908594172,867.2483163532497
1731652647.0565827,797.2331777115521,814.5913150785868,827.8222398866565,848.7895755750271
1731652647.0604818,801.0353215501445,817.9532111152482,825.229033000582,839.2197299266347
1731652647.064381,836.1048223248081,821.1241260172504,823.2849386979401,847.568659754241
1731652647.066615,875.3945428281071,823.066948683347,822.0799797308999,862.0821047101941
1731652647.06828,885.4845852213175,823.6141862555804,821.0246327034855,859.8360107125995
1731652647.0684552,854.7192023164852,823.5396577129648,819.7379763040744,827.5158453569106
1731652647.0721793,804.1514500152397,823.9692872354827,818.7484606933523,775.6210066481007
1731652647.0760782,771.9058227664107,825.4629048127346,819.1857054673129,733.0893191775792
1731652647.0787928,783.4346961765822,827.4282494369271,821.5862583476828,725.5864725876587
1731652647.0799773,831.5937232122294,828.4262307369687,824.9280397723571,754.812218955268
1731652647.0838764,882.3427512028615,827.2605043508448,826.9842895766429,796.008137676031
1731652647.0840328,901.2481405105104,823.9960076305787,825.9137333519159,816.3227262637702
1731652647.0854614,879.5960343532781,819.999430046592,821.7673426114204,799.7776938277871
1731652647.0877757,839.6028370912871,816.9333557930983,816.5591433293087,759.099386894193
1731652647.0916746,815.0512377018789,815.5928446050998,812.8200484454322,725.0229158213085
1731652647.0955737,823.3296626700327,815.5668118023317,811.9031033362833,721.634693437936
1731652647.0994728,851.7477166936019,815.8600428141596,813.424499781221,747.6028024874378
1731652647.09961,869.334654386694,815.761196964676,816.0615314114203,778.4340462823129
1731652647.103372,854.2044180923025,815.2359409389948,818.724304117736,787.6216813696445
1731652647.1043077,813.4004351284157,814.7695051213677,821.0438080979501,768.8708279396566
1731652647.107271,778.2043085657137,815.0293844632906,823.0498912001428,740.8008457291719
1731652647.11117,778.3483392298425,816.5813925886771,824.7042112638972,730.379138355467
1731652647.1137123,816.359098952309,819.595385301721,825.8285180052576,749.2544615189909
1731652647.1150692,863.6036321536894,823.5195459999281,826.3109526879052,783.1022422024785
1731652647.1151876,882.1397138456431,826.9854929697153,826.1710308416252,803.207115792554
1731652647.1189682,855.2472215238874,828.2561965624074,825.3846258650285,790.8300935239307
1731652647.122867,801.7725880917004,826.1501049313582,823.7650434305694,753.8834937322024
1731652647.1231537,761.9287296715079,820.8903183479392,821.1243615244508,721.4366329541834
1731652647.1267664,765.4088625917302,814.226864057273,817.5540562800242,720.0335150670886
1731652647.1306658,807.6357618449885,808.6338260754234,813.5208976730928,751.4115779517181
1731652647.130765,853.7418225494642,806.0644308465428,809.736495120592,790.4769706327401
1731652647.1345649,867.106357152548,807.0862031866008,807.0033446435186,805.5417028469261
1731652647.138464,838.9770920770658,810.8973241900302,806.1085960515834,784.1451996110837
1731652647.142,795.0081622072455,816.0087917241586,807.5833591477602,743.231554770788
1731652647.1423633,773.7967048455357,820.9241080773331,811.2593505040965,715.6095299164192
1731652647.1462622,795.2716650630487,824.3868188471214,815.9838672468621,723.9514435653898
1731652647.1463425,844.4669209093621,825.4076117859253,819.9869997227453,763.1206345814048
1731652647.148632,883.3682246518852,823.5610716559102,821.8878114590394,804.4182980955577
1731652647.1501613,881.0963688294514,819.564800585672,821.6370404745305,817.9770489133699
1731652647.1540604,838.3142645454375,815.4564934702662,820.5874155147109,795.6416222920437
1731652647.1579597,786.4074397664119,813.7126094039356,820.5447747133047,756.5605506102766
1731652647.160846,762.1565557415395,815.6052346409945,822.4842150017271,731.308801446319
1731652647.1618586,778.5089651092346,820.0407944853702,825.8712595148355,737.3247966541804
1731652647.1619198,815.3666088207683,823.9966700505909,829.0394495215493,765.4387999665199
1731652647.1657577,837.7915884879249,824.4713830596994,830.3153184014825,788.3422150663632
1731652647.1696568,826.172078099372,820.6357969487364,829.1305221580359,783.9096038190679
1731652647.173556,792.9791803156179,814.6243599611286,826.4310382911328,754.0717885913431
1731652647.1774547,772.1858522633274,810.2990961791468,824.1312918497711,723.7072717402835
1731652647.1774974,790.320865226559,810.72582809673,823.9074802800176,720.5456230424143
1731652647.1796925,843.1441344873216,816.0783473292623,826.0403020820545,752.4466046885617
1731652647.181354,897.0981173130597,823.498763269564,829.0789414090801,800.2546658287213
1731652647.1835515,914.7089836469274,829.0819116072528,830.6776514919019,831.9397902569111
1731652647.1852531,884.0309160515603,830.5335010050587,829.1936609741715,827.0983597428336
1731652647.1891522,828.612153203318,828.4832295231934,824.9922322116333,792.6696368596089
1731652647.193051,789.3564680372097,825.5183559546679,820.4283991808192,757.1894985588501
1731652647.1930747,792.2230669933057,823.9061919376977,818.3330290213453,747.7277374761438
1731652647.1969504,828.0004715306649,823.9990049086402,820.0018379281036,768.0244911374967
1731652647.1985383,861.1926049473395,824.5198989550447,824.2254870220323,796.0415687135909
1731652647.2008495,860.8389856816377,824.1364697087989,828.2141127906832,803.3182251228073
1731652647.2047486,827.2442226612833,822.691854643815,829.7590522700032,779.9619506653104
1731652647.2086475,791.8766777282849,821.0571479605695,828.8738746833634,743.9654209954534
1731652647.2086525,790.6418677412523,820.0238087818351,827.5299377449847,726.7713331513428
1731652647.2125468,833.2780971182696,819.4936077730216,827.7524109897494,747.2379398042041
1731652647.216446,894.2657612850184,818.7467794815487,829.8028733949354,795.7294135503223
1731652647.2173846,932.0625879600403,817.3953590211411,832.0549045914736,841.1316075647469
1731652647.2184713,920.5688121539525,815.9620681979613,832.5820123225941,854.6588823742557
1731652647.220345,868.1882593046097,815.4739071767042,830.944332705289,831.3729196569204
1731652647.2242296,810.6852026557759,816.5072324247335,828.5813515960551,792.9091366209691
1731652647.224244,784.2651488348409,818.67917791826,827.5564156061907,769.8903420921514
1731652647.2281432,799.7188071298966,821.0789480312619,828.84337657439,778.1908838443701
1731652647.2320423,836.990292794418,823.1095738430454,831.6107592341264,807.7804653566867
1731652647.2359414,863.2104690634274,824.7817705578645,833.9442735869593,832.4667373406678
1731652647.2362306,858.4598656761888,826.1659848639588,834.2270077614255,831.4737528581097
1731652647.2398071,828.0251378290989,826.7363320278024,832.0742899923073,804.322514532722
1731652647.2398405,793.110219941383,825.5259803907132,828.3545913703144,767.7066998642963
1731652647.2437396,771.6235274722097,822.0792315262673,824.5764761902436,740.0032176158064
1731652647.2476387,767.1443477298922,817.1896307084589,822.1314629143308,728.7018757334799
1731652647.2515378,772.2899078091795,812.5532828968244,821.700249426144,729.7191608924425
1731652647.2533906,778.2991455547764,809.6163631322995,823.0008188147754,734.7979650720742
1731652647.255077,780.9642438125069,808.7117982960218,825.0215566687771,738.2553074820552
1731652647.2553844,780.5984858113175,809.1643021234415,826.66737338619,738.7931874354782
1731652647.255437,779.2415303795971,810.0296684628242,827.389357239748,737.7209730090075
1731652647.259336,778.3937874430677,810.7122779215975,827.3292999900422,736.6219599748409
1731652647.263235,778.384190640764,811.0927540401174,826.9658790504438,736.1986802398877
1731652647.2671342,778.831939719172,811.3161474506551,826.6805651560284,736.3332368736733
1731652647.270962,779.2889253981423,811.5457096614996,826.5867307836138,736.627923663282
1731652647.2710333,779.5580765443692,811.8489500204829,826.6132606430145,736.8131000181623
1731652647.2739227,779.6733896966471,812.2095436362805,826.6546999769257,736.8427051811833
1731652647.2749324,779.7469847718618,812.5851765557206,826.6569023779169,736.7956855374241
1731652647.2788315,779.8545586069031,812.9487595889101,826.6216714637203,736.7555424932082
1731652647.2827308,780.0089114606881,813.2966661996707,826.5737597135185,736.7557229132228
1731652647.2865393,780.1878697167162,813.6376246629575,826.5323323386492,736.7874270200558
1731652647.28663,780.3681420218802,813.9802275183112,826.5021886323548,736.8293645214136
1731652647.28831,780.5405712547223,814.3276486151851,826.4789633438348,736.8683514556346
1731652647.290529,780.7078600254474,814.6787582706792,826.457087857474,736.903100365096
1731652647.2927692,780.8761840526122,815.0312913986342,826.433963461577,736.9384182269439
1731652647.294428,781.0494186549141,815.3839183585081,826.4098989568515,736.9789066629621
1731652647.2983272,781.2280959607883,815.7365501649713,826.3862666795166,737.026384492337
1731652647.3021169,781.4110471527146,816.0896941298538,826.3640449718508,737.0805206787768
1731652647.3022263,781.597172707255,816.4438041754458,826.3434375494245,737.1404516256453
1731652647.3061254,781.7861614029997,816.7990350441728,826.3241936509587,737.2058108654398
1731652647.3100245,781.9783078826318,817.155323663337,826.3060293172905,737.2768625495648
1731652647.3116152,782.1740564350287,817.5125596720959,826.2888286528687,737.3541661207983
1731652647.3139236,782.3737123604192,817.8706866237483,826.2726243861649,737.4382490826188
1731652647.3176942,782.5774067905279,818.2297095322642,826.257495603876,737.5294882022008
1731652647.3178227,782.7851939496038,818.5896588297122,826.243494456675,737.6281551158743
1731652647.3217218,782.997144875124,818.9505621431847,826.230632632615,737.7345039107428
1731652647.3232298,783.2133780525919,819.3124414041621,826.2189032511073,737.8488201477859
1731652647.325621,783.4340374050349,819.6753213830402,826.2083031669674,737.9714194463444
1731652647.32952,783.6592563757541,820.0392253297331,826.1988364167252,738.1026234093508
1731652647.3304615,783.8891438493181,820.4041473864221,826.190500501841,738.2427447022596
1731652647.3332715,784.1238099533552,820.7700230418156,826.1832727990932,738.3920967465936
1731652647.333419,784.3634209349651,821.1367474312764,826.1771195872275,738.5510200487038
1731652647.3373182,784.6082342221583,821.504280805062,826.1720379923013,738.7198952816597
1731652647.3412173,784.858541399495,821.8728013881182,826.1681071526885,738.8991067138736
1731652647.3451164,785.114487053337,822.2427435456243,826.1654841440836,739.0889490824845
1731652647.3488493,785.3758657260779,822.6145123161555,826.1642782035624,739.2895426254776
1731652647.3490157,785.6421627572212,822.9878601043064,826.1643263715157,739.5008913875656
1731652647.3493075,785.913101234238,823.3613841311089,826.1650669343821,739.7231886002766
1731652647.3529146,786.1895697955085,823.7330358580208,826.1658244579968,739.9572511640192
1731652647.3568137,786.4740872223074,824.1022443433585,826.1666376815058,740.2046218207659
1731652647.3581493,786.769514067722,824.4727075926766,826.1691465495321,740.4667493113589
1731652647.3607128,787.0755590074135,824.8526799780097,826.1763271865728,740.7432151218338
1731652647.3644266,787.3852331621327,825.2490158849295,826.1899316525554,741.0303196308296
1731652647.364612,787.6863374177146,825.6553444627958,826.206308920247,741.3225592971737
1731652647.3681538,787.9724966978812,826.0437765890165,826.214532356634,741.6186820244914
1731652647.368511,788.2603646969794,826.3768731304687,826.202607952275,741.9295906052268
1731652647.37241,788.596173505564,826.6493164656339,826.1734347545566,742.279056084642
1731652647.3763092,789.027971750805,826.9379956930372,826.1601815948148,742.6866657033818
1731652647.380004,789.5383910122151,827.3985062339664,826.2177344440295,743.1342271489676
1731652647.3802085,789.983310998147,828.140986912488,826.3702325553784,743.5425214094652
1731652647.3841074,790.1333927749988,829.0023968636764,826.5306438107154,743.8059277769545
1731652647.3869998,789.8945078799469,829.3986530809523,826.4658447150163,743.9113621719367
1731652647.3880064,789.6237743842546,828.5293697394609,825.8987772317438,744.0804928508932
1731652647.3919055,790.2081021323676,825.9727826095527,824.7384734003291,744.7594346154277
1731652647.3930688,792.4744764936853,822.2309927240372,823.24662931347,746.268766519152
1731652647.3955815,795.8980069548155,818.6480706530912,821.9218469853877,748.172628616824
1731652647.3958046,797.5396339142807,816.636687379537,821.1558410180943,748.9131752702339
1731652647.3997035,793.0172667477495,816.7860214756672,820.9892291751548,746.5992870240684
1731652647.4036028,780.6572153142606,818.5378757322615,821.1779565501223,741.3510949799335
1731652647.405846,766.5827317537768,820.6590846958837,821.4376989497695,737.9080376032505
1731652647.407502,764.3071425939214,822.0990355638954,821.6161081107774,745.2189996657196
1731652647.4111588,784.383347485412,822.5384862594187,821.7035266844557,770.2500616705101
1731652647.411401,821.0650592396117,822.2964984743809,821.754658359103,808.8080928708126
1731652647.4153,851.3804032801959,821.8677700365006,821.8167074856233,842.8899526841963
1731652647.4191992,852.4280223866692,821.558947024446,821.9038348834324,851.5804650125896
1731652647.4230983,822.8048473135734,821.4198658972441,822.0070384987856,828.908978495693
1731652647.4246922,787.2560240947739,821.3639112094233,822.1129425146872,792.0911792722447
1731652647.4267364,778.2838591308944,821.3015776434434,822.2146286172595,770.5747597611842
1731652647.4269977,809.5260342776951,821.1985686092797,822.3122638486009,783.8109829078725
1731652647.4279883,863.3854005663829,821.0659094773555,822.408945537836,826.0446656996716
1731652647.4308968,903.7055292608933,820.9272612608007,822.5070850008433,870.6249332138374
1731652647.434796,903.8033020820096,820.7969374920955,822.6072818220964,890.440153229861
1731652647.438695,867.5619480223459,820.6762832087417,822.7089718469844,878.3723418626843
1731652647.4423137,826.4966347080872,820.56021734515,822.8114327189467,851.7994804666971
1731652647.442594,814.8213668277931,820.4440584284223,822.9143150341629,837.7972562206688
1731652647.4435384,842.4308587267813,820.3262080112166,823.0176379426171,851.0094514426874
1731652647.4464931,887.6362352821147,820.2073772686217,823.1215571857388,882.0540034777819
1731652647.4503922,915.485474890274,820.0888111646434,823.2261795072197,905.8367752733673
1731652647.454291,906.5396235886942,819.9711914727565,823.3315118355966,902.8671825534173
1731652647.4578912,872.4486844414313,819.8545170764926,823.437499807779,875.9079473546357
1731652647.4581904,845.7230065708451,819.7384790226698,823.5440826122069,848.1186535865022
1731652647.4620895,852.4219966735903,819.6228135881959,823.6512251084224,844.1715219918173
1731652647.4623845,890.2868211581467,819.5074249822951,823.7589239783829,869.8008395887653
1731652647.4629078,930.078606680561,819.3923325017678,823.8671955922192,906.4411664524268
1731652647.4659886,939.0046374563924,819.2775762411148,823.9760484667694,925.4387168901069
1731652647.4698875,907.4365465920148,819.1631654567029,824.0854456202336,910.7512978359526
1731652647.4734683,857.3782174019103,819.0490781518279,824.1952825689692,872.1583693957236
1731652647.4737868,825.4777450743992,818.9352805108259,824.30542732159,838.1055309755354
1731652647.477686,833.8816104057522,818.8217367464785,824.415848044436,833.3089665034059
1731652647.4812307,872.5916491394548,818.7084031470114,824.5267631319575,858.8700533531787
1731652647.481585,908.099399227551,818.5952226214604,824.6386278210206,891.3187514928075
1731652647.485484,911.4409492550881,818.4821424316704,824.751760334886,901.8640609303726
1731652647.489046,882.3795419529793,818.3691591651535,824.8656720460081,880.2470145037521
1731652647.4893832,849.4911373684607,818.2563549221011,824.9786819739871,843.4075243865693
1731652647.4932823,846.1470981812113,818.1438554124792,825.0887529139593,821.6747485222163
1731652647.4971814,882.418475690588,818.0316661638699,825.1959543508409,833.8588145898882
1731652647.4978275,935.9171697450981,817.9194645360096,825.3051299509581,871.6592161977522
1731652647.5000768,968.8028308337167,817.8065927999294,825.4251631012604,905.9990554773044
1731652647.5010805,957.2616539165128,817.6925297630247,825.5613943462982,910.1573438612891
1731652647.5046234,910.1815082856733,817.5777900667346,825.7031259270124,881.2066096231881
1731652647.5049796,862.2494398902411,817.4645108053705,825.8178508402606,842.4940396547254
1731652647.5088787,846.6501361100225,817.3554576109974,825.8694851401515,824.8253374983132
1731652647.5127778,868.9450185280458,817.2507981364396,825.8658457934002,841.3242929891608
1731652647.516677,903.358844082593,817.1443709565926,825.9048598932295,876.6736296029586
1731652647.518923,914.7705679031538,817.0242019807021,826.1497524589377,899.9647437236762
1731652647.520201,888.3156297455178,816.8821443744432,826.6723138109013,890.5367707357358
1731652647.520576,841.9020476455537,816.730707096895,827.208612327519,854.9664082610061
1731652647.524475,811.2047330404793,816.612070416623,827.0400448499776,820.8848149758219
1731652647.5283742,819.7690750544926,816.5755905659195,825.2586684702347,813.1573394110349
1731652647.5322733,859.1071037089861,816.6139938013441,821.3975568469058,832.854870469514
1731652647.532747,895.0885853967682,816.5940581981243,815.9845285599284,856.672448252595
1731652647.5357783,895.2413462894584,816.2686057170816,810.5201701387241,856.914676389738
1731652647.5361724,854.8267587136021,815.439828435013,806.7907606579702,825.1049554681065
1731652647.5377693,800.7942673205403,814.2034134393118,805.8919306897803,779.6187733096501
1731652647.5400715,770.3846281886254,813.0437511931418,807.5829095759958,751.0170130513942
1731652647.5439706,781.4366007478616,812.6106995223084,810.4997589050519,757.0380928943017
1731652647.5478697,818.5725121780557,813.3196188842986,813.2008514746376,787.966719430063
1731652647.5513558,846.9753872049369,815.1397472539619,815.2828437405467,814.9301641181837
1731652647.5517688,842.4731411698903,817.7510074522723,817.6105120151931,814.5411993449509
1731652647.555668,812.2896195595584,820.8196931884755,821.395047073405,789.0574674991193
1731652647.5566154,788.3823720775931,824.0058521432696,826.87941337673,764.6304810493214
1731652647.559567,798.9294025774194,826.7084912707027,832.7861548514368,768.8672427929349
1731652647.563466,842.5121621029042,828.0006733516832,837.0487129335489,806.6120713472961
1731652647.5669332,887.2097334036168,827.0656758543843,838.2404768235432,854.2700354359035
1731652647.5673652,895.6277823587102,823.8236353086437,836.5273584745657,877.423343501969
1731652647.5676663,855.3100789619635,819.1196507005928,833.40896523955,857.5385843636121
1731652647.5712645,789.7696219552316,814.2586860239484,830.5572937749354,806.6034513329548
1731652647.5751636,741.1869040183011,810.3236049987349,828.7609390105315,758.3422963824031
1731652647.5754614,738.40004142261,807.8401932219296,827.7518955023405,742.9229294742707
1731652647.5790627,775.3328568155057,806.8893118160449,826.8395993043736,764.6979541105103
1731652647.5825107,816.7408331523749,807.3320345991013,825.6453711558778,800.1093322192004
1731652647.5829618,826.6319530291973,808.8679194538161,824.3316146427878,817.2193438450229
1731652647.586861,796.7109006427328,810.9763495078164,823.2961121272112,801.2749416405426
1731652647.59076,752.1119849661886,812.9334376781588,822.7318195623177,765.7767014681235
1731652647.5943077,730.0355986756924,813.9789145413318,822.4362164443198,740.2007702581074
1731652647.594659,748.9812263956512,813.5913680560221,821.975488981616,744.6694009057145
1731652647.598088,793.7805943614298,811.800002908164,821.0588748863249,772.5742386977179
1731652647.5985582,828.3519925883508,809.3657312719664,819.8585217525533,795.4214205728694
1731652647.6024573,825.307721930262,807.5650297886671,819.0163767930412,785.8402066295915
1731652647.602586,788.1170681122651,807.5141987107801,819.2445885854252,740.1100861807494
1731652647.6063564,748.0094755183642,809.4492533592996,820.7296986688284,682.2682840167641
1731652647.6102557,738.3919074282064,812.5750281829505,822.796811635263,646.6069812638233
1731652647.6131537,767.5509084085866,815.6552363900764,824.2165172138554,652.1400975665182
1731652647.6136656,811.7034998822577,817.8475410448497,824.0818997582234,688.6290787334267
1731652647.6141546,834.2189163239428,819.1019314440933,822.6292484999487,724.8478297212606
1731652647.6180537,815.7782292180406,819.8781739411766,821.2268157344798,732.7704085548871
1731652647.6219528,771.0008265123531,820.5119708881285,821.3206692318669,708.9841338520679
1731652647.625852,737.4953187654523,820.7905728192774,823.0823450596984,676.5365067314101
1731652647.629243,745.6143422024193,820.1024384782658,824.9770268962976,665.7445680877773
1731652647.629751,793.2894158228025,818.0819215991313,824.8446853424012,689.3851610484174
1731652647.632,846.6180317724242,815.2452567006759,821.7651750715676,732.2845896222036
1731652647.63365,866.2087406908032,813.0131851558067,817.1497289768361,763.6459181260975
1731652647.6375055,838.4711647522299,812.9107683779715,814.0082924331539,762.0270268793242
1731652647.6375492,786.727318126674,815.4078688858701,814.8324887959945,732.6372541621473
1731652647.6414485,752.737969188814,819.2652706261696,819.7358706417996,702.7363316929797
1731652647.6448205,762.9670836222789,821.9813479088851,826.3358661075827,698.6762586770517
1731652647.6453474,806.890755431901,821.1669119535907,831.4457652006436,723.4828601094982
1731652647.6492465,845.6305739584458,816.026845471259,833.1942849420243,754.0343116107047
1731652647.650846,844.3742327319476,808.067695854027,831.9608659038526,760.8568241071738
1731652647.6531456,801.7292856113465,800.6175441407,829.6318153547252,734.1662238014476
1731652647.6570446,751.1795419106695,797.349543633748,828.0557080116571,693.7836057130642
1731652647.6603978,733.2554901704282,800.4652357868327,827.9963802472004,673.8307165256533
1731652647.6609435,761.880832718582,809.4209948751986,829.1559729229116,694.6267922070123
1731652647.6648428,813.0184982427951,820.9439400747627,830.8293377166154,745.2977926948265
1731652647.668742,844.5024804001583,830.4817577378874,832.3924910873109,791.639722007605
1731652647.6696925,829.9629593263891,834.4066490306608,833.269495925505,802.6821384965072
1731652647.672425,779.065488809798,831.8020883809371,832.6796118631847,774.2606577214893
1731652647.672641,728.6133120480683,824.862934925058,829.7112725616657,730.9554223272144
1731652647.675975,712.8522919809458,817.6787826602513,823.9391500420469,705.5919035932313
1731652647.67654,737.1822742247341,814.0140474693745,816.2026907456394,713.2529144692763
1731652647.6804392,775.7957639551004,815.2672574927101,808.807137537024,740.5876486698652
1731652647.6843383,794.25290250622,819.792148935936,804.6698937353946,758.5218857187625
1731652647.6882374,778.1041946357846,824.0412913284835,805.7339512339414,747.4217265987359
1731652647.6885383,744.1446891023537,824.8453660299282,811.686084287307,713.7184654755417
1731652647.6915526,725.4815795918167,821.3549255521214,819.963240467159,684.3749266047254
1731652647.6921363,743.3024401193104,815.4094730820316,827.1487505739356,684.2082185077369
1731652647.6960356,788.897715827733,810.2188138979282,830.8532440726133,715.1419308470876
1731652647.6999347,830.4522721514734,808.3696427733353,830.8537665866202,754.3118359888443
1731652647.7038338,838.5039810709258,810.4703799011158,828.8300293587005,772.0769093292868
1731652647.7071302,809.1581065174976,815.1152165255286,827.0030418439391,755.0583275222554
1731652647.7073448,766.7098855470357,819.9146015386792,826.6530277660471,716.0335154319204
1731652647.7073846,744.0773056448284,822.8226033621802,827.4741949352901,683.4782624951075
1731652647.707733,756.6536108767184,823.0670364463886,828.1050216742041,679.4139999459575
1731652647.711632,790.1394313325144,821.3347508904801,827.3844867372557,702.9497156727914
1731652647.715531,812.3105415810941,819.2062609779313,825.4074903165684,732.3445448100341
1731652647.7194302,799.9620156019513,818.1616783711355,823.5852347685083,743.8401648905539
1731652647.7227075,759.3248323637232,818.7409903674022,823.6218484556333,731.7730334374525
1731652647.7233293,722.3074773760237,820.3802065042238,826.1497794165738,712.9217357335459
1731652647.7262306,720.4458630309277,821.9619825868467,830.0664301105024,711.0278897002165
1731652647.7272286,757.8328423342658,822.5748993752514,833.0719181772008,734.5990067080637
1731652647.7311275,806.258415552224,821.880645733987,832.9741562018236,767.4214509231916
1731652647.7350268,827.5278202471188,819.9399592930316,828.8547847953896,780.6644102268034
1731652647.7382853,804.798714862411,816.8980638468606,821.5163807638431,757.0037545323753
1731652647.738926,756.8996516071362,813.0169982823994,813.2223725376566,706.7843205390975
1731652647.7422645,723.7071454509406,809.048650646338,806.9335930652232,662.5363968591794
1731652647.742825,734.459878001914,806.3708322440937,805.1309284275136,655.5089311037761
1731652647.745077,784.5234652314405,806.3505904501004,808.4853109237717,692.1346296348719
1731652647.746724,839.0929196203666,809.1924795042943,815.1436915068554,748.6951985494659
1731652647.7506232,860.8221798748745,813.3390408600458,821.4778258919247,788.8205442175977
1731652647.7538624,839.3006584940937,816.3198814402402,824.2293698531179,790.7618674020289
1731652647.7545223,798.5881764658317,816.6609224341886,822.687069089052,763.056581726873
1731652647.7584214,776.5696295003049,815.2253146833503,819.1794723719055,735.804195914228
1731652647.7623205,793.0905218431903,814.5877430412506,817.355090035852,734.6562971450924
1731652647.7639227,833.4064905639275,816.8031877586584,819.5203258496739,759.4188425545846
1731652647.7662196,860.8308304299356,821.5604409396306,825.0915825229027,785.42692167657
1731652647.76944,848.0187809428149,826.4686368734262,831.278931545661,786.2242231506136
1731652647.7701187,800.7976197354178,829.2257919698892,835.3135894426842,757.7377406503765
1731652647.7740178,754.730416654183,829.6191913452514,836.4015918257135,723.0609937088473
1731652647.7771838,747.0692941549729,829.492096176875,835.9606468119792,713.6336790838975
1731652647.777917,786.7641257469512,830.7755400216814,836.1283892249359,742.4633492355277
1731652647.781816,846.7186533148329,833.5022843989804,837.8277738855079,791.6556325337424
1731652647.7827692,884.646076939917,835.6846472136433,839.8866135661417,824.9620739655461
1731652647.7850173,876.0286295296798,835.1553731486307,839.7949865076882,815.8737744418161
1731652647.785715,832.9080454057635,831.6467552786866,835.462150643327,768.9662914788814
1731652647.7896142,793.392411970129,827.1785629685814,826.7413634871973,717.0116954616495
1731652647.7935133,790.3495727039879,824.380260661394,815.8122072997512,695.585330362056
1731652647.7974124,824.895728505968,824.2463865423673,806.279716753742,715.4538852268063
1731652647.8005948,866.4505790492547,825.3152389994831,801.4665776092806,755.270958898747
1731652647.8013115,878.9565899024385,824.9560437020419,802.6915179717372,780.3523718784446
1731652647.8016152,851.0992598586802,821.5913201207125,808.4902261336125,771.5682470868167
1731652647.8052106,805.6161100818694,815.9671963226414,815.498932260158,740.4244165433927
1731652647.8091097,780.7311434576661,810.5547027680344,820.6014799353726,718.5968175019661
