timestamps,eeg_1,eeg_2,eeg_3,eeg_4
1731015703.450034,807.0414091117038,804.5448067025758,805.5938640962445,803.5813685446049
1731015703.4656663,807.3295359043925,804.4275341417971,805.5420437309737,803.6511067218865
1731015703.4812994,807.6923457746276,804.318883869237,805.4641547924653,803.7523906402513
1731015703.496932,808.1486266354282,804.2140707622501,805.353476835609,803.8769264075776
1731015703.512565,808.6461827859545,804.1043151220327,805.2282351204288,803.9988813655381
1731015703.5281975,809.103445554769,804.0010838973585,805.123720566244,804.1292895248881
1731015703.5438304,809.4738294591087,803.9385640659265,805.0769023768185,804.3110039142448
1731015703.559463,809.7823931932166,803.9297013953764,805.100546788955,804.5307996319001
1731015703.575096,810.1155641380207,803.9093959728123,805.1456104498387,804.6585981077445
1731015703.5907283,810.5785021355695,803.7462684576744,805.0826711811591,804.5465697794432
1731015703.6063612,811.2280529737632,803.3682973540635,804.765263087098,804.2566008408073
1731015703.621994,811.9780820099961,802.9258182485597,804.2039799982862,804.1820535315535
1731015703.6295776,812.5172963239945,802.8141526705763,803.7581596606223,804.833948382638
1731015703.6376266,812.3459763372488,803.4329936355442,804.1352494617628,806.3474735690088
1731015703.644039,811.0144705221423,804.7888142659222,806.0375503191063,808.1080371726437
1731015703.6479218,808.4839696765026,806.2745641461917,809.5670990727848,808.937204387738
1731015703.6483943,805.3436626199915,806.9307921272762,813.810603820555,807.8687368613403
1731015703.6518047,802.6074316825806,806.1268521438307,817.0611533762035,804.9706362151819
1731015703.6532595,801.0776428657662,804.1704712719129,817.7383019296466,801.4837760251986
1731015703.6556876,800.6714476600627,802.2944371699894,815.4731548130495,799.0495689391713
1731015703.6595702,800.3164898547258,801.929377174176,811.5347937814918,798.622449509382
1731015703.663453,798.7222748249125,803.7740267340666,808.1448240600663,800.003905243272
1731015703.6672113,795.5925207939938,807.3498460719627,807.0645202913371,802.3588358328246
1731015703.667336,792.2623170319339,811.314317867445,808.4613387516933,805.0971324507515
1731015703.668892,791.0060448700699,814.2224003972156,810.8904517723249,808.1576798746149
1731015703.6712189,793.3605480480403,815.1957149225865,812.3704850991098,811.4382140848642
1731015703.6751018,798.8052927822965,814.1862368072759,811.7147972373645,814.1240665196704
1731015703.6789846,804.9794679403511,811.8714175863311,809.1697887676045,814.8478955212823
1731015703.6793363,809.2921865415094,809.3583197888994,806.0390150854715,812.7297657642665
1731015703.6828675,810.5368619464555,807.8033304662708,803.7527234824522,808.3538478728537
1731015703.684525,809.2084655951357,807.9922354883657,803.1297064939579,803.6991890474349
1731015703.6860278,806.5308058750654,809.9931080860013,804.2234890784565,800.9810531984581
1731015703.6867504,803.3552074658566,813.0797665203926,806.5823162297008,801.3165660774936
1731015703.6906333,799.9647830187608,816.0511737116161,809.5311069253446,804.2229279920131
1731015703.694516,796.6944296963428,817.8315940928962,812.3134987355272,808.1999449606295
1731015703.6983988,794.4178309079753,818.0151196087862,814.2321578681367,811.7912030053664
1731015703.7001576,794.2034920356915,817.020896171787,814.912362097729,814.2871177309271
1731015703.7022817,796.4255958904912,815.7707516566078,814.5455174139968,815.7166853112368
1731015703.7048447,800.2482412783681,815.1045570943812,813.8293243123547,816.42484823279
1731015703.7061646,804.0531816751098,815.2966871449197,813.5285304490634,816.7387031623674
1731015703.7100475,806.4655040858491,815.9512359404412,813.9358548753664,816.9102859050623
1731015703.7139304,807.0976184462673,816.3086428153144,814.6454477227679,817.1451259763262
1731015703.714327,806.4658440828242,815.7472948242234,814.8214302747782,817.5086865956914
1731015703.7157905,805.322361862612,814.1650236023274,813.7615949100749,817.773353021624
1731015703.717813,804.0859656480727,812.0339931374289,811.3490582100454,817.4295575763302
1731015703.721696,802.7959536438792,810.1377668105699,808.0995067232808,815.9431094020808
1731015703.7236614,801.4308651011318,809.1519119004646,804.8235972478122,813.0961806891578
1731015703.7255788,800.1465160977256,809.2548696012848,802.1790996556583,809.176093957312
1731015703.7294617,799.2055961519669,809.92915683779,800.4124844863135,804.9015934300386
1731015703.7314231,798.7543434838757,810.0922227574815,799.4026718199451,801.1401589680629
1731015703.7333446,798.7170804093847,808.6103074293981,798.888386727123,798.5619345882852
1731015703.7372274,798.8852765509824,805.020337923902,798.6650164712506,797.397557237995
1731015703.7411103,799.072377383289,800.0316285264865,798.6311052130528,797.4231659279279
1731015703.742478,799.1958901034301,795.3766096452347,798.7337954808886,798.1612812576983
1731015703.7449932,799.2619397575012,792.9604108265105,798.9295562494248,799.1175075375907
1731015703.7470558,799.3084235271596,793.787675015693,799.1896091117667,799.8484988519943
1731015703.748876,799.3624040229902,797.3759697020574,799.4766790303725,799.8750765497022
1731015703.749318,799.4291121913311,802.059155999208,799.6567386653235,798.7069409235713
1731015703.7527587,799.5010399340351,805.9569844871996,799.4451617090921,796.1731316795644
1731015703.7566416,799.569866731142,807.9365214450958,798.5240953112127,792.8344637032542
1731015703.7605245,799.6321133610046,807.9679696653069,796.8174173199096,789.9699942236779
1731015703.7612948,799.6885541184432,806.7907768563942,794.7207525781406,788.918969095541
1731015703.7626886,799.7413094331788,805.3040461399378,793.0644199573944,790.2024351156182
1731015703.7644074,799.7917567188196,804.1645019744137,792.7615612442326,793.1446575145907
1731015703.7682903,799.8400977997376,803.7213218413797,794.3078977036432,796.3099620439468
1731015703.7721732,799.8859085179821,804.0545478259395,797.4081277401258,798.3765802744728
1731015703.776056,799.9287671671703,804.8975197964079,800.9694802001025,798.7690503056388
1731015703.7783213,799.9685243572736,805.5491654904465,803.5460698260885,797.6849077771534
1731015703.7799387,800.0052502829868,805.0837909422739,804.0770368606098,795.6969976483728
1731015703.7801116,800.0390760246759,802.9412720298261,802.5319511981759,793.3725964451887
1731015703.7838216,800.0700876327058,799.5172324679019,800.023140156009,791.1613221979561
1731015703.7843091,800.0983081141734,796.1732771671619,798.1965478727222,789.4393590308306
1731015703.7877045,800.1237285742237,794.4534261412144,798.1988721179575,788.4623166862926
1731015703.7915874,800.1463434827851,794.9845383608058,799.9101002476325,788.1989932914745
1731015703.793954,800.1661699976894,796.9347933983156,802.0468215572204,788.2977533395548
1731015703.7954702,800.1832507268069,798.561271112516,803.1275660359066,788.3763729347937
1731015703.7989285,800.1976420171052,798.5009285522906,802.5916093701674,788.4224594605985
1731015703.7993531,800.2093872818219,796.7975272820728,801.199851837382,788.8285084861353
1731015703.803236,800.2184835698205,794.8320346629278,800.419957494179,789.8899761935153
1731015703.807119,800.2248716389506,794.2208299112813,801.3261334038557,791.237909493867
1731015703.8095868,800.2284921907085,795.589374676341,803.8926051475668,791.9139388914502
1731015703.8110015,800.2294159173937,798.1915992077285,807.1524795492403,791.2144222462783
1731015703.8148844,800.2279587926082,800.6045624923918,809.9534130725237,789.5528655209238
1731015703.8177452,800.2245967743648,801.85664225636,811.6356660177905,788.3980647738027
1731015703.8187673,800.2195377854308,802.078578552199,812.1701934907801,789.1760031056517
1731015703.8193,800.2121179094892,802.250708052292,811.8396237136294,792.0879567066542
1731015703.8226502,800.2006658429488,803.3602819815666,810.9016441903093,795.9627551661463
1731015703.8252196,800.1836536215276,805.6543848210944,809.5564055168454,799.2841763702019
1731015703.8265333,800.1621671206753,808.474342581069,808.1242239989753,801.3824777239713
1731015703.830416,800.1418556622341,810.6775411676533,807.084526166573,802.6461601691468
1731015703.8342988,800.1308352190347,811.3004941565013,806.8106791215513,803.6511493581645
1731015703.836562,800.1312242967512,810.0634181188373,807.2461034431741,804.2385824193615
1731015703.8381815,800.1281662554206,807.479149344388,807.9113656244094,803.5992782080897
1731015703.8408525,800.0889498093483,804.5633636144283,808.3055872807007,801.305481726433
1731015703.8420644,799.9868647201541,802.3446343597698,808.3268400412841,798.1615040281216
1731015703.8459473,799.8478119508208,801.4525697957675,808.2992018077429,795.8779525982195
1731015703.8498302,799.781745547051,801.9659741286773,808.6072124207882,795.772714313311
1731015703.853713,799.9320402139057,803.5043003520923,809.3276125248997,797.6959219767876
1731015703.854291,800.3041982338066,805.4216233994526,810.1944878613284,800.1544533294161
1731015703.8553786,800.552641921629,807.0032405980954,810.8503774768649,801.4722919675398
1731015703.856485,799.9485479737408,807.6647883456981,811.0791005285425,800.947906940167
1731015703.857596,797.7418412536149,807.1566332694,810.8292151616823,799.1265146719802
1731015703.8614788,793.8305532138633,805.6858700629778,810.118563658345,797.1735123788574
1731015703.8653617,789.2441296180198,803.8329701534693,809.0130521467674,796.0233341249196
1731015703.8692443,785.8886504106046,802.2482665454253,807.7092919111254,795.952515775578
1731015703.8721178,785.5081796481229,801.2812979351543,806.5528976722757,796.6972403586749
1731015703.8731272,788.5178595633644,800.7740036605958,805.8523309633157,797.7958148895149
1731015703.874195,793.6156820755483,800.1734462462667,805.5947744577031,798.832407409535
1731015703.87701,798.5728526946747,798.9350870006668,805.3606984267024,799.5229046769216
1731015703.880893,801.6774687917911,796.9892007964913,804.6151167659744,799.743468503673
1731015703.884776,802.731840779044,794.9532243501415,803.1905308218614,799.5447027736595
1731015703.8877504,802.8446719119875,793.8956921153678,801.5331045513691,799.1155805668477
1731015703.8886588,803.2885671594447,794.7588419963489,800.4548884492892,798.7083396830072
1731015703.8892815,804.4804704320343,797.8073394515055,800.5887723822289,798.5981698421976
1731015703.8925416,805.92400365199,802.4590887549768,802.01288330592,799.0816171230118
1731015703.893012,806.9618142933771,807.5754863255174,804.3090887567424,800.4023261125118
1731015703.8964243,807.4557786943409,811.9916022469694,806.8827941426931,802.5459438405404
1731015703.9003072,807.7603974223521,814.9798452868075,809.1895410320267,805.0645008582728
1731015703.9033833,808.2045637158164,816.4550950443478,810.751611445399,807.1925443409584
1731015703.90419,808.7645906311215,816.8829476891625,811.1641301819169,808.3026709317153
1731015703.9080727,809.2555860726181,816.9556365543623,810.2805705639582,808.3998239980887
1731015703.9118288,809.7210273016126,817.1842911618255,808.4598514970157,808.2420285269093
1731015703.9119558,810.5292917802298,817.6259480501537,806.5551335914578,808.9226012116139
1731015703.9158387,812.0883397130762,817.9223085189581,805.5034106141425,811.1339439023928
1731015703.919016,814.5079700380436,817.6230652341642,805.763714266019,814.5770240670746
1731015703.9197216,817.5230030931968,816.5439322638143,807.0448637031458,817.9540399293973
1731015703.9236045,820.6704473978709,814.8921860441162,808.5588758481844,819.6680077589185
1731015703.9242728,823.4999562417597,813.1072220402532,809.609595799535,818.8561254816912
1731015703.9274871,825.6573381086615,811.5871410511929,810.0427023612984,816.0285765236581
1731015703.9306457,826.8566157489411,810.5020560594944,810.1880192016197,812.7589919418748
1731015703.93137,826.8560438712549,809.7720102529433,810.3553325210275,810.5825222007333
1731015703.9346488,825.5376213472878,809.1795776698834,810.3572765053467,809.9456094853546
1731015703.935253,823.0921029368784,808.5489029428326,809.5488746632817,810.0588887888391
1731015703.9391358,820.1689507477624,807.8960333307804,807.420535004834,809.7503072647538
1731015703.943019,817.7652975928331,807.4420572823072,804.2354788338675,808.5486084363039
1731015703.9469016,816.7534693427085,807.455605891483,801.095301456654,807.0394748728601
1731015703.9494624,817.2792066031589,808.0360069815856,799.298626220329,806.2061220203398
1731015703.9502814,818.5155037005188,809.0156037136353,799.4868711482335,806.3882559651771
1731015703.9507844,819.1000784851291,810.0613019620902,801.2469913200424,806.8464928312195
1731015703.954667,818.0472542413103,810.8877536568399,803.4289673725821,806.3892112126654
1731015703.95855,815.4641339223651,811.4155353575431,804.8690286572877,804.5456256613998
1731015703.9592636,812.4837366155858,811.7593660557825,804.9891859563028,802.1950458927582
1731015703.9624329,810.44248719893,812.0468959476566,803.961025238789,800.960804073057
1731015703.9659142,809.9487501980194,812.1865335842541,802.4831077444717,801.7973985290598
1731015703.9663155,810.5577858241124,811.7811366891884,801.4098723968574,804.039749654312
1731015703.9682791,811.2366105010232,810.3395086770429,801.4144126775725,805.8600677189944
1731015703.9701986,811.1634187958083,807.7116232619419,802.7281266539916,805.784067264413
1731015703.9740815,810.2139493255467,804.4072749018286,804.9682946105133,803.8847655019647
1731015703.9779644,808.8497833572794,801.4538114716102,807.1614575039097,801.5641063220547
1731015703.9815469,807.6549280838693,799.8163241365683,808.112547433702,800.1930517976905
1731015703.9818473,806.9840465964867,799.820313508122,807.071703908743,799.942028220302
1731015703.98573,806.9485358272395,801.0331940541042,804.3056456989464,799.853613220558
1731015703.9870958,807.5746379255368,802.647229890241,801.066893454893,798.9549344000087
1731015703.9896128,808.8411047387751,804.0051811160478,798.8379513976076,797.2823940414245
1731015703.9934957,810.5471071168345,804.8978077426104,798.3610143116342,795.9201735816489
1731015703.9942546,812.2522607125345,805.5396983563791,799.2301591104502,796.14099752633
1731015703.9971795,813.4919649764782,806.341828930626,800.3785707384147,798.4678458901086
1731015703.9973786,814.1268789344971,807.60732644623,801.0043788285793,802.3805886954826
1731015704.0012617,814.4524847113952,809.2413282437935,801.1081108786294,806.7444299970116
1731015704.0051444,814.8874530932959,810.6202071735115,801.2377887740728,810.4958178189029
1731015704.0059123,815.4981469326616,810.7962424405156,801.817784552721,813.077978691827
1731015704.0090272,815.8227079830008,809.0406364297426,802.7645441482114,814.4548223721534
1731015704.0128124,815.2007270786979,805.4158756676165,803.6711127471917,814.8665227782416
1731015704.01291,813.3538144973567,800.9318852156312,804.2260018207219,814.5786621248573
1731015704.0167928,810.7386735283238,797.0918318454643,804.4149754037169,813.7745853882997
1731015704.0206757,808.3779062851867,795.099340168275,804.4180951034083,812.6148389306602
1731015704.0245583,807.2711765788974,795.2656365243754,804.4144522772489,811.3901244991713
1731015704.0247293,807.7873775068399,796.99012345219,804.4807381672639,810.6060580223594
1731015704.0284414,809.4467060222446,799.2549927611232,804.6049353082935,810.8340551395514
1731015704.028445,811.2320009764726,801.2378935465082,804.7454542909519,812.3424819461683
1731015704.0292454,812.209084475245,802.6351091856582,804.8743222181159,814.7808332170838
1731015704.0323243,812.0393207588157,803.5577215187668,804.9870080960796,817.2402456153603
1731015704.0362072,811.0700693797735,804.1912210995717,805.0919239539559,818.7247959799255
1731015704.04009,809.9958709592615,804.5549983218598,805.1978005861234,818.6860482298865
1731015704.0435462,809.3578040933463,804.5574516312936,805.3080541966592,817.2000631611411
1731015704.0439727,809.2109143114296,804.2397460351259,805.4216831400184,814.7057612721978
1731015704.044078,809.1360178888345,803.9166518138935,805.536412884301,811.6262991507265
1731015704.0478556,808.539560569359,804.035096717819,805.6508428019894,808.234846214321
1731015704.0517385,807.0360505572434,804.859161786959,805.7648226892294,804.7990934816518
1731015704.0556214,804.7160612897405,806.2532416334519,805.8788331167062,801.7488417388764
1731015704.0595045,802.205295321603,807.7258650822587,805.9933247547036,799.647885269557
1731015704.0597105,800.4932865095474,808.6734661275955,806.108452936015,798.9738683849796
1731015704.062363,800.533477432103,808.6686569075963,806.2241481588848,799.8373110587473
1731015704.0633872,802.7061984395308,807.6936832563234,806.3402871794178,801.7803339255431
1731015704.0642364,806.4345975627053,806.2506364683027,806.4568004233778,803.8200427279967
1731015704.06727,810.3327757955037,805.2240685376105,806.5736843114905,804.8832082130982
1731015704.0711527,812.9736364286772,805.4154861125024,806.6909639129495,804.527667114423
1731015704.0750356,813.804588193867,806.9497649515223,806.8086569174648,803.4570822338023
1731015704.0753434,813.4587527462365,809.031174018515,806.9267619926939,803.2600743311525
1731015704.0789185,813.124215237664,810.3838647413853,807.0452688933772,805.3232053756099
1731015704.0811796,813.4707804608067,810.1306227577227,807.164176041999,809.6258637332481
1731015704.082801,814.0965830778091,808.3990250731476,807.283499349884,814.3960165415288
1731015704.0866842,814.02332934369,806.1383533988603,807.403259585558,817.0376845517733
1731015704.090567,812.782851899346,804.3447615043991,807.5234479030357,815.7571881732189
1731015704.090976,811.0420834682075,803.4121945348128,807.6439934322852,810.7368497612815
1731015704.09445,810.1278168906829,803.1415860681424,807.7647808306131,804.0157177280997
1731015704.098333,810.8671238837928,803.2708717210373,807.8857557970986,798.1911310382962
1731015704.0992272,812.8255165479382,803.9066246362045,808.0070804677422,794.9012489722361
1731015704.0999963,814.6489108888477,805.3859059556,808.1291790356307,794.1248483112978
1731015704.1022155,815.1689327204926,807.7059668928066,808.252462312054,794.6000898428215
1731015704.1060984,814.224390841113,810.1428257526971,808.3767062344946,794.7762541087536
1731015704.1066089,812.4591606068852,811.557278451888,808.5005288562886,793.4794971874594
1731015704.1099813,810.3876995336548,811.2311551881868,808.6218566626637,790.0548838566896
1731015704.1138642,807.7625299462902,809.4993751927691,808.7400146386626,784.4303901386745
1731015704.1177473,803.9481117110735,807.5469195652472,808.8585558932548,777.5010436956129
1731015704.118813,798.8970295801629,806.4898554088711,808.9856991742923,771.4901759554512
1731015704.12163,793.6244616106867,806.5454261369894,809.1285671757994,769.4637593868158
1731015704.1222415,789.6032045505317,807.0179145469925,809.2813843576718,773.7394276143228
1731015704.1255128,787.6842930400148,807.0413244796339,809.4167978573322,784.1414884296115
1731015704.1293955,787.6103766263886,806.3236310342235,809.4971418077191,797.6031758184414
1731015704.1332784,788.4502423888252,805.2358862229162,809.5159125154696,809.7143074132515
1731015704.1342182,789.3550384425333,804.3236654430822,809.5498124180796,817.1771651745383
1731015704.1371613,789.9595519140046,803.8441829742843,809.7614936327552,819.3581058105193
1731015704.1376295,790.3079377334915,803.7212644378743,810.2890496868288,817.9664361297469
1731015704.137874,790.5840313960703,803.7684520143403,811.0493895184164,815.4577744557721
1731015704.141044,790.9140123721588,803.8584912316477,811.6434228850534,813.54244261648
1731015704.144927,791.3195136935489,803.9455658076978,811.5692447303427,812.6887336514708
1731015704.14881,791.7634102233723,804.0264024833535,810.6519692599264,812.5254561823659
1731015704.1526928,792.2064146691554,804.1083412331193,809.2737154197803,812.5074330211173
1731015704.153507,792.6328202257743,804.1955369578758,808.1195477776583,812.3269618225297
1731015704.1564465,793.0468527482761,804.2871502540285,807.6535962287338,811.9594506464335
1731015704.1565757,793.4586551494799,804.3803831404088,807.8085933506634,811.5137056099703
1731015704.1604583,793.8745682348654,804.4732327755289,808.1368770837279,811.0866899104187
1731015704.1643412,794.2953295989287,804.5652513269785,808.2369353709197,810.7092953743207
1731015704.168224,794.718800806414,804.656924627797,808.0566879179352,810.3645772370851
1731015704.1691396,795.1429367645421,804.7488293239983,807.8195711047904,810.0255662006585
1731015704.169209,795.5670037982886,804.8412162333975,807.6696528660273,809.6778120419979
1731015704.172107,795.9912838799413,804.9340355435357,807.4075666586943,809.3212599611647
1731015704.1752634,796.4163129843065,805.0271356430774,806.6435718513831,808.9620652138672
1731015704.17599,796.8423951080264,805.1204121792281,805.3016759004539,808.6051954971676
1731015704.1798728,797.2695384398583,805.2138425077947,803.9825392158072,808.2519935594901
1731015704.1837556,797.6976128711486,805.3074492802481,803.6892769484414,807.901394586359
1731015704.1847725,798.1265042320391,805.401256255636,804.9694862230643,807.5519537683185
1731015704.1876383,798.5561707538809,805.4952683965149,807.1758996829278,807.2029551949461
1731015704.1915212,798.9866222305595,805.5894750177529,808.6202590848991,806.8544330033302
1731015704.19408,799.4178789759761,805.6838611703852,807.6933234047932,806.5067117733985
1731015704.195404,799.8499477399894,805.7784155865977,804.1272811923501,806.1600274622939
1731015704.1992867,800.2828199578098,805.8731317503026,799.3390287879397,805.8144198135885
1731015704.2004051,800.7164806911557,805.9680042218606,795.5027417939014,805.4698086866379
1731015704.2031698,801.1509165850819,806.0630241227776,794.0588518887222,805.1261017551858
1731015704.2042,801.5861184449374,806.1581776375067,794.83278608524,804.7832484020869
1731015704.2070527,802.0220799001113,806.2534503421924,796.4085500097453,804.4412368117232
1731015704.2109356,802.4587951997522,806.348836768517,797.3671367278451,804.1000684561341
1731015704.2128968,802.8962579467659,806.4443480596497,797.3520013136671,803.7597388026702
1731015704.2148185,803.3344609456246,806.5400047813097,797.1614654127557,803.4202327718776
1731015704.216038,803.7733966198833,806.6358063077811,797.9143394329532,803.0815294324195
1731015704.2187014,804.2130575858333,806.7316904338031,800.0511221468513,802.743607803357
1731015704.222584,804.6534372587179,806.8275288528098,802.9671767488857,802.4064495125685
1731015704.226467,805.0945302915641,806.9232124725828,805.4818510860587,802.0700382998446
1731015704.2303498,805.536332274916,807.0188216189105,806.6779140349356,801.7343582042628
1731015704.2316706,805.9788381017764,807.1147463088595,806.4421538832435,801.3993921564415
1731015704.2317135,806.4220394286755,807.21151556237,805.3890973452665,801.0651219595251
1731015704.234233,806.8659235958684,807.3091979505784,804.3705589401326,800.7315298944652
1731015704.2381155,807.310477473633,807.4066760575719,804.0074045957549,800.3986011530485
1731015704.2391908,807.7556971925446,807.5016823500235,804.5114708492869,800.0663248751151
1731015704.2419984,808.2015974365984,807.5925544824256,805.7521403416483,799.7346908790271
1731015704.2458813,808.6482062089195,807.6814396955972,807.3763689194575,799.4036814028588
1731015704.2473035,809.095533390071,807.7762137397181,808.8879113797427,799.0732632830205
1731015704.249764,809.5435240077395,807.8866237843599,809.7565829593203,798.743392440841
1731015704.2505302,809.9920438496117,808.0126132154088,809.6428046212735,798.41404040821
1731015704.2536469,810.440961225274,808.1314693204115,808.6394627804921,798.0852335491292
1731015704.2575295,810.8903335562013,808.2010382290359,807.2715347736671,797.7570648250312
1731015704.2614126,811.3405665994276,808.1960242415179,806.1543239121858,797.4296246098629
1731015704.262936,811.7922785326421,808.1696525028744,805.593778140902,797.1028437642302
1731015704.2652955,812.2456749607867,808.2882686501453,805.4928596554442,796.776360703986
1731015704.2691784,812.6996946068053,808.7636509891367,805.5698739887619,796.4496375314399
1731015704.269347,813.1518633866361,809.6795006012129,805.607848595368,796.12248679642
1731015704.2730613,813.6000086774606,810.8743926814278,805.542823423734,795.7957878507693
1731015704.2741818,814.0458093196061,812.0813443486105,805.4131958779005,795.4716029390154
1731015704.2769442,814.4974557480541,813.2270210070576,805.2762682961497,795.1517279998334
1731015704.2785687,814.9663723149013,814.4888865534684,805.1613057698794,794.8347084824862
1731015704.2808268,815.4548883443183,815.93891986081,805.0671185557776,794.5136221419856
1731015704.2847097,815.940769006968,817.1641780537042,804.9801304743237,794.1788696584489
1731015704.288164,816.3769136397726,817.3713920376256,804.8899101948113,793.828560334339
1731015704.2885926,816.7267365423543,815.9644218737635,804.7938904103412,793.4814732098654
1731015704.2924757,817.0309971238919,813.0691174219181,804.6944854303126,793.1771772292267
1731015704.2942016,817.4502342366106,809.5398368528039,804.5947406153745,792.9461287403824
1731015704.2963583,818.1874849167014,806.4718229836428,804.4960685271616,792.7534721763333
1731015704.3002412,819.2409126752337,804.6232381299465,804.3982963509505,792.4636118728529
1731015704.304124,820.1082847356834,804.1322119576257,804.3006771440569,791.9053949190144
1731015704.3069806,819.7720081832327,804.6314253791363,804.2026835833974,791.0790267903128
1731015704.3080068,817.2447777508017,805.5832739435233,804.1042122718734,790.3993665073277
1731015704.3091726,812.4283846687389,806.550454352155,804.005406806584,790.693025859332
1731015704.3098342,806.4775969324546,807.2245008742104,803.9064270882312,792.6971725496961
1731015704.3118896,801.1490766236817,807.2823440492873,803.8073393489794,796.2533228519759
1731015704.3157723,797.6490533966545,806.3279970287517,803.7081272220807,799.9456000443685
1731015704.3196554,796.0308926425693,804.1059030490803,803.6087494816867,801.8081696758662
1731015704.3235383,795.6161493522329,800.8677364973075,803.5091836605616,800.7366201388293
1731015704.325467,795.9237540221277,797.5233524205619,803.4094362613356,797.4187119381672
1731015704.325797,797.155503927413,795.300269986847,803.309527660014,793.9659257417633
1731015704.3274212,799.7566165291933,795.0438118455603,803.2094671968459,792.6034302239573
1731015704.331304,803.5167356604802,796.6471446523609,803.1092345670443,794.4826812779733
1731015704.335187,807.1925773660219,799.061138089493,803.0087855584588,799.2854013857907
1731015704.3390696,809.1765726452732,800.9173429742515,802.9080951545385,805.4641029694542
1731015704.3410995,808.7411661262109,801.357383137485,802.8072235624552,810.7397941934111
1731015704.3429525,806.8210956876071,800.5373993303746,802.7063432028548,812.8799546159653
1731015704.3441637,805.6368786802623,799.512207850424,802.6056391194061,810.8819640989856
1731015704.344614,807.3323741958927,799.5930357268152,802.5050609104294,806.0286376932717
1731015704.3468354,812.4967532676118,801.5693136278155,802.4040893327158,801.6948864693352
1731015704.3507185,819.5527962989552,805.2407511550497,802.3018753784729,801.3911048883099
1731015704.3546011,825.4884973624313,809.5041614065108,802.1980431899564,806.152258547075
1731015704.3567326,827.5401079215502,812.9118731632383,802.0938701644493,813.4224382739366
1731015704.358484,824.7400516452022,814.3816706706209,801.9926292538374,818.6905387551834
1731015704.362367,818.3164416840062,813.7101485910262,801.8974845540871,818.83768245845
1731015704.3634307,810.8168918767294,811.6542996873508,801.8067534665114,814.5538185535426
1731015704.3662498,804.7590335724873,809.5089678064453,801.7099285539291,809.8365182490649
1731015704.3701324,801.7090457279403,808.341969600639,801.591247147584,808.9530369630264
1731015704.3723652,801.99413383055,808.3202171103115,801.4456237866278,813.2545478421782
1731015704.374015,804.6986760451377,808.6174134436491,801.3001593751756,820.2504724225162
1731015704.3778982,807.8148940046005,808.0333765786152,801.2172803382059,825.5063334971445
1731015704.3791544,808.8988562845899,805.902797799557,801.2503400163918,825.7826147762697
1731015704.381781,806.3631375943017,802.6303138212553,801.3524379377717,821.0425202090066
1731015704.3822474,800.6511366765928,799.4751795313883,801.3067147914418,814.026087220618
1731015704.385664,794.1553820483748,797.7453974600455,800.8010720554172,808.0473897134626
1731015704.387998,789.6631767068417,797.9426733539054,799.7091499264872,804.9019969591803
1731015704.3895469,788.5413141891983,799.4374711297565,798.4153159333032,804.3363274024246
1731015704.3934298,790.1952037231881,800.9416280086398,797.8279336066294,804.9942411080841
1731015704.3973124,793.0792448277637,801.4912253489274,798.885183815355,805.6628894246617
1731015704.4010644,796.045942795764,801.190573804962,801.830805290498,805.8579872016064
1731015704.4011953,798.7425978174354,801.063223191276,805.8348414296472,805.6814636481606
1731015704.4036307,801.063276537993,802.0816986055216,809.3216097434279,805.4139235040012
1731015704.4050782,802.7003099618216,804.2009779703691,810.8331642741907,805.2343139053289
1731015704.4089613,803.4288989283797,806.2536391203909,809.8536374554748,805.1650554295351
1731015704.412844,803.5982381566602,806.8077801295649,807.0633056281383,805.1469454129237
1731015704.4141457,803.961729109129,805.2546330007616,803.9238856507019,805.1225764025972
1731015704.4167268,804.8606394200029,802.2395520473062,801.9296679786751,805.0711418494797
1731015704.4192634,805.7003937531886,799.1577572010407,801.9505762785815,805.0005503015532
1731015704.419881,805.4322047514346,797.208908224111,803.9019435263398,804.9261012257166
1731015704.4206097,803.612683224625,796.7796784282812,806.8116937771015,804.8567036906929
1731015704.4244926,800.8891530406294,797.5424863846063,809.3060509347672,804.7929466663397
1731015704.4283752,798.3265273094764,799.0225756831684,810.3861531225593,804.731468686421
1731015704.432258,796.2913472021789,801.0477322703135,810.0714679137462,804.6693043439041
1731015704.4348962,794.1980406147744,803.6953826401902,809.3969804497906,804.6055042399025
1731015704.436141,791.5328626395346,806.861506861555,809.659506603851,804.5405701797142
1731015704.4386978,789.0677081726752,809.9284931203085,811.4319758138708,804.4753047204462
1731015704.440024,788.7535410150775,811.9095748096014,814.0988786199958,804.4101301956133
1731015704.4439068,792.0717919780652,812.0140993829416,816.2667452885961,804.3450382803196
1731015704.4477897,798.335181322873,810.2142450863779,816.7219806200459,804.2798426906064
1731015704.4491365,804.6964410636901,807.4034620164645,815.2083544713502,804.2143978451367
1731015704.4505289,808.068495226673,805.0472973534853,812.4699480745478,804.1486528280911
1731015704.4516726,807.3292825071984,804.519855944634,809.5923207942268,804.0825906546733
1731015704.4555552,803.8942845074225,806.4160156596016,807.2146006126013,804.0161683874439
1731015704.4575143,800.2508359105327,810.1309337959937,805.2601362536385,803.949341600466
1731015704.459438,797.9003018969166,813.9930716664378,803.3817131048943,803.8821686434279
1731015704.463321,796.6004079677177,816.072385883555,801.6908946905423,803.8148859153728
1731015704.4661615,795.4354761588597,815.3367286006544,801.0509327386178,803.7477902601703
1731015704.467204,794.4158179335147,812.3924979305525,802.5398326817339,803.680857824037
1731015704.4710867,794.8509647283568,809.1563523113639,806.4269771661762,803.6133222000816
1731015704.4749696,798.0898636708923,807.5713394529113,811.54394976902,803.5437797652371
1731015704.4763312,803.9179081622008,808.289007514406,815.7275946646947,803.471367516323
1731015704.4788525,810.1968194732722,810.3120024997074,817.1475959788598,803.3977194541465
1731015704.4817944,814.0848869796786,811.8155872262905,815.5438540988279,803.3278871110954
1731015704.4827354,813.8037425537929,811.4399975918521,812.4242081196734,803.267511266674
1731015704.4841273,809.6675960869923,809.0779265485926,810.0833528531944,803.215384073867
1731015704.486618,803.8422840714913,805.7149270573622,810.1566704835258,803.1560996567309
1731015704.4905007,799.141951318573,802.6434002810296,812.6489239310837,803.0635931177248
1731015704.4943838,797.568047883454,800.7145679375019,815.9637779810324,802.9248621015316
1731015704.495148,799.3358310704298,800.0700957390013,817.8499161760225,802.7761442686046
1731015704.4974272,802.933589929226,800.3445851245871,816.7377039800328,802.7154354181312
1731015704.4982667,806.21847865492,801.0474759499706,812.7611256634727,802.8416201133994
1731015704.5021496,807.8121017456892,801.8433619877857,807.8566041210156,803.1109010484406
1731015704.5060325,807.7576843283533,802.6246953982039,804.7495066680083,803.2081500135108
1731015704.5099154,807.0243765690274,803.4281753476887,805.2925846549008,802.6357490440372
1731015704.51306,806.5117972820898,804.2972362369329,809.1417294148791,801.1662333944863
1731015704.5137982,806.585712156121,805.1636028600432,813.7048084717252,799.4431858925773
1731015704.513965,807.4120261546594,805.7880249705751,815.5769172238456,799.0300997573138
1731015704.517681,809.3519299290903,805.8030522496616,812.6822385357083,801.3340611243102
1731015704.519118,812.6610428824533,804.8946123107809,805.7457369095906,806.0055469278112
1731015704.5215638,816.7294297879079,803.0786084400115,798.0127537523648,810.4879850871026
1731015704.525447,819.8773209860811,800.9021473150693,793.265800919399,811.6817717374742
1731015704.5286925,820.2809856792018,799.3591717042275,793.4397230546191,808.5712779502917
1731015704.5293295,817.375789971827,799.4546157881811,797.525831028881,803.4166891317561
1731015704.5327816,812.4404201879255,801.6128753174621,802.5380007501856,800.179141304415
1731015704.5332124,807.7563473187955,805.3090399577491,805.7262041288122,801.3196757969126
1731015704.5370953,805.0578096848146,809.2314080785982,806.2809118099074,805.6910901097368
1731015704.5409782,804.5831346162178,811.9513023850764,805.3130057570958,809.3885466487217
1731015704.5443254,805.3657369724284,812.6897401449794,804.4351735823274,808.856584222488
1731015704.5448608,806.2479496836005,811.6531721643103,804.3886476102764,803.6251156290051
1731015704.5487435,806.6428254993373,809.7188887115744,804.8481039338468,796.4908951191945
1731015704.5515983,806.5915747514908,807.7553968504768,805.2224165341692,791.2314315087825
1731015704.5526266,806.3924434312851,806.1147757123028,805.3552128324209,789.8996315224941
1731015704.554109,806.2679947328024,804.618966307793,805.3986210140589,791.7924394956336
1731015704.5565095,806.26782718466,802.9242095697078,805.2285917788579,794.5618044488472
1731015704.559958,806.3357586463947,800.9038870491572,804.2951854588847,796.214683699757
1731015704.5603924,806.4050990642877,798.7930752533025,802.2105305223242,796.3139424440848
1731015704.5642753,806.4462641652107,797.0926407385205,799.4309770099588,795.6714244189293
1731015704.568158,806.4640876507517,796.3736378567849,797.2028757479293,795.1872626736534
1731015704.570415,806.4751705932138,797.0861714175963,796.7042762227886,795.0419703881608
1731015704.572041,806.4907961963863,799.3815740248806,798.1591005250391,794.8559088750465
1731015704.5755908,806.5129098277253,802.9405715083999,800.7398969281367,794.4130136554799
1731015704.5759237,806.5382258987229,806.8877790843027,803.3261127676581,794.0971116649872
1731015704.5798066,806.5632615216501,809.9587820722131,805.4128597888838,794.6194042967703
1731015704.5836897,806.5866232369688,811.013472078708,807.3609450669669,796.358853357158
1731015704.5875723,806.6086841426679,809.7113728393134,809.7916272623424,798.9405901990202
1731015704.5891,806.6303410056939,806.8811127782969,812.7126835970578,801.3650063141504
1731015704.5892315,806.6521524946264,804.1684087599492,815.2291038743667,802.5270614394339
1731015704.5912237,806.6741798224349,803.0501628929665,816.1727148326411,801.8020803959674
1731015704.5914552,806.6962291870834,803.8923525912916,815.1125627502645,799.483350578822
1731015704.595338,806.7181156976847,805.8140475134412,812.7974857958751,796.8928007829435
1731015704.599221,806.7397713942962,807.4909790684452,810.5746922061386,795.916459875688
1731015704.6031036,806.761217700571,808.2025697506405,809.2949888493008,797.925120948562
1731015704.6068563,806.7824953690199,808.2105730750891,808.7144521167551,802.6541446791979
1731015704.6069863,806.8036196777506,808.2103543276528,807.9256493709811,808.0250164724989
1731015704.6080484,806.8245773775578,808.4720451675752,806.3722576508833,811.3680400040392
1731015704.6108694,806.8453495074407,808.5146398767063,804.4796635336799,811.2781344506669
1731015704.6147523,806.8659355856786,807.5697749790171,803.3311507755154,808.6011619767314
1731015704.6186352,806.8863577312458,805.3476466729746,803.7008709036849,805.6786517905258
1731015704.622489,806.9066326979123,802.4145756999841,805.3060936354063,804.456694476527
1731015704.622518,806.9267213759078,799.8998652941223,806.9243013811516,804.9971553516718
1731015704.624091,806.9464996566544,798.8008987779012,807.2728858175857,805.5203559743587
1731015704.6264007,806.9658167275961,799.399602443986,805.915958333415,803.8570889148443
1731015704.6268651,806.9846681480221,801.1552524128927,803.4714669752569,799.1925610730066
1731015704.6302838,807.0033832285421,803.09336262346,801.0267273811423,792.8936196124624
1731015704.6341665,807.0225740500215,804.4054282850071,799.3545185928103,787.9039145816554
1731015704.6380494,807.0426051371549,804.870007116052,798.6130158744012,787.1201038699925
1731015704.6381218,807.0627194127028,804.8575163919664,798.6472670406529,791.7530381848887
1731015704.6419322,807.0806350570842,804.9912207324461,799.4012958142544,800.6230826563809
1731015704.645682,807.09382374749,805.7629324485349,800.934003752625,810.7495597989869
1731015704.6458151,807.1028423646088,807.3493830951769,803.0684513937829,818.8706899893848
1731015704.649698,807.1145989689986,809.6222433478732,805.1612704834539,823.0435777046675
1731015704.653581,807.1407185800947,812.1852568621296,806.3674491292536,823.4206738979287
1731015704.6537545,807.1868854396238,814.3751406671456,806.2441860586923,821.7400618290835
1731015704.6574638,807.2366886895155,815.3612602518443,805.1439973647689,819.8585105727699
1731015704.6590817,807.2461752369858,814.4758439908061,803.977443782997,818.3525639968419
1731015704.661347,807.1712678571502,811.6539322715488,803.4693168751074,816.2686887337425
1731015704.6644988,807.0318990764675,807.6391399356709,803.5169148928833,812.3180381623283
1731015704.665229,806.9686766654983,803.707783599934,803.2429422842313,806.6129862827146
1731015704.6691122,807.2008517713667,801.0420143423075,801.7708511070534,801.3564139074742
1731015704.669387,807.8190030344,800.1882363265381,799.0857056130185,799.5238718646524
1731015704.672995,808.5045144593303,800.9596676731695,796.2044970976006,802.3257260366261
1731015704.676878,808.4891711067565,802.7526167411572,794.4702665953539,807.6422790553769
1731015704.6807609,807.0524142136393,804.9361867162144,794.5797385282498,811.1332195492027
1731015704.6833155,804.3623610920442,807.0322322483014,796.1665537073162,809.4499718314295
1731015704.6846435,801.8771176040027,808.7036319006584,798.1972476193232,802.9684700896952
1731015704.68502,801.6387136312042,809.7523945707018,799.723237858962,795.7110718955419
1731015704.6885266,804.7704626120666,810.2174025598252,800.3757639989093,792.4806517992449
1731015704.6924093,810.4090441194733,810.4321662282401,800.3856020335916,795.5199871778802
1731015704.6940727,816.118749297442,810.854378326056,800.2964951140737,803.237108808368
1731015704.6962922,819.5623667353017,811.6963495420815,800.5993081450601,811.6843214069418
1731015704.700175,820.0256928155999,812.6507234001732,801.4405432416581,817.2995197288452
1731015704.7006526,818.5153997937874,813.0185694643835,802.5636188634685,818.7270612835811
1731015704.7021322,816.4912845363766,812.232540706519,803.5700110759683,816.6780318318836
1731015704.704058,814.5096907074408,810.3808401151886,804.2965802497856,812.5436398601009
1731015704.7079408,811.9841778472244,808.2521252346742,804.9039700529837,807.2818253763555
1731015704.7118237,808.1261070648507,806.7827633144987,805.5523398901313,801.4314632313484
1731015704.7157066,803.097050504984,806.3295874307114,806.0675266426862,795.7996148234143
1731015704.7162857,798.3352642340722,806.4125270228941,806.062988780219,791.7175852121155
1731015704.7195897,795.7800311520191,806.1962585158723,805.4080870117159,790.3474735993937
1731015704.7209487,796.6052392049988,805.2992338574652,804.4571227963883,791.6933041307457
1731015704.723472,800.4420968110378,804.1869146522375,803.7432788135225,794.4421051759786
1731015704.727355,805.673388313079,803.7841597850125,803.5256987260641,796.9137872643344
1731015704.7290635,810.5131780291957,804.6705847936637,803.736873757175,798.1850092302872
1731015704.731238,813.9708773094884,806.5738093331398,804.3145728884174,798.3766187924407
1731015704.731918,816.0026008082151,808.5333639676585,805.3926106608315,798.1226968413415
1731015704.7351208,816.9590064034785,809.4903939780381,807.0438899357866,797.9439591476502
1731015704.7390037,817.0224761528843,808.8051837289365,808.9126543446322,798.0072691638586
1731015704.7397656,816.1523101026849,806.4598546684277,810.2870816503823,798.2297182705065
1731015704.7428863,814.4208166100999,803.0397642878993,810.6450187184463,798.4749901622891
1731015704.7467694,812.2303778397688,799.6064107761747,810.0943163342903,798.6696913764165
1731015704.747551,810.0971426910652,797.3928659104748,809.2263774705006,798.8135678717771
1731015704.750652,808.206423379899,797.2680516028576,808.5900904849175,798.9380441214721
1731015704.754535,806.2600056064458,799.2138236418856,808.3532184852623,799.0685589671638
1731015704.7584178,803.9298322396774,802.2593111124412,808.3705425649707,799.2121006220063
1731015704.7585826,801.6414824138127,805.0534410768512,808.4311832664156,799.3633722721788
1731015704.7623007,800.9291060671949,806.6841618380626,808.4206947300602,799.5151166236078
1731015704.7631836,803.7270877675385,807.0876169648491,808.3352807130236,799.6637781030188
1731015704.7640543,810.7730354882241,806.7967583206041,808.2203275506524,799.8096235188327
1731015704.7661836,820.2538985811444,806.3970841108668,808.113760459183,799.9544055626478
1731015704.7700665,828.0398810624981,806.183518146969,808.0265235769162,800.0994301215142
1731015704.7739494,829.8328168214674,806.158938228686,807.9511021153883,800.2450047733093
1731015704.7773993,823.9306187662097,806.2044670622969,807.8767365965122,800.3908255464967
1731015704.7778325,812.5253527264333,806.2249872119107,807.7979954030034,800.5365253061843
1731015704.7788165,800.4120792622319,806.1956197134418,807.7151323406418,800.681948958159
1731015704.781715,791.9844019354192,806.1374173319764,807.6306885364212,800.8271392719973
1731015704.7855978,788.7049869683168,806.078088115746,807.5466028942848,800.972207174508
1731015704.7894807,788.7806202551261,806.0309128790143,807.4633464841161,801.1172334251179
1731015704.7933636,789.0319863916293,805.9946842036596,807.3804676833996,801.2622452105219
1731015704.794449,787.3887564907412,805.9627282972259,807.2974030621266,801.4072395597569
1731015704.796216,784.1859340257072,805.9301967197117,807.2138958221717,801.5522122470089
1731015704.7972465,781.4972208698194,805.8960593361438,807.1299840888108,801.6971709870949
1731015704.799045,781.2100182199174,805.8615748092279,807.0458115987523,801.8421336272754
1731015704.801129,783.38487249139,805.8282028588653,806.961480296691,801.987121011804
1731015704.8050122,786.1491191183593,805.7965810676291,806.8770130372532,802.1321520065507
1731015704.808895,787.200486267638,805.7665984837732,806.7923869900766,802.2772425528957
1731015704.8100815,785.75843919926,805.7378945408668,806.7075767169797,802.4224070386082
1731015704.8127778,783.4075180866993,805.7102290499723,806.6225746083628,802.5676598037555
1731015704.8150327,783.0822387932106,805.683565885286,806.5373886759407,802.7130157579652
1731015704.8166606,786.8804985291762,805.6579818577277,806.4520314467374,802.8584902172404
1731015704.8205435,794.3479901812898,805.6335577121623,806.3665112798884,803.0040984844227
1731015704.8244264,802.5772802240526,805.6103288957055,806.2808301204567,803.1498555561217
1731015704.8257146,808.1094625225674,805.5882907964299,806.1949869742747,803.2957760599694
1731015704.8283093,809.2468268011065,805.5674219240901,806.1089846423009,803.4418743632452
1731015704.8321922,807.0665498940132,805.547700809199,806.0228356037228,803.5881647532257
1731015704.8338494,804.4278203466029,805.529115668028,805.9365606041783,803.7346615691205
1731015704.8340364,803.7744654941664,805.5116750560818,805.8501743468266,803.8813791271019
1731015704.8360753,805.358854959828,805.4954172512548,805.763662213354,804.0283313183975
1731015704.8399577,807.104239255991,805.4803989304281,805.6769692747674,804.175531012839
1731015704.8413472,806.1314696224715,805.4666436949891,805.5900332189386,804.3229898299334
1731015704.8438406,800.8935403049553,805.4540669806339,805.5028713533789,804.4707190551645
1731015704.8477235,792.5083391827565,805.4424547531814,805.4156670324601,804.6187318620599
1731015704.8516064,784.3782646006445,805.4316001199779,805.3287292796971,804.7670453265175
1731015704.852666,780.256585995597,805.42161038261,805.2422161895158,804.9156790165276
1731015704.8554893,781.9644914491031,805.4131648001312,805.1557108472877,805.0646476487995
1731015704.85698,788.2645019160689,805.4072826919036,805.0680705707458,805.2139505982425
1731015704.859372,795.6492201145295,805.4042889831286,804.9781311659864,805.3635693160367
1731015704.863255,800.5034730234601,805.4024161208508,804.8863766236789,805.5134868820887
1731015704.867138,801.2055753581487,805.3975924402199,804.7964277344589,805.6637306135443
1731015704.8690271,798.8619227001064,805.3862988256041,804.7139454655863,805.8144063584526
1731015704.8710206,796.3263433755925,805.3714119536925,804.6411139543216,805.9656635771565
1731015704.871483,796.2317637316473,805.3665038803325,804.5688596872754,806.1175501454927
1731015704.8726127,799.3085379358926,805.3903068052857,804.4751157621956,806.2698216498934
1731015704.8749034,804.019255114146,805.4463643736567,804.3396765474359,806.4219220198901
1731015704.8787863,807.6595229855687,805.4978645596436,804.1760658243514,806.5733909255201
1731015704.8826692,808.0869725097417,805.4680471467273,804.0566900301036,806.7246718165165
1731015704.886552,804.8613359496885,805.3001329133309,804.085893651628,806.8776774186038
1731015704.8882456,799.1689610539956,805.0705019620261,804.2912523121838,807.0349688823319
1731015704.8902998,792.9538520423274,805.0670411025163,804.483518393725,807.1969028165677
1731015704.890435,788.1399787622139,805.6904351669577,804.2340058310843,807.3581979018956
1731015704.894318,786.2974571838887,807.1420044779929,803.0887808496338,807.5081423265677
1731015704.8982005,788.3784341931332,809.1484986178286,800.9250879612833,807.6389704881192
1731015704.9020834,794.2354172779008,811.0897633315058,798.1833977004521,807.7610695974678
1731015704.9038782,802.3626639978402,812.479686549469,795.8002095480492,807.9119735726767
1731015704.9040182,810.5002661757516,813.2599430351692,794.8763828750659,808.1378377983414
1731015704.9059663,816.8937819219836,813.590015640267,796.2043600506659,808.43784833676
1731015704.9091165,821.1102276424955,813.4927890889526,799.7950808937567,808.7032969297759
1731015704.9098492,823.6456804375645,812.8546251336436,804.6283480459844,808.7330830552668
1731015704.913732,824.8795105513826,811.7228464624275,808.8969164896495,808.4053246302465
1731015704.9176147,824.6296966334947,810.4105544491497,810.80560781359,807.9652563018767
1731015704.9195108,822.7240738851195,809.1891425007767,809.5557665694495,808.1730491277281
1731015704.9214978,819.6675535924118,807.9471167321759,805.872714345519,809.9351206129946
1731015704.9253807,816.3702184466796,806.3264369503256,801.6690194853345,813.3443991937555
1731015704.9279332,813.1683187020974,804.3014091073568,799.0457599519779,816.8343258934904
1731015704.9292634,809.4121061541126,802.5624419222753,799.2693810184813,817.6104324211232
1731015704.9331462,804.3758114866496,802.1376978673698,802.2584517276159,813.6136799997907
1731015704.9351437,798.7225132595132,803.4426897946836,806.6915683449796,805.5540322859871
1731015704.9370291,794.9431129664492,805.6476583644054,810.5718680311827,797.0767846183393
1731015704.939009,795.9907772189194,807.1286298218829,812.0623955809803,792.6350845221048
1731015704.940912,802.9866276123992,806.8075655315398,810.3639739795933,794.5830708018772
1731015704.944795,813.8425232524229,805.2341281331916,806.2314876885335,801.6161283010719
1731015704.94675,824.0698501149346,804.298302913032,801.714923458116,809.6726673304503
1731015704.9486778,829.3900395444604,805.6318322743193,799.1229634156173,814.646458789831
1731015704.9507763,828.3575442105622,809.056043918061,799.7774810413832,814.9332923065347
1731015704.952561,823.144913306729,812.5583456845601,803.3190299406472,811.9435304244122
1731015704.9564435,817.9678539622778,813.9436432146391,807.9545611629676,808.4153698851705
1731015704.9603262,816.3372180661669,812.7045373309637,811.4508438441261,806.2536733944936
1731015704.9642093,819.1021602892973,810.3890749534888,812.3031107304255,805.6974075897942
1731015704.9655666,824.4924381666085,809.1629638676511,810.4877333053183,805.9585650302026
1731015704.9664092,829.7508623163509,809.9750644119332,807.4417292657513,806.2243944265182
1731015704.968092,832.882444786509,812.014216896839,805.2758839001372,806.1547317623473
1731015704.9719748,833.3433908379889,813.7684555255343,805.6085057385071,805.8170841721663
1731015704.974,831.6115857000705,814.4549959085128,808.6414682622817,805.409399604473
1731015704.9758575,828.3755494924527,814.4332416527184,813.0241026770507,805.0611576585659
1731015704.9797406,824.0462911739116,814.4366818237654,816.6340023119526,804.7912251838146
1731015704.9820418,818.8147313577704,814.6560050797958,817.8414710560288,804.5590412925527
1731015704.9836235,813.0650695993018,814.6693515758409,816.4706590179179,804.3238104054966
1731015704.9843836,807.7512137106046,814.1555583130582,813.814839856387,804.0701109830497
1731015704.9875062,804.330562119719,813.4747345513665,811.6791279817214,803.8030546016964
1731015704.991389,804.1253433492273,813.4135694372119,811.1176794071671,803.5333775563153
1731015704.995272,807.5070520595883,814.3281412735831,811.7875242494605,803.2675190171926
1731015704.9976747,813.6014047775822,815.5582097522059,812.4033762396685,803.0060413573523
1731015704.9991548,820.8070483671955,815.7446487046518,811.9152453223559,802.7466227829281
1731015705.0030377,827.5990817261553,813.8585718177947,810.426572496738,802.4871453354563
1731015705.0032003,832.8124115069882,810.1061811031926,809.0861416125394,802.2268950183347
1731015705.0069206,835.3260325595036,805.9372359588057,809.0806938722616,801.9662017178198
1731015705.0089908,833.9681838838707,803.0938197289977,810.6220413305194,801.7056341648375
1731015705.0108037,828.3035531791612,802.4097903959668,812.766921532453,801.4455052862982
1731015705.013307,819.7297941604946,803.2638825952297,814.1431216527698,801.1858159371279
1731015705.0146863,811.4479865863613,804.0512193288451,813.9306048569974,800.9264177290187
1731015705.018569,806.6532567357382,803.2713451381536,812.3485487189735,800.667169447826
1731015705.022017,806.1549691926039,800.4877436452066,810.3673469748246,800.4080055991
1731015705.022452,807.5854201853253,796.6422118607269,808.9327140897949,800.1489453086264
1731015705.0263348,807.1655381747548,793.6204541493439,808.2815478836875,799.8900799218351
1731015705.0289402,802.7047696391014,793.2404999317957,807.8365345076633,799.631528992014
1731015705.0302176,795.387006399228,796.0707630182166,806.7514130914349,799.373330598622
1731015705.0341003,788.9976403760064,800.7773292292835,804.6682550721458,799.1152932055653
1731015705.0379834,787.3937278620225,804.6791187875808,802.0442653670005,798.8569611960138
1731015705.0408337,792.1847885534828,805.4438024194516,799.7770688760526,798.5979045643551
1731015705.0418663,801.9946358604228,802.7866817594312,798.5184255048158,798.3383546121917
1731015705.0439818,813.2716615879549,798.7386615675773,798.3354596164382,798.079726852995
1731015705.0445728,821.7969975579138,796.1067700893404,798.9474710812672,797.8241208910314
1731015705.0457487,824.2006513075295,796.3650831174593,800.128200664866,797.5721641427065
1731015705.0496318,819.2367696646681,798.8016612474462,801.7575586896172,797.3201347993855
1731015705.0535147,808.5718523951774,801.5288703783069,803.5275324452157,797.0595899479027
1731015705.0573976,796.5434613664177,803.143350219714,804.7902379644303,796.7833638273136
1731015705.0596504,788.4697799827711,803.4708531636751,804.8782441696841,796.4976694099103
1731015705.0602057,787.9464757407344,803.1331456675728,803.6311091257662,796.2308138230362
1731015705.0612805,794.579260803731,802.7780123560616,801.5728763376711,796.0213844124296
1731015705.0651634,803.7887702979135,802.6831811312985,799.5474973598493,795.8759023904449
1731015705.0690465,809.2240460599788,802.8014230876072,798.1726564733477,795.7171730693814
1731015705.0729291,806.536584471037,802.9778188264632,797.5813771329715,795.3866058868408
1731015705.0758383,796.1537805666469,803.1087553476839,797.5523113215273,794.7703598411597
1731015705.0768118,783.2214357427874,803.177663617835,797.7832214667513,794.035227331843
1731015705.0784671,774.6964944816225,803.2158145369401,798.0662805017757,793.7924026580749
1731015705.0789726,775.313799138633,803.2555188391391,798.318939049329,794.9030153783641
1731015705.080695,784.7550921855064,803.3093431381822,798.5391973396612,797.8293069096985
1731015705.0845776,797.6748658897558,803.3735074695134,798.7511477141609,801.9195340584123
1731015705.0884604,806.7025380097145,803.4395578420509,798.9718662141124,805.3417154454905
1731015705.091471,806.7849795969495,803.5023035443852,799.2037118647354,806.0514332047321
1731015705.092343,798.2188512392502,803.5611899093626,799.4409100143299,803.3023799974918
1731015705.0962262,786.3641429770266,803.6179918806677,799.6776909922606,798.5434385536037
1731015705.0972838,778.1995226612096,803.6743673564155,799.9118589451641,794.8229522011897
1731015705.100109,778.0701975497167,803.730879030326,800.1441167919046,794.9636348507968
1731015705.103992,785.455263683903,803.7872586221795,800.3759726795302,799.7923823563189
1731015705.1071038,795.9644257031398,803.8430400224397,800.6083395798926,807.6380682731926
1731015705.1078746,804.4154573722466,803.8979553996978,800.8413060970884,815.2731502777453
1731015705.1117575,807.6258052362508,803.9519819262819,801.0745533242158,819.5347339758463
1731015705.1139636,805.2631782242274,804.0052091381297,801.3077887754898,818.7445355887454
1731015705.1156404,798.8742057523486,804.0577120790002,801.5409165701836,813.4326518032552
1731015705.1161008,790.4563953002119,804.1095061963637,801.7739880178153,806.1272041092641
1731015705.1195233,781.7869188277505,804.160565560144,802.007088668265,800.1445344051125
1731015705.1227365,774.6222485554558,804.2108569166899,802.2402683125944,797.8293452869233
1731015705.1234062,770.9699577380329,804.2603592719831,802.4735326328936,799.3219227820389
1731015705.1272893,772.6549907730522,804.3090650193361,802.7068662661958,802.7899776313619
1731015705.131172,780.2011126630503,804.3569724301336,802.9402556713167,805.9081783977067
1731015705.1349175,791.8684263213673,804.4040791242261,803.1736996541357,807.2769257548853
1731015705.1350546,803.8372842946542,804.4503800410197,803.4072101566721,806.6880445653505
1731015705.138369,811.8443447228312,804.4958686122369,803.640807656013,804.4556889411123
1731015705.1389377,813.4909096452874,804.5405385772186,803.8745107921345,800.9140754617331
1731015705.1428204,809.7318606819856,804.5843849390508,804.1083197942369,796.6602803841382
1731015705.1467032,804.3574342963773,804.6274039526256,804.3422032101676,792.9403588202665
1731015705.1489544,801.5787692323331,804.6695927024648,804.5761098596269,791.2582344091593
1731015705.150586,803.265423426146,804.7109487661604,804.8100234122709,792.2575414375196
1731015705.1537342,807.8084475517976,804.751470122831,805.044038600729,795.0210040589553
1731015705.154002,811.5025102851947,804.791155221786,805.2783778582681,797.7608197912546
1731015705.154469,811.4471002637225,804.8300030746185,805.5132450910842,799.4595308797503
1731015705.158352,807.7240453288763,804.8680132970837,805.7485126619579,800.864019641569
1731015705.1622348,803.1289108295222,804.9051861002711,805.9834750283211,803.6965353142817
1731015705.1661174,800.737259402518,804.9415222623431,806.2171155012444,808.687380679054
1731015705.1696348,801.4087659938637,804.9770231062238,806.4491790741224,814.2919765507472
1731015705.1700003,803.314462003361,805.011690490239,806.6815611042888,817.4241513863008
1731015705.172551,803.7118811666801,805.0455268064408,806.9184121049828,815.7281002331462
1731015705.1738832,801.2490099351687,805.0785349793682,807.1631030307519,809.529111267831
1731015705.177766,796.8321037017841,805.1107184616824,807.4122974746492,801.8426778195878
1731015705.181649,792.5925343769209,805.1420812269298,807.651908861887,796.4075529231276
1731015705.1839454,790.1529411398751,805.17262776117,807.8633160968418,795.2875181924094
1731015705.1852674,789.7259659771589,805.2023630547693,808.0443977707993,797.8568651156518
1731015705.185532,790.5523099988068,805.2312925946567,808.2344267261517,801.7476731474684
1731015705.1894147,791.9689404101094,805.2594223567373,808.5116391660033,804.7245358007054
1731015705.1913676,794.0369252533299,805.2867587980853,808.9304020252167,805.9250068884129
1731015705.1932974,797.2300598802369,805.3133088487551,809.408079685865,805.7891680237552
1731015705.1971805,801.5548484408162,805.3390799032446,809.6559107002437,805.2096313153044
1731015705.2009,805.9636640142122,805.3640798117111,809.3022233356795,804.8010404535138
1731015705.2010632,808.7105593199158,805.3883168710146,808.2507608492805,804.7057500979556
1731015705.204946,808.5219401592235,805.411799815604,807.0139737967943,804.7843218882691
1731015705.2088287,805.6928137347818,805.4345378082363,806.5600006288621,804.8666246178764
1731015705.2101843,802.1562819945855,805.456540430514,807.5551644489698,804.8767133522339
1731015705.2127118,800.3645781942918,805.4778176732402,809.5974489877242,804.8269307451369
1731015705.2165327,801.8032073650503,805.4983799265991,811.2644117890067,804.7599713473586
1731015705.2165947,806.2221531511082,805.5182379701725,811.1262473273266,804.7049381098204
1731015705.2189362,811.9861624725622,805.5374029628028,808.950019907427,804.6669220115103
1731015705.2204776,817.0428972864308,805.5558864323071,806.0681036484087,804.6375184928027
1731015705.2243602,819.7631097074218,805.5737002650496,804.5325890843625,804.6077774746627
1731015705.228243,819.3880885856723,805.5908566953738,805.6535768664637,804.574109571839
1731015705.2290013,816.2676434562368,805.6073682949016,809.0200946914604,804.537474889344
1731015705.232126,811.9038872375829,805.6232479617008,812.7534886375594,804.5001915607673
1731015705.2321656,808.4305182607808,805.638508909328,814.8289300386979,804.4637153783206
1731015705.236009,807.411287716047,805.6531646557502,814.4898301598963,804.4282241947654
1731015705.2398918,808.7222852581785,805.6672290121569,812.6734536634899,804.3932377403153
1731015705.243775,810.6358057004383,805.6807160716716,811.115973084217,804.3582952018397
1731015705.2476575,811.2463633078322,805.6936401979651,810.8978410255712,804.3232342528985
1731015705.2477984,809.978450327602,805.7060160137657,811.6835255603419,804.2881244270529
1731015705.247818,807.7890528462023,805.7178583892411,812.2641744511928,804.253093546336
1731015705.2515404,806.0720366411756,805.7291824302479,811.782722703017,804.2182166316416
1731015705.2539272,805.5192463244608,805.7400034664786,810.4258430700718,804.1835010781377
1731015705.2554233,805.9082218539949,805.750337039597,809.0040116180314,804.1489224671585
1731015705.259306,806.6326231170169,805.7601988914621,808.0113436907718,804.1144597631952
1731015705.2631888,807.2477743906742,805.7696049524172,807.2206853670139,804.0801082513042
1731015705.2634313,807.6398180880254,805.7785713293813,806.1907105926792,804.0458748202086
1731015705.2666347,807.902873760352,805.7871142933034,805.0397216099183,804.0117686016644
1731015705.2670715,808.1599140434724,805.7952502657789,804.5803601131306,803.9777954599422
1731015705.2709546,808.4689229522875,805.8029958054706,805.6217569102224,803.9439575765708
1731015705.2748375,808.8235500118379,805.8103675960206,808.1128707017431,803.9102554818724
1731015705.2787204,809.1937135152966,805.8173824371125,810.9425097367925,803.8766898663852
1731015705.279064,809.5579205324287,805.8240572378767,812.5819202573748,803.8432621641102
1731015705.282603,809.911804637841,805.8304090072656,812.046442364495,803.8099742424654
1731015705.2854514,810.2610979041783,805.8364548332326,809.4828363801062,803.7768279010069
1731015705.286486,810.6123008305291,805.8422118478969,806.0560722754468,803.7438245984655
1731015705.2889185,810.968191627987,805.8476971924599,803.2880206444719,803.7109654428017
1731015705.2903688,811.3282212340172,805.8529280141694,802.2568271273485,803.6782512934006
1731015705.2942517,811.6907613176962,805.857921523832,803.0597443587956,803.6456828447982
1731015705.2946966,812.0547438470904,805.8626950920959,804.775717208091,803.6132606589093
1731015705.2981346,812.4200144307116,805.8672662774126,805.9356764817152,803.5809851754977
1731015705.3020177,812.7869121220061,805.8716526357973,805.2997334282146,803.5488567224716
1731015705.304268,813.1557800177354,805.8758712808269,802.6028791371209,803.5168754991483
1731015705.3059003,813.5267530342473,805.8799384834745,798.8800273168767,803.485041481216
1731015705.3097832,813.8997978422967,805.8838699275944,796.0774188894362,803.4533542526243
1731015705.3103294,814.2748343770289,805.8876821006033,796.0077280091092,803.4218129035768
1731015705.313666,814.6518120380324,805.8913942847753,799.2229329585649,803.3904162344977
1731015705.3175488,815.0307147846379,805.8950290322804,804.6179222844224,803.3591633802041
1731015705.3214316,815.4115353132811,805.8986084031347,810.1251460588205,803.3280545047667
1731015705.3230848,815.794266725459,805.9021457953445,813.9671010466908,803.2970906472189
1731015705.323909,816.1789277714126,805.9056393776373,815.4624711064106,803.2662718112657
1731015705.3253143,816.565591738343,805.9090787784677,814.873008806592,803.2355937426
1731015705.325962,816.9543596889322,805.9124728734175,812.7256924999341,803.205046334853
1731015705.3291974,817.3452415610386,805.9158862453394,809.4155671437321,803.1746181396657
1731015705.3330803,817.7380040103358,805.9194428010164,805.3494822899282,803.1443085197466
1731015705.3369632,818.1321694116351,805.9232476997582,801.1780024325255,803.11413991434
1731015705.3408458,818.5273703652254,805.9272327047291,797.6572822515271,803.0841525333337
1731015705.3415947,818.9240147333466,805.9310481673191,795.2888880397423,803.0543658814111
1731015705.3419018,819.3237043958231,805.9342205074905,794.2249363547606,803.0247190405264
1731015705.3447287,819.728471239871,805.9366984327547,794.5424486986407,802.9950483411563
1731015705.3486116,820.1383720832827,805.9395095181691,796.440017229157,802.9651844762312
1731015705.3524945,820.5487623597309,805.9447190639205,799.9668711785878,802.9351863258789
1731015705.3563774,820.9507860943123,805.9538254792186,804.5126982809711,802.9055529321944
1731015705.3572276,821.3386365913265,805.964850828476,808.6928558940594,802.8770764899857
1731015705.3589,821.7220146281684,805.9706251751227,810.9527506071826,802.8500738520229
1731015705.3602602,822.1325685081874,805.9623427024695,810.5115520182064,802.8232892788584
1731015705.3607185,822.6069712029624,805.9402143450849,807.8864466452709,802.7936273877868
1731015705.3641431,823.140244644712,805.9251483065848,804.5415697391998,802.7582057892292
1731015705.368026,823.6377184299283,805.9558522015684,801.9117278318386,802.7188206294232
1731015705.371909,823.9336585636856,806.0562618171623,800.5461602614098,802.6855342524104
1731015705.3728602,823.9379558216007,806.1813780783716,799.9834749144821,802.6730049042981
1731015705.3757915,823.8676012906711,806.1919009857471,799.3414736869559,802.6852654937903
1731015705.3795352,824.3392105194406,805.9336414463583,798.0581736456203,802.6957540424222
1731015705.3796744,826.0046404399159,805.4480500590136,796.2204227983507,802.645321535298
1731015705.383557,828.6559722935722,805.190326655871,794.3765671397118,802.4849451251442
1731015705.3874402,830.4052657034952,805.974487787227,793.1433715109463,802.2603098200658
1731015705.3884933,828.1350031878302,808.4442173182437,792.9274497094277,802.1706946859339
1731015705.391323,819.7403714450141,812.3405329559922,793.8241024945884,802.4820195114547
1731015705.3938909,806.6082186006046,816.2878154234305,795.6100670489207,803.2255925953701
1731015705.395206,793.6839370484918,818.5155140894939,797.8319156570373,803.8319011412151
1731015705.398352,786.4417784139994,818.0203731335467,800.0578835517974,803.1323673188547
1731015705.3990889,787.1931299807438,815.226058733556,802.1898051529976,800.1738285111041
1731015705.4029715,793.8414420368243,811.6765709740527,804.512879826143,795.6143065542632
1731015705.4041257,801.8540885163454,809.0730831664924,807.2918898127419,792.31918570305
1731015705.4068544,807.4813915498311,808.3372569494471,810.2270552627593,793.7138194585021
1731015705.4107373,809.6168518287922,809.2286527011537,812.4111096885396,800.658377676152
1731015705.4146202,809.3152209061936,810.6161108732078,813.0443074991525,809.9059857690418
1731015705.4171686,808.0310296325929,811.1411582582153,812.3121602957917,816.1545543809126
1731015705.418503,806.3060358094917,809.9040210382968,811.459223324694,816.1022361052615
1731015705.4197586,803.7381215666461,806.9033602402196,811.7857088235171,810.9533218400545
1731015705.422386,799.8002162891661,803.1066258471523,813.4369200649273,805.3582092380703
1731015705.4262688,794.5765427399244,800.1218873238569,815.1892506037893,803.8323738077663
1731015705.428882,788.8674874285343,799.5208347046231,815.5015538049191,807.5157223026939
1731015705.4301517,783.7707605991943,802.0104190107047,813.8439494481134,813.6069505617369
1731015705.4340343,780.2017588292831,806.8490273370617,811.0642395055661,817.6892859865735
1731015705.4353912,778.7182898587068,811.9637290819579,808.5396303864087,817.0925148610659
1731015705.435985,779.6459267111604,814.9268639713499,807.0214290263107,812.8226984012788
1731015705.4379172,783.1833417430678,814.3400387915676,806.25783532709,808.7495838469249
1731015705.4418,789.1825802200544,810.7138829092785,805.6121084562011,808.7354516635246
1731015705.445683,796.6724277433993,806.1560929929757,804.9255317284443,813.7872959114692
1731015705.449566,803.6149801969173,803.0557883118757,804.716083930767,821.2149140700789
1731015705.4510238,807.4297811253007,802.7278203688873,805.5151844843485,826.3267981509963
1731015705.4534488,806.3059023014154,804.9149789927482,807.0205170896123,825.4328775758369
1731015705.4548025,800.544312734993,808.251325172842,807.9880999064958,818.0941907287876
1731015705.4573317,792.8040072974798,811.1053076853665,807.1524152068342,807.2117024421626
1731015705.4612143,786.7136602223242,812.2354896635061,804.4515823289692,797.0991500503549
1731015705.463873,784.6166165152308,811.1450888329144,801.3673071646707,790.9627076245056
1731015705.4650972,786.1338462912886,808.2642710043897,799.8477612357227,789.4065467747066
1731015705.4666567,788.7394984760701,804.9139744926995,800.6248687501195,790.715943023103
1731015705.46898,789.8992274907988,802.8268948736711,802.4837847561467,792.3956111391275
1731015705.472863,789.0027533135143,803.2449016260038,803.2789499757729,792.670824995701
1731015705.473619,787.5832362062846,806.1038756403683,801.8124237611103,791.0129635538052
1731015705.4767458,787.8700136459775,809.9500363205901,798.8081934570507,787.881152499796
1731015705.4806287,791.0493348697003,812.7315084983087,796.133907402291,784.5154825853143
1731015705.4822893,796.5467003815623,812.92681519375,795.188415763377,782.9774954115475
1731015705.4845116,802.5067846492201,810.2706231349209,796.0808175947932,785.6205462211677
1731015705.4883945,806.7168850627761,805.7308216413879,798.1944110116476,793.4472721894836
1731015705.4922771,807.3050537648244,800.9158770053148,801.2194991467514,804.4267587003493
1731015705.4924357,803.2334214953594,797.3242554559647,805.3885847181493,813.7752814870285
1731015705.49616,794.9188052417365,795.7816484661171,810.6681914019407,816.8326769283326
1731015705.4979222,784.8359156019437,796.2420411125936,815.8601875822524,812.5729359967353
1731015705.4988637,777.2813798999557,797.9599565918805,818.7563501729932,804.7377582104731
1731015705.500043,776.5913928839611,799.9000351500366,817.545642984802,799.3808735692335
1731015705.5039258,784.3408056532132,801.1839383292764,812.445725474025,800.621479292943
1731015705.5078087,797.4627423860386,801.4057842762869,806.0965656054207,807.8226404489565
1731015705.5112524,809.2461936678102,800.7248181505722,802.0929290445855,816.1308519299706
1731015705.5116916,813.2270248213866,799.7217216881667,802.5645163167804,819.754809652363
1731015705.5135548,807.482640552009,799.0931173877658,806.6460109597598,815.6691397801483
1731015705.5155745,796.0840101423905,799.3418031170012,811.1004159052311,805.4642502193655
1731015705.519457,786.4249198549,800.6144237995172,812.6552831771762,794.3347507424813
1731015705.52334,784.3334436573255,802.7163356082103,810.2389922611295,787.9125818027794
1731015705.5272229,790.55623307677,805.2170082432373,805.4699754687763,789.0044778203903
1731015705.5291877,800.9775858210099,807.5761565497603,801.2526404810619,796.3428593785279
1731015705.530069,809.9723060066723,809.309852088711,799.7711345409316,805.920932603257
1731015705.5311058,814.1400389400754,810.2026639149311,801.3540314402328,813.5675347190571
1731015705.5338545,813.8521638926532,810.4397623764454,804.7082882009522,816.8403791921579
1731015705.5349886,811.995199880201,810.4866090703221,807.9532269643222,815.379363332577
1731015705.5388715,811.3161294595175,810.7331433342764,809.5824990608381,810.2291609642223
1731015705.5427544,812.5107342552812,811.1842612140622,808.9161945672863,803.0384386103436
1731015705.5448203,814.3334435548552,811.4920127374569,806.1588342000769,795.546203858377
1731015705.5466373,815.2705040794611,811.3061463198342,802.3325926357419,789.280856702753
1731015705.5488858,815.0696313561107,810.593979814152,799.095006266666,785.3894113789031
1731015705.55052,814.7248880750167,809.6243089779449,798.199044859777,784.6340617372355
1731015705.5544028,815.1061620914072,808.6791134714981,800.5401792097186,787.4440098603608
1731015705.5582857,815.7570765086308,807.8230896286481,805.3021780635044,793.7347316781837
1731015705.5604532,815.1371652009254,806.9437611786065,810.0381046332211,802.4882986802634
1731015705.5621686,812.0548624534808,805.9652393973356,812.0235328421588,811.6495371006874
1731015705.5660515,806.8376517735741,804.9978899281995,810.1259896630522,818.9132158876037
1731015705.5677023,801.1043358738128,804.2914983372259,805.7615041647979,823.1160905851466
1731015705.5688455,796.4163032073858,804.0238532255091,802.0471009420771,825.0393444163187
1731015705.5699344,793.1236057956114,804.0609564232357,801.666675121591,826.6238831622651
1731015705.5738173,790.4354323066242,803.8882748912073,805.0310616638579,828.9546154076698
1731015705.5760858,787.5374537205246,802.8846034190464,810.0990536780441,830.653547369296
1731015705.5777,784.6477182420241,800.8703175940651,813.9295071878634,828.2758360042576
1731015705.5815828,783.0503164786255,798.5090693894753,814.7406110044317,818.8370742047535
1731015705.5854657,784.126981799163,797.07480365743,812.963388658383,802.8178530489815
1731015705.5865197,788.261098284742,797.5760658100222,810.6276818360076,785.2753588777638
1731015705.5893486,794.4640504893421,799.9099718652383,809.6830695451954,773.7107084290101
1731015705.5917184,800.8248814911962,802.8607977641461,810.5833670819824,773.581788384091
1731015705.5932314,805.2666203569902,805.0615762488096,812.1617324084684,784.3397630919294
1731015705.5971143,806.1910442454597,806.1082484678413,812.7680054154117,799.0141751047125
1731015705.6009972,803.0529906451045,806.8100066165624,811.6686718907381,808.1657519391421
1731015705.6038363,796.9361970892747,808.3422730900796,809.5958561530865,805.8059785925136
1731015705.60488,790.6903210322021,811.0874168337655,808.1168047395197,793.1659851198355
1731015705.6053362,787.951935916467,814.2107597921599,808.4378046948732,777.6076495023796
1731015705.6073513,791.1204407076519,816.3108119524653,810.5632983150412,767.5780296917086
1731015705.6087627,799.59038542461,816.5210872284898,813.3038135310613,767.4296674948655
1731015705.6126456,809.843053658864,815.1072433704765,814.9933694458766,775.7597718606742
1731015705.6165285,817.6532022696257,813.1319572642801,814.4266926976422,787.828036353542
1731015705.6204114,820.7668490529148,811.6043271892556,811.5213771475918,799.3212833363281
1731015705.622984,819.924100525454,810.8905154640548,807.3847903653817,808.2140616110102
1731015705.624153,817.6478232470146,810.7572033520122,803.7299156094057,814.0220152313466
1731015705.6242943,816.2009933402646,810.7864743856954,801.916284712025,816.4691674667271
1731015705.6281772,816.5207591302255,810.7116660920899,802.1604739425812,815.5361789744875
1731015705.63206,818.5840572687173,810.4878175608635,803.4295522479197,812.4635910120671
1731015705.6359427,822.1784772954238,810.1901192646768,804.1175620287321,809.7610647740876
1731015705.6386168,826.9226940448337,809.8973666387118,803.076546158967,809.5077988003701
1731015705.638827,831.5161821576703,809.6403207958082,800.351730880932,811.5133157784661
1731015705.6398256,833.323064154735,809.409756223917,797.2016057990281,813.3248556909775
1731015705.6429696,829.3572320635337,809.184979687092,795.416208319176,812.1829863393561
1731015705.6437085,818.4760918170955,808.9532781571969,796.2747574477124,807.1382015914335
1731015705.6475914,803.1931691321876,808.7132997345909,799.6467385985194,799.6200960991889
1731015705.6514742,789.3363643172311,808.4694107473659,803.780644275962,792.3107505014797
1731015705.6542494,783.1953701602991,808.2256983331373,806.121193977466,787.4302598874796
1731015705.6553571,787.7659075977799,807.9835674618773,804.9039901459363,785.6467950979127
1731015705.65924,800.6017562884471,807.7423842151086,800.5519892398677,786.1516051132264
1731015705.6617863,814.8761191002249,807.501026423464,795.7272442137987,787.5742408899871
1731015705.663123,823.1853603405203,807.2588554064499,793.717817063897,788.9026451298522
1731015705.6670055,821.8207757098514,807.0158317129792,796.171535848453,789.8094839837563
1731015705.6698823,812.8557037737711,806.7721906188488,801.8602350807765,790.4332167965401
1731015705.6708884,802.7083773238871,806.5281311645812,807.4653561505938,791.0152650426113
1731015705.673818,798.0788926314491,806.2837053226375,809.8353514219328,791.6869778827406
1731015705.6747713,801.9046584202955,806.0388624465322,808.0464816714052,792.4491992280915
1731015705.6786542,811.9876518819887,805.7935326942822,803.7865051333699,793.2457953853301
1731015705.680603,823.0637476549509,805.5476750727793,799.8981453135143,794.0311095250103
1731015705.6825373,830.5834663917414,805.3012802469444,798.3259761750048,794.7924899102228
1731015705.6855147,833.2885442931158,805.0543521571094,799.0870926328807,795.5393767042809
1731015705.68642,832.8308926494321,804.8068920568592,800.9151497000262,796.2848158963748
1731015705.6903028,831.2574609782898,804.5588936404142,802.752090058765,797.0352630131846
1731015705.6941855,828.9226040659678,804.3103460322392,804.620698597255,797.7903190805424
1731015705.6980684,824.7295601558078,804.0612382179878,807.1617211703518,798.5469003855679
1731015705.69942,818.2043006938103,803.8115610859867,810.4610561810721,799.3027089516908
1731015705.7011478,811.0817949349952,803.5613068882003,813.4129499879177,800.0572342322074
1731015705.7019513,806.5864839011198,803.3104679767179,814.276026080962,800.8110670416605
1731015705.7058342,806.9007263930088,803.0590367631545,811.9642078501486,801.5649146447371
1731015705.7088091,811.1683706595237,802.807007520797,807.0010318640011,802.31910056011
1731015705.709717,815.9657149163882,802.554378546791,801.3854347279511,803.0735858696165
1731015705.7136,817.8935545888286,802.3011514297004,797.4909161483583,803.8282077365136
1731015705.7167804,816.0161661402183,802.0473247415543,796.799722911674,804.5828727153731
1731015705.7174828,812.1296375860409,801.7928842629235,799.270519856099,805.3376146160865
1731015705.7182367,808.9231190695974,801.5377995857989,803.5786663931617,806.0925425782584
1731015705.7213657,807.8798203831077,801.282040541773,807.8984190398595,806.8477344164612
1731015705.7252483,808.5994806051343,801.0256158149374,810.7231304493074,807.6031340577408
1731015705.7291312,809.5811285684633,800.7686069717923,811.3887104504296,808.3585347494192
1731015705.7324133,809.2841974830542,800.511142333561,810.185136901828,809.1137377307259
1731015705.733014,806.6307181791993,800.2532688789332,808.0724149115812,809.8688807325591
1731015705.736897,801.2315895410787,799.994773141826,806.1280726420877,810.6246986614007
1731015705.7370534,793.9220320308656,799.7351438124133,804.9773781018803,811.3822626333814
1731015705.74078,787.2889970590361,799.4739183790668,804.494624811761,812.1418905908301
1731015705.7438,785.0570258389695,799.2114193336572,803.934170354999,812.9017124317519
1731015705.7446628,789.8411002617926,798.9493264822856,802.422293919263,813.6575132595383
1731015705.748046,800.5726275852985,798.6900359799992,799.5537699922655,814.4057756476575
1731015705.7485456,811.9872079069869,798.4341284131715,795.7705446638471,815.1497416692447
1731015705.7524283,817.4146782402971,798.1771182007121,792.2735640019993,815.9036887562648
1731015705.75587,813.3426048847684,797.9092565223787,790.437492243108,816.6868341480882
1731015705.7563112,802.2860987931293,797.6227254828027,791.0087576761925,817.5019686969771
1731015705.760194,791.4191458407997,797.3255720757038,793.589737111696,818.309614956069
1731015705.7636786,787.7081362287548,797.0510728468266,796.8189652428999,819.0293142745519
1731015705.7640767,793.1626729251847,796.8428731863789,799.2095793963426,819.6020851633076
1731015705.7679598,803.7488723940886,796.7054256931216,800.095750421915,820.1041753071731
1731015705.7718427,812.5648455061612,796.5459194334203,799.9968242402263,820.81408776862
1731015705.7746868,814.6293922252428,796.1813721735699,800.1200404208407,822.0713036414928
1731015705.7757256,809.7542788331991,795.488686017498,801.3818311852722,823.8491118868471
1731015705.778791,801.8806709409669,794.6743132763345,803.691106517086,825.2628429128247
1731015705.7793114,796.0234245494823,794.445987756886,806.0165147758911,824.5798413675683
1731015705.7796085,795.2921114143572,795.7662104462689,807.1591606035965,820.1888998582383
1731015705.7834911,799.7003330735022,799.1355946819085,806.644315930927,812.0677453814515
1731015705.787374,806.8016301658491,803.9188487828656,805.0729573395166,802.372900749713
1731015705.791257,813.1482235164434,808.4297758707345,803.6636073337822,794.3388468919788
1731015705.7935035,815.6953519063668,810.8946900834286,803.3165098055495,790.357363938735
1731015705.794944,812.9151386413303,810.5858619146178,803.930635286309,790.8017842364363
1731015705.7951398,805.604908546463,808.2542315363042,804.5411611208634,794.2397278211607
1731015705.799023,797.0058657673682,805.5924521278055,804.1675736974381,798.5563066465326
1731015705.8029056,791.6431236846909,804.1807361193876,802.6386850281363,802.1593677865036
1731015705.8067884,792.9750041602151,804.6324711372602,800.7027125170268,804.6318351621114
1731015705.810577,801.1282730391267,806.4045801126803,799.4053613955153,806.5674734387825
1731015705.810671,812.4408031478703,808.2749967244855,799.3321922554045,808.7716417132941
1731015705.8123205,821.4753505333756,809.1322629503928,800.2940529845464,811.3835214259528
1731015705.8137815,824.3085815611639,808.6128419313535,801.5508660880855,813.5412038720215
1731015705.814554,820.8088536659427,807.2526490806162,802.2916566733385,813.8794754812903
1731015705.8184369,814.2822218007701,806.1005535912399,802.0731334200213,811.5983370021507
1731015705.8223195,808.8318476275651,806.0377946782004,801.0609385776975,807.3881032663647
1731015705.8262026,806.4994037461144,807.2117879927596,799.9966927935731,803.4578545303655
1731015705.8262095,806.3296567664353,808.9285015488459,799.8651800112108,802.4299077835136
1731015705.8300855,805.8505550733876,810.0767911841067,801.3622613763857,805.6957934790463
1731015705.8311372,803.5088939975212,809.8354967434404,804.4275572116079,812.3624444518782
1731015705.8339684,800.010182212276,808.2356583043155,808.1720818406299,819.6083781368543
1731015705.8378513,797.6591584170719,806.2231276691344,811.3574575639203,824.2444174140168
1731015705.8417342,798.5116127991912,805.1519502874346,813.1492331648054,824.3687349935357
1731015705.8418424,802.9187159434497,805.9817755865913,813.5433073522693,820.0317654705549
1731015705.8456168,809.4150176742265,808.6549525064686,813.1436241210417,812.7351635494268
1731015705.8487728,815.7024374966893,812.0498951869542,812.6048541377261,804.4849724032263
1731015705.8494997,819.8374787549938,814.5704781928013,812.2628424508611,797.1791445513223
1731015705.849954,820.9495569585736,815.0386238170254,812.1287982644392,792.4316004115176
1731015705.8533826,819.3441552058999,813.3586504216333,812.0746288010114,791.373082860623
1731015705.8572657,816.1169388618503,810.5475160249545,811.9947607280283,794.1491856123806
1731015705.857475,812.4757701658771,808.1114505579999,811.8600376333846,799.4739110352346
1731015705.8611484,809.1160438997442,807.169747998181,811.6926229120476,804.8730165422195
1731015705.8650312,806.0857512520463,807.8955875258953,811.5229783651265,807.7715505262821
1731015705.8687706,803.244332817002,809.6066351391686,811.3661327717792,806.8075846260132
1731015705.868914,800.8182379166636,811.3487525065486,811.2211066665029,802.4692435761447
1731015705.8727968,799.3979327099855,812.4750887030928,811.0806615617391,796.6305012092719
1731015705.8731077,799.3288993898192,812.820121983218,810.9393991064004,791.3644160804682
1731015705.8766797,800.1729815997257,812.4797878370697,810.7960916410251,787.8757278976451
1731015705.8805623,800.8833760056349,811.5261750472902,810.652077459797,786.2053015611552
1731015705.8837636,800.5699764044186,809.9461426643669,810.5089674012688,785.7262136199206
1731015705.8844454,799.1123784092102,807.8097077855307,810.3674884582514,785.8773900496469
1731015705.8875873,797.0599750118886,805.4465159976862,810.2275386577976,786.4965164769035
1731015705.8883283,794.9854774200321,803.4175047958607,810.0887282769704,787.5780322248895
1731015705.8887403,792.9719828661224,802.2675004592229,809.9507919197712,788.8861171619354
1731015705.8922112,790.7568062422317,802.2493427942691,809.8136875993646,790.0009920273566
1731015705.896094,788.4081873805765,803.2420027569472,809.6774993695401,790.8629443779704
1731015705.899977,786.8593005903996,804.9066361102978,809.5423163482295,792.2063529612334
1731015705.9038596,787.6690157443788,806.903484939363,809.4081771768319,795.2173665205557
1731015705.9043732,792.0162600588658,808.9630116470065,809.275077302791,800.4817899236283
1731015705.906404,799.6271961764552,810.8009771521116,809.1429987089948,807.1119398763141
1731015705.9077425,808.4792931534703,812.0608536010484,809.0119307100298,812.9691467632299
1731015705.9116254,815.6024887895763,812.4327987651728,808.8818739095093,816.0008976804507
1731015705.9155085,818.5369120259511,811.8811586664377,808.7528344428456,815.6753069691767
1731015705.9187546,816.5746060616382,810.7586741655983,808.6248176395474,813.2906771213385
1731015705.9193912,811.0660039611889,809.6581737212471,808.4978253959682,810.8199313321643
1731015705.920006,804.6471138431501,809.0784367554515,808.371856784999,809.2065126571254
1731015705.923274,799.8533126483379,809.1511598535014,808.2469096734285,807.5737636129236
1731015705.925221,797.8955771744464,809.6406035545814,808.1229817526695,804.1110378270554
1731015705.9271567,798.2553692712826,810.2091280739121,808.0000706601968,797.9673337758145
1731015705.9310396,799.2808000845878,810.7137619389405,807.8781736296472,790.5190117774335
1731015705.9349225,799.3772738902181,811.2586241403234,807.7572871780692,784.7978290543037
1731015705.935639,798.0220358474567,811.9376155206265,807.63740705483,783.4165527234342
1731015705.938805,795.9618279725732,812.5063002312872,807.5185283805813,786.6619607236951
1731015705.9426882,794.5264182822191,812.343511009615,807.4006457509093,792.2954731418363
1731015705.9440377,794.605506505286,810.8446225234144,807.2837530991425,797.1304732851655
1731015705.946571,796.0358537455386,807.9825016954463,807.167843312672,799.0359303327009
1731015705.950454,797.7914990396748,804.5523785219899,807.0529079320802,797.8935942177083
1731015705.9512715,798.7491242509717,801.8281727034052,806.9389375139418,795.1209761719047
1731015705.9537454,798.3981536857739,800.8416649581177,806.8259229990122,792.5113955119665
1731015705.954337,796.9898482573732,801.8138040381455,806.7138574114894,791.3724502686979
1731015705.9582198,795.1414965352325,804.1282152739565,806.6027358527255,792.322813561715
1731015705.9621024,793.3480334785903,806.7822463229265,806.4925515450553,795.4192423709118
1731015705.9628544,791.8111344421856,808.9074465627843,806.3832884525025,800.164295885872
1731015705.9659853,790.5802846525742,810.0132527674655,806.2749166792523,805.3529287700213
1731015705.9669042,789.7022001552643,809.9571064339295,806.1674010314106,809.1369240624367
1731015705.9698682,789.196380288225,808.8846433157091,806.0607277671315,809.6603643167707
1731015705.9737513,788.9812597924281,807.2714671896654,805.9549347859834,806.1238340243175
1731015705.977634,788.938909173822,805.916167822252,805.8501059447353,799.595091688795
1731015705.9815168,789.0762381569554,805.6660892457871,805.7462901872384,792.8343279836557
1731015705.981671,789.5664097211712,806.9172263010677,805.6433633247605,789.0040904657807
1731015705.9825368,790.5734731318797,809.2333625035791,805.5409573325478,789.9632837461402
1731015705.9853995,792.0097424616029,811.43931531969,805.4386495193532,795.2271388179032
1731015705.9887364,793.4534719966758,812.2244851078812,805.3364813192853,802.2802390050082
1731015705.9892826,794.3128718212974,810.9062214654284,805.2354898115947,808.0384752886097
1731015705.9931653,794.1417224785782,807.8497153760145,805.1374962033398,810.5091155747413
1731015705.997048,792.9356455502372,804.2499998935418,805.0434731186914,809.6189384752325
1731015705.9981697,791.255011054027,801.4244195744487,804.9509789475238,806.8084062877715
1731015706.0004878,790.0782406536456,800.1179271431872,804.8531514826185,803.8430774642967
1731015706.000931,790.3982432603447,800.2933732923842,804.7427926311259,801.736345454769
1731015706.004814,792.7367099000646,801.4646961695893,804.6223609488793,800.4412267649325
1731015706.0086968,796.8573123050251,803.1820838252114,804.5131864560694,799.3309095969557
1731015706.0125797,801.8720257776232,805.2083783232853,804.4494916242653,797.9632521577937
1731015706.0138023,806.6793458709204,807.3062589052527,804.4457890958867,796.5382076577176
1731015706.0164626,810.4523671142525,808.9995688425416,804.4498378741637,795.7710497761832
1731015706.0193045,812.8837105735176,809.7046313441932,804.3307101216499,796.332666624496
1731015706.0203452,814.079955633995,809.2005373858583,803.9668819100278,798.2668206271702
1731015706.0237272,814.2347203155315,807.9743713299865,803.4420238871769,800.7856169621516
1731015706.024228,813.3508616541119,807.009107422906,803.2161155862273,802.6304535842523
1731015706.028111,811.2432985923781,807.0726870430505,804.0233886039457,802.8513631943378
1731015706.0294352,807.8417376126955,808.0578172442941,806.3665592353785,801.5223021094074
1731015706.031994,803.5603930266011,808.9552235587463,809.887162253338,799.8240872545044
1731015706.0358768,799.4092653327109,808.5629504836128,813.2252757700635,799.3047075602711
1731015706.0381212,796.6826462700133,806.4216368879773,814.7252109874393,800.7827433065466
1731015706.0397596,796.359342771178,803.2346809566966,813.5618964800597,803.723175377227
1731015706.0436423,798.5637540765089,800.4157877702748,810.3393156733378,806.5926320868681
1731015706.0450678,802.4298682799362,799.1184590958064,806.6057602733534,807.9329031041428
1731015706.0475254,806.496100403599,799.5239190778743,803.7207027655082,807.3328708336064
1731015706.051408,809.4489478757878,800.9021182538787,802.0709981562054,805.5866910902445
1731015706.0552907,810.7914037166115,802.2693682793265,801.2103734208924,803.9879155604968
1731015706.0569382,811.0141521952738,803.0195207118917,800.6031278471069,803.3735285964849
1731015706.0587182,811.1520276557148,803.0882512998513,800.2049069552825,803.6638530632683
1731015706.0591738,812.0316236301478,802.730070120619,800.4174115332148,804.1662044154813
1731015706.060701,813.7322774182464,802.2641746792998,801.5744352461166,804.2668277274059
1731015706.0630567,815.6123673448928,801.9789983079568,803.4831682209409,803.8898708196353
1731015706.0669396,816.8349296923043,802.1043577226794,805.4366800068523,803.4199896006293
1731015706.0708225,816.9872028898121,802.732164132828,806.6912268045321,803.3068998328941
1731015706.0747054,816.3617526692813,803.747267199305,807.0161441393163,803.7852015074446
1731015706.075755,815.7377575696767,804.9002072459666,806.8725219898937,804.8980479630721
1731015706.0763333,815.859452247809,805.9966850160342,807.0808984567954,806.6420018743252
1731015706.078588,817.0046942445307,807.0225172842246,808.2261038801221,808.975428929747
1731015706.082471,818.9331143638486,808.0885064509368,810.2150829800011,811.68543693164
1731015706.0863538,821.177521403053,809.2736554178867,812.2775590353214,814.332625086859
1731015706.090237,823.3636589415995,810.5195576362978,813.4222084196864,816.4095159458933
1731015706.0919662,825.2690800905455,811.6258062676518,813.0967684865318,817.5831999899456
1731015706.093709,826.6462810812543,812.2866427786947,811.644740430995,817.7861596671708
1731015706.0941195,827.1183981354585,812.1309748809639,810.1913647950804,817.1031602246959
1731015706.0945716,826.3865876771602,810.8171104639165,809.9073072986138,815.6548816152385
1731015706.0980024,824.6053222255343,808.2327693905635,811.0922759239305,813.6864255615162
1731015706.1018853,822.4949798494309,804.7180410926842,812.8067534410824,811.7803580444648
1731015706.1057682,820.9343732922198,801.1013945089463,813.4633635969707,810.8332534352213
1731015706.1075988,820.2933428700641,798.3974114864791,811.9921523061153,811.5409043796617
1731015706.1096509,820.0972973806273,797.2768544699272,808.6373402911121,813.6586073896823
1731015706.1133883,819.3803885247147,797.6679890646255,804.7406333929626,815.7608691678155
1731015706.1135335,817.4804092510385,798.8134844635355,801.7685368357146,816.0240516321443
1731015706.1174166,814.6272072757411,799.7630196094552,800.4419943267923,813.6661008466046
1731015706.1212995,811.8391715630315,799.9267054420585,800.570521414232,809.8769597681272
1731015706.1232314,810.2117477082976,799.2934535731022,801.4626883010765,807.268282641627
1731015706.1251824,810.169931783499,798.249257583033,802.3862754417627,808.0665979436244
1731015706.1287,811.2649734927679,797.2674917663282,802.7837437544066,812.4060633378203
1731015706.1290653,812.6291493477609,796.7517266371507,802.3678296699125,818.0635664845698
1731015706.132205,813.6652247402553,797.034549067238,801.2784298854394,821.8373756081628
1731015706.1329482,814.394528755273,798.3295298909626,800.1833979381744,821.5353123525589
1731015706.136831,815.2183355383388,800.5441205395073,800.0344332318621,817.1921279219131
1731015706.1388645,816.3406385325507,803.1388974013012,801.4550472684266,810.8035602514387
1731015706.1407137,817.350937866463,805.296531871321,804.1823692967096,804.9275376940117
1731015706.1445966,817.3286140294468,806.3962157165322,807.0788902575173,801.2003477674226
1731015706.1484797,815.4534126331893,806.441598904205,808.7927487377165,799.7277942611088
1731015706.1510217,811.7455169769574,806.0563958942741,808.5766267673234,799.568217122631
1731015706.1523623,807.4245873009513,806.019177336711,806.6433623177163,799.7230701233749
1731015706.154497,804.5573964563152,806.7158577196749,803.8651333496655,799.8148629492034
1731015706.1562452,805.073987845191,807.9436630524073,801.1677210517397,800.0688031915629
1731015706.160128,809.6450598525435,809.1659848629849,799.1131183546958,800.8393323892258
1731015706.1636908,817.0796001537237,809.9400816951244,797.8542018584706,802.1788390647648
1731015706.164011,824.6844810574721,810.1643923918365,797.2929502873105,803.7291733957105
1731015706.1678936,829.4952798768654,810.0237643200414,797.225645414358,804.864760439946
1731015706.169839,829.7363533749601,809.7744995770882,797.4258956890418,804.8853510131348
1731015706.1701298,825.677191419837,809.5763181765976,797.7076077465427,803.1875141458038
1731015706.1717763,819.3918509531806,809.4599404145285,797.968106137221,799.4952178637209
1731015706.1756594,813.588551555787,809.3854459491668,798.1853461518133,794.1726320641914
1731015706.1795423,810.2164471359262,809.3087952129815,798.379412393537,788.417976640936
1731015706.1834252,809.6367711987428,809.2121177445001,798.5738973711223,784.0290350969271
1731015706.1857624,810.7501898299403,809.1000942285981,798.7784913827077,782.6640341054192
1731015706.187308,811.8845100605786,808.9842180718621,798.9906353053259,784.9780070341943
1731015706.1886554,811.8341988436603,808.8717438053321,799.2040312063828,790.2699148875822
1731015706.191191,810.4238113783904,808.7635757420077,799.4146843643829,796.9851069027136
1731015706.1950738,808.3226507431148,808.6573252160451,799.6220769490737,803.7260659510158
1731015706.1986818,806.3560834209461,808.5506812865756,799.8275054116257,809.9470817074417
1731015706.1989565,804.908488533496,808.4428107464709,800.032234254117,815.7668756931438
1731015706.2013953,803.8967487049122,808.3340365315852,800.2367233878243,821.1521506076872
1731015706.2028394,803.238034926738,808.2249771553217,800.4407993821314,825.3153727320603
1731015706.2067225,803.2233915523807,808.1159922081737,800.6441252827968,826.9383750834032
1731015706.207472,804.2920547734002,808.0071058854415,800.8465050834211,825.0373659720243
1731015706.2106051,806.365860446955,807.8981837647577,801.0479267635013,819.7361411909736
1731015706.214488,808.4622478483661,807.7891079783199,801.2484660569455,812.3778543807141
1731015706.217028,809.1127885542691,807.6798422398119,801.4481907316958,804.9797098680359
1731015706.218371,807.3282331895311,807.5704088953588,801.647125366331,799.4246960671933
1731015706.2222538,803.2960493963205,807.4608424978634,801.8452644447922,796.7768394608544
1731015706.2261364,798.2493318405604,807.3511622972879,802.0425975198467,796.9431553370925
1731015706.2262888,793.7063390047056,807.2413700492,802.2391221563008,798.8153805735512
1731015706.230019,790.7472267648719,807.1314600740471,802.4348415796753,800.9146736418214
1731015706.2326608,789.7703888903862,807.0214282959947,802.6297574746402,802.2656946970008
1731015706.2336726,790.6308718851953,806.9112751947961,802.8238702175445,802.9137943477378
1731015706.2339022,792.8298010801659,806.8010042963796,803.0171909607608,803.6024551183153
1731015706.237785,795.6365748937599,806.6906196885518,803.2097560610064,804.7757851983561
1731015706.241668,798.280776568991,806.5801246697825,803.4016220053264,805.7595635297758
1731015706.2451055,800.2876743294667,806.4695217297103,803.5928224208049,804.9844717697553
1731015706.2455509,801.7654005108868,806.3588131152551,803.7833011327416,801.2733576949562
1731015706.2482934,803.3557955901666,806.2480012957471,803.9728881902879,795.1806410384152
1731015706.2494338,805.7828516180012,806.13708909382,804.1614110489927,789.1150865469612
1731015706.2533166,809.2704965857973,806.0260795884511,804.3489582462942,785.8804018753592
1731015706.2571993,813.254803921386,805.9149759771213,804.5361141324738,786.6613689113359
1731015706.2610822,816.6412475235293,805.8037815060959,804.7237848272412,790.1171128946675
1731015706.2639222,818.4586957270006,805.6924994816018,804.9123261633124,793.4295940676683
1731015706.263926,818.4412208250476,805.5811333255722,805.1003154843513,794.5243416348999
1731015706.2649653,817.1122726768414,805.4696866291162,805.2842804117843,793.6754676416939
1731015706.2686636,815.3359343874578,805.3581631583553,805.4610485447068,793.228798414624
1731015706.268848,813.6955571234686,805.2465667808139,805.6327797701524,795.7488295532911
1731015706.2727308,812.1380246372405,805.1349013314617,805.8109264404302,802.1368834865846
1731015706.2766137,810.0860792740707,805.0231705305381,806.0119489278843,811.1412617081199
1731015706.279559,806.9158090872896,804.9113781321468,806.2400984728988,820.3845042913733
1731015706.2804966,802.5047000874516,804.7995283877196,806.4652029664118,827.7946845749133
1731015706.2827392,797.5048654569935,804.6876265675055,806.6213129568672,832.238784177304
1731015706.2843795,793.1053243371504,804.5756788608272,806.6564429972927,833.1512838590087
1731015706.288262,790.358919782419,804.4636909775669,806.6307099136321,829.9713491603175
1731015706.292145,789.5253332670833,804.3516657609333,806.790036547109,822.2963722023302
1731015706.2951915,789.9594634511943,804.2396019687196,807.4931888410595,810.8140948281509
1731015706.296028,790.6548990856793,804.1274975424908,808.9424230636773,798.1020330676517
1731015706.2999108,790.9666516269841,804.0153585631232,810.8794706931614,788.1976872569759
1731015706.301556,790.8871172040805,803.903208414401,812.5584183423149,784.7255784986294
1731015706.3036544,790.7217504328927,803.7910841063326,813.1372419815132,788.6651017599854
1731015706.3037937,790.618076548973,803.6790080659823,812.2199532002089,797.4308234952952
1731015706.3076766,790.497343320955,803.5669438554714,810.0787338038607,806.1817048806288
1731015706.3108244,790.4269271309088,803.45477886304,807.3779708632147,810.6598280953253
1731015706.3115594,790.9201585115945,803.3423949036132,804.7237446401019,809.642586532011
1731015706.315442,792.6780488584507,803.2298407054512,802.4962509009994,805.2937561505641
1731015706.319325,795.8824052023261,803.1174906882213,801.0195990931128,801.2307476031285
1731015706.3203726,799.6730297216147,803.0059410256196,800.6820189017981,799.8041951630207
1731015706.323208,802.3456250804529,802.895445578878,801.7066533447579,800.5898070181373
1731015706.326457,802.2215439699587,802.7851013050707,803.7791716354079,801.0731691757346
1731015706.3270907,798.6393726826286,802.6726350010067,806.0095628912886,798.8346429487326
1731015706.3309736,792.4611656988945,802.555899182377,807.3937911446229,793.5058744062603
1731015706.3348565,785.7903634629265,802.4361701031643,807.4201455436597,787.0735303128547
1731015706.3386457,781.0245856779052,802.3208452441223,806.3197114785476,782.4272049920154
1731015706.3387394,779.7325259741042,802.2208255434017,804.8016692803379,781.3501635849989
1731015706.3391893,781.9755877836351,802.139346864647,803.5474857162689,783.4633700743159
1731015706.34209,786.45439505349,802.0571840329372,802.865058172472,786.7881206330107
1731015706.3426225,791.3462447280072,801.9310184580933,802.6909365621079,789.3305223952207
1731015706.3465047,795.2693685583362,801.7250939104667,802.8281142567299,790.4107819772742
1731015706.3503878,797.7864276949721,801.4751916067461,803.1648756997905,790.8094306732852
1731015706.3542707,799.2372465243882,801.3375383918308,803.7009404497729,791.7965764276347
1731015706.3577223,800.1583137724155,801.5399967963377,804.4077900108216,793.9268251957658
1731015706.358006,800.7712540257921,802.2028078995803,805.1042322383113,796.5415205659258
1731015706.3581536,800.8972796729691,803.1595737211817,805.5129951267508,798.2879125839796
1731015706.3620365,800.3120693973225,804.0207946246277,805.4839893995801,798.1900261727695
1731015706.3659194,799.2193709620769,804.5313570242392,805.1778013417523,796.4317395824618
1731015706.3698022,798.3925698601169,804.8874144905774,804.9971283775199,794.2496025013983
1731015706.3733554,798.7391172288975,805.5964193673157,805.27974753623,793.0165738027201
1731015706.3736362,800.526946853126,806.9065730548825,806.0184265401261,793.2619652196921
1731015706.373685,802.9259441561547,808.3553730785592,806.8734867688617,794.4658147145173
1731015706.3768227,804.4049655186108,808.9801849540402,807.4627240201297,795.7987400912174
1731015706.3775678,803.8202940293914,808.122118398308,807.6441743918609,797.061702866259
1731015706.381451,801.3253861148419,806.124122290772,807.5474285750114,798.8159771407562
1731015706.3853335,798.2856580483472,804.2446219475988,807.3927249709302,801.4869567119558
1731015706.388988,796.253978288742,803.8082455234709,807.3159382150455,804.3808135136874
1731015706.3892164,795.9084369897407,805.3056534073683,807.330017177653,805.8116413941777
1731015706.3930993,796.8138733374253,808.1521173793468,807.3849184200162,804.4507873546222
1731015706.3956397,798.0354237485682,811.1774969068447,807.4341255194912,800.633375901502
1731015706.3969822,798.9092064492975,813.3361160997175,807.461491406931,796.2478505514772
1731015706.4008653,799.3340657025906,814.1169423840247,807.4739476526113,793.2735797812641
1731015706.4046206,799.5526077244211,813.5534832261328,807.4839982278487,792.4319182126346
1731015706.4047475,799.809896950102,812.0543003129502,807.4987284037594,793.111418683111
1731015706.4086273,800.1925577688687,810.2282753730118,807.5184710517364,794.2561056067718
1731015706.4086306,800.6609973009146,808.6833640132112,807.5404538283525,795.1721591050191
1731015706.4125135,801.1448230891967,807.7836145639203,807.5623072628559,795.7203063949788
1731015706.4144564,801.6039792869001,807.5175073531335,807.5833207214125,796.0754045100622
1731015706.4163964,802.0363549977852,807.6094064586854,807.6039454627288,796.4344272286146
1731015706.4202535,802.4574383570888,807.7650002558152,807.624854712854,796.8796029773625
1731015706.4202793,802.8806053040861,807.8336692065204,807.6464006123125,797.3920882275958
1731015706.424162,803.3099769731629,807.8102107944686,807.6685810547217,797.9212588683985
1731015706.428045,803.7431356605591,807.7517796609818,807.6912464016583,798.4344357819773
1731015706.431928,804.1763790414885,807.7055185950544,807.7142801334633,798.927073139231
1731015706.4332733,804.6077816629053,807.6844542279557,807.7376554146698,799.4095680361613
1731015706.4358106,805.0374007848206,807.6786956812825,807.7614029753082,799.8922571347845
1731015706.435886,805.4661260789712,807.6746463143171,807.7855609380656,800.3790066130998
1731015706.4396937,805.8946651050211,807.66560236403,807.8101482316525,800.8685001944409
1731015706.4435763,806.3232209878571,807.6520097949088,807.8351647512972,801.3580308608464
1731015706.443618,806.751668960034,807.6371098957264,807.8606029111779,801.8459994205475
1731015706.4474592,807.1798370119088,807.6233218126519,807.8864568679619,802.3322962357528
1731015706.451342,807.6076560047072,807.6112015718161,807.9127249716405,802.8175349783016
1731015706.451519,808.03515999363,807.6001587732021,807.9394077696936,803.3022720395127
1731015706.4520898,808.4624219648883,807.5894808306552,807.9665053547118,803.7867070839427
1731015706.455225,808.8895016598694,807.5788492971989,807.994016107719,804.2707759670648
1731015706.459108,809.3164305853726,807.5683152077781,808.0219368442657,804.7543523091397
1731015706.4629903,809.7432219024178,807.5580574624493,808.050263454814,805.237369769958
1731015706.4668734,810.1698853290098,807.5481993356326,808.0789912819316,805.7198382072869
1731015706.4671516,810.5964368793317,807.5387650107677,808.108115046358,806.2018124028809
1731015706.4707563,811.0229028316868,807.5297232354482,808.1376286086903,806.6833652443137
1731015706.4709065,811.4493188081851,807.5210398178439,808.1675250160479,807.1645702274446
1731015706.4746392,811.8757215328117,807.5126991578842,808.1977970685103,807.6454690190675
1731015706.478522,812.3021315370275,807.5046984287653,808.2284380738492,808.1260186351251
1731015706.478609,812.7285355260884,807.4970371111947,808.2594418183041,808.6060682398637
1731015706.4824047,813.1548917197904,807.4897189408496,808.290800742686,809.0854528575657
1731015706.4827845,813.5811812435863,807.4827646399683,808.3225026405064,809.5642342083329
1731015706.4862878,814.0074930178166,807.4762155027915,808.3545287638293,810.0429367106341
1731015706.4897232,814.4340638541347,807.470104393993,808.3868579795869,810.522426661889
1731015706.4901707,814.8611561119351,807.4643949487898,808.4194789630996,811.0031335870523
1731015706.4940534,815.2887350186112,807.4589392972207,808.452403363089,811.4838714593678
1731015706.4979362,815.7161487249831,807.4535428644007,808.485662092813,811.9614428145654
1731015706.4984171,816.1422797374352,807.4481843525347,808.5192677658304,812.4326409082603
1731015706.5018191,816.5665729780445,807.4432761074506,808.553152987616,812.8989221304348
1731015706.505702,816.9906091757633,807.4396391446692,808.5871421955593,813.3705020919701
1731015706.50854,817.4186606231581,807.4378503598415,808.6210425016917,813.863166654057
1731015706.509585,817.8550740680067,807.4370782075579,808.6548793573917,814.382801647225
1731015706.5134678,818.2980843047561,807.4344211176681,808.6891265841064,814.9039371868702
1731015706.5136,818.7343414994976,807.4263775323948,808.7245889221713,815.3658598432605
1731015706.5140498,819.1431306494816,807.4131386025299,808.7616469150357,815.7161812490803
1731015706.517351,819.5172402134781,807.4032086309207,808.7991159931333,816.004348956061
1731015706.521233,819.8929485413681,807.4120744772542,808.8338666082614,816.4642382275026
1731015706.5251162,820.3598455689407,807.4489737344308,808.8627674075018,817.4784245833655
1731015706.5273569,821.0162721217963,807.4952394337255,808.8872088947792,819.3739495326314
1731015706.528999,821.8839617585382,807.494620059561,808.9170565761267,822.1574897666185
1731015706.5296826,822.8801485789256,807.3858172117822,808.9675359355597,825.4025835622012
1731015706.532882,823.9243767832941,807.1868208393226,809.0442192033197,828.412329999433
1731015706.5367649,825.0498116952261,807.079852250144,809.1222099966021,830.5492590816021
1731015706.5406475,826.2748400261559,807.3825353478817,809.1422568602017,831.4683322193005
1731015706.5445306,827.2734283789088,808.3218009882286,809.0524207990144,831.1042583866978
1731015706.5453153,827.2677598291491,809.7169387830152,808.896749258888,829.5606944751879
1731015706.5461736,825.4788619702682,810.8774034044628,808.8893151504167,827.1529851467498
1731015706.5484135,821.9022886127987,810.9335818846141,809.3616746614966,824.5776522979929
1731015706.548591,817.7254752363734,809.4349402556496,810.524205881814,822.8572585394273
1731015706.5522962,814.8716430548892,806.7559492356107,812.1636541001692,822.8248921286972
1731015706.556179,814.8407378438804,803.9554340415953,813.5643225557992,824.4383760125825
1731015706.560062,817.6388779657134,802.1531851169668,813.8579778875434,826.5565082634267
1731015706.560948,821.6054147589657,801.8703335167259,812.6436517853532,827.5083275987951
1731015706.5639448,824.321308849513,802.7978186098784,810.384723996209,826.0940939582148
1731015706.5649903,823.9992817076769,804.0912724156777,808.1797318529531,822.2636791134911
1731015706.5678277,820.4221593689049,804.894813768455,807.0190837878323,816.9901290739202
1731015706.5717106,814.8563150458381,804.7284966796644,807.1108731890512,811.5075324389983
1731015706.5755937,809.1228279634582,803.6014329794727,807.8187476840611,806.54128769109
1731015706.5765808,804.5582124142588,801.9191577786322,808.2320720067598,802.0887626348773
1731015706.5794764,801.5310218557472,800.2766017311662,807.8644284635837,797.8170495637108
1731015706.583359,799.6412713632504,799.195520784609,806.9107324523114,793.6549836011669
1731015706.5835817,798.2485530294257,798.9080540881814,805.9156749857112,790.0630031301247
1731015706.583807,796.9152475358067,799.3203231807481,805.22099781923,787.7926580477601
1731015706.587242,795.5849458022956,800.1771706556721,804.7172105187204,787.357004589614
1731015706.5911248,794.5099608218668,801.2634561579968,804.1121993265976,788.5947454573259
1731015706.5922136,794.0026189753662,802.4415097143462,803.4331697462909,790.6025716527034
1731015706.5950077,794.1456779408486,803.516159456533,803.2261377114181,792.0970658999491
1731015706.5988903,794.6705068184428,804.1356617264048,804.1403442646831,792.0467884750141
1731015706.6026237,795.1264419032456,803.9170721489504,806.1498862220554,790.2240691486087
1731015706.6027734,795.1993074914145,802.7331560532718,808.1228133512054,787.3010965062736
1731015706.6066563,794.8796620297368,800.9022563793053,808.3197172150718,784.4023840341158
1731015706.6078465,794.3638337377062,799.1034313871835,805.6382875920772,782.4709569875254
1731015706.610539,793.8798488993119,798.0801237764583,800.6363522198019,781.9522138785427
1731015706.6144218,793.6530685639735,798.3218553604054,795.3899258309101,782.9201815414582
1731015706.6183047,793.9483269597491,799.8586724702691,792.1941194719088,785.2802519737307
1731015706.6185727,794.973476774528,802.2287311903522,792.1206031507486,788.7011191383169
1731015706.6214404,796.6453135099895,804.6629839657512,794.5250584223179,792.4340470215261
1731015706.6221876,798.494927857785,806.4546553058478,797.7339208050792,795.4596399005577
1731015706.6234791,799.9134050684818,807.3068655901558,800.2193548661505,797.0226794705934
1731015706.6260705,800.5792188865588,807.3999291470801,801.3691326087345,797.0627066722271
1731015706.6299534,800.7061661370697,807.1495820010608,801.4661257892894,796.0989009150516
1731015706.6338365,800.9236271807671,806.8989094110327,801.1501231556541,794.7552060101291
1731015706.6377192,801.9077521492732,806.7793757492489,800.9024753927654,793.4833549597083
1731015706.6391118,803.997749248956,806.7603866937142,800.8701594188386,792.668132509348
1731015706.6402574,806.953326429555,806.7643972171653,800.9757986644781,792.7330534565218
1731015706.6416018,809.9483445073953,806.7433009571495,801.0975665216879,793.9174015891185
1731015706.6454847,811.886398605698,806.692082392574,801.1718267373446,795.9657380243182
1731015706.6493676,811.9863707408778,806.6275044015312,801.200092024392,798.1962856109021
1731015706.6532505,810.3043108640911,806.5652566989069,801.2110482421838,799.944773918906
1731015706.6535635,807.7515552892556,806.5107772799905,801.2271686884735,800.8877454142115
1731015706.6547444,805.5000694919158,806.4617041616094,801.2542188553377,800.9327500255469
1731015706.657133,804.2033434396452,806.413800119701,801.2871763906495,799.9468430285848
1731015706.659074,803.6592659195717,806.3646701846835,801.3195137781754,797.7695393885069
1731015706.6610162,803.163303248766,806.314208236742,801.348128231893,794.5270355073773
1731015706.664899,802.2047485374305,806.2633588141235,801.3733208836828,790.8451056248707
1731015706.6687818,800.9074167723261,806.2129283984566,801.396661169863,787.669810298375
1731015706.6703773,799.8896112621005,806.1631606357247,801.4192766828781,785.8354796435904
1731015706.6726646,799.7042852999456,806.1139053516188,801.4413946532,785.7213387175905
1731015706.6765475,800.3125357939269,806.0649374395871,801.4627082799333,787.1619287517511
1731015706.6778908,800.9999044861477,806.0161413442086,801.4828689844198,789.5471763594493
1731015706.6804304,800.8522217340933,805.9675227150319,801.501724889799,792.0331463193501
1731015706.6843133,799.5110900227529,805.9191378875178,801.5192999699486,793.8632455226399
1731015706.68601,797.6422421850629,805.8710304735321,801.5356731899407,794.7294006765555
1731015706.6881962,796.6521742159498,805.8232089694188,801.5508901316624,794.9318666130904
1731015706.6885543,797.7428585582475,805.7756566715028,801.5649473721614,795.1263839472214
1731015706.6920793,800.9944883842414,805.7283544184472,801.5778246891049,795.7898444606774
1731015706.695962,805.2167608134034,805.6813026522109,801.5895221204565,796.8650819543426
1731015706.6967075,808.6808463608883,805.6345324572046,801.6000684225883,797.9365285084554
1731015706.6998446,810.1150973217982,805.588092031101,801.609487559235,798.7700412541726
1731015706.7016428,809.2262326773312,805.541999710916,801.6177399312859,799.6553617216102
1731015706.7037275,806.548318778298,805.4961833654497,801.6246934770228,801.1693153816603
1731015706.7076104,802.9879572986068,805.4504711186287,801.6301986792581,803.5713891653782
1731015706.7114933,799.474664317814,805.4047126709273,801.634288779282,806.4387457941375
1731015706.715376,796.7819091261077,805.359028402946,801.6373774633902,808.9227530967686
1731015706.7155242,795.3851127194897,805.3139948803993,801.6401642769487,810.3799261098602
1731015706.7172754,795.352434640169,805.2704135828523,801.6429995364186,810.7728371831215
1731015706.719259,796.4037916723025,805.2284463451572,801.644916144059,810.5383128383575
1731015706.723142,798.1418439005713,805.1865340154718,801.6432940096896,810.1725677255432
1731015706.7235453,800.2309971253565,805.1413825222379,801.6354837878177,809.9427015016151
1731015706.7270248,802.3432359213782,805.090452746004,801.622628683784,809.8693122664737
1731015706.7309074,804.0140758945778,805.0366570321625,801.6130457266584,809.8603116890016
1731015706.7329082,804.7427302484351,804.9913652192596,801.6196713384527,809.834712951901
1731015706.734341,804.40814123622,804.9691168821008,801.6474245770441,809.7675559126351
1731015706.7347903,803.5988512247684,804.9707522491651,801.6755261069434,809.6737726295049
1731015706.7386732,803.3609794163247,804.9642063669775,801.6539153250365,809.5761845311756
1731015706.742556,804.3885462409083,804.8880480530382,801.5380788533953,809.4867713295271
1731015706.746439,806.3245548322251,804.7035966745681,801.3638547055788,809.4053794072174
1731015706.7485409,807.8823564738464,804.4867741882231,801.3103144568522,809.3267432721659
1731015706.750322,807.8010220201595,804.4865044445933,801.6552349808601,809.2466962148225
1731015706.753158,805.8682662303011,805.0438504269259,802.5815159991082,809.1641529017426
1731015706.7542048,803.1373160161504,806.350073871334,803.9776850294227,809.080036194456
1731015706.7580874,801.134942599645,808.1948226898548,805.4900426437728,808.995561190713
1731015706.7585363,800.709188789433,809.9294774572965,806.8508596983702,808.9113152083811
1731015706.7619703,801.4687043113177,810.7282865497564,808.1140141284619,808.8272547441824
1731015706.7641735,802.2615906067216,810.0093516380571,809.4526569266803,808.7430984401767
1731015706.7658532,802.2452891034485,807.7767578555103,810.7067551706006,808.6586446656465
1731015706.769736,801.5900857673462,804.6957946224692,811.2677979032461,808.5738582118423
1731015706.7719746,801.2145573776393,801.8446050936875,810.58913254405,808.4888036121205
1731015706.7736187,801.852930055899,800.2418643044251,808.8642205469221,808.403554373214
1731015706.7775018,803.3402170719136,800.3751288624007,807.0751542674154,808.3181487949213
1731015706.7798064,804.729669795107,801.9762049016692,806.1845524935358,808.2325934368872
1731015706.7813847,805.0579885844202,804.1768650149978,806.1958281716393,808.1468843940485
1731015706.7852676,804.0491795444724,805.9771564644949,806.0681944075558,808.0610219405013
1731015706.7891502,802.2207715372932,806.7706232550363,804.6716479452992,807.9750124830058
1731015706.7907913,800.4363000701478,806.6147798077926,801.9239903018571,807.8888648514096
1731015706.7930331,799.3550071187555,806.0849549928516,799.0600805404267,807.8025899699375
1731015706.7935271,799.1743145060083,805.8349064265201,797.7967308571613,807.7162063791492
1731015706.795439,799.7170774227737,806.1902396993435,799.117692515574,807.6297445357247
1731015706.796916,800.6548024727368,807.0412402214681,802.6401767117213,807.543237609892
1731015706.800799,801.6724380193441,808.0369206481022,806.9604627039449,807.4566936243898
1731015706.8046818,802.5485070047857,808.8595753870502,810.6087245113631,807.3700660805359
1731015706.808565,803.2110781702057,809.3658171052854,812.8861236955554,807.283265158369
1731015706.809608,803.7707896280785,809.5644480997205,814.070106838381,807.1962475572019
1731015706.811072,804.4669961591453,809.5501356473109,814.9730358394314,807.1091585224715
1731015706.8124475,805.5148567910635,809.483875777412,816.2318113532859,807.0223884598906
1731015706.8163302,806.950657456955,809.5806627473168,817.7992034967747,806.9363483134437
1731015706.8202133,808.5931414963908,810.0175774951538,818.941822801118,806.850917124078
1731015706.824096,810.1359559149658,810.7794296579094,818.742834977725,806.764929958801
1731015706.8267045,811.279598161775,811.5832791300729,816.7872754734318,806.6765038753151
1731015706.8279788,811.816188612245,812.0034218353835,813.5550759504716,806.5848386600154
1731015706.8284247,811.664744554986,811.7511520428856,810.2142320603655,806.492827479113
1731015706.8285182,810.891339755633,810.8995583694863,807.9208936355595,806.4077460205735
1731015706.8318615,809.6974907025971,809.8463723691673,807.0943135257811,806.3364364312047
1731015706.8357446,808.3303968854536,809.02504821071,807.1742233973804,806.2745829212298
1731015706.8396275,806.9539119331914,808.6224321641993,807.0598224874404,806.197519548619
1731015706.8423374,805.6210745005405,808.5412722256751,805.9663407020539,806.06700588787
1731015706.8435104,804.4183851889441,808.5718647332,804.1037425971316,805.8623511735325
1731015706.8472414,803.6272843191636,808.5650281919818,802.6340288248059,805.6138609250504
1731015706.847393,803.6542597697512,808.4835972186278,802.8476903028311,805.3782041398179
1731015706.851276,804.7087080932246,808.359428087852,805.1271998972757,805.1193623398883
1731015706.8551588,806.532205109557,808.2333725968971,808.5223473680032,804.5872479006297
1731015706.85797,808.4897468341885,808.124370497358,811.3328504342073,803.3812331756773
1731015706.8590417,809.9641208783961,808.0300229605897,812.2581853354376,801.2477888184252
1731015706.8629246,810.6710044982323,807.9402262737617,811.1780979305363,798.3784834593877
1731015706.8635092,810.6233130707749,807.8478637167193,808.9714019572331,795.396560962844
1731015706.8660583,809.8777198311097,807.7515404377143,806.6458316878081,792.9831516454487
1731015706.8668077,808.4023198158434,807.6531855119606,804.5921494866795,791.4197172532878
1731015706.8706903,806.1893332312787,807.5549448422689,802.5260551257676,790.3872035986276
1731015706.8736029,803.4076282005665,807.4577102455648,800.0051209699185,789.1654704623006
1731015706.8745732,800.3716641287427,807.3612707485327,796.9924361552406,787.1407289824981
1731015706.878456,797.3967990008853,807.2650665853822,794.045924219267,784.3768628611155
1731015706.8823388,794.8014438216005,807.1687311585254,792.068559921554,781.9173510855995
1731015706.8848753,793.1139977827095,807.0722032727101,791.8148807101755,781.4966229197448
1731015706.8862216,793.1730884049676,806.9755845351104,793.4318074574511,784.5965205696648
1731015706.8892355,795.7692564279781,806.8789762133088,796.290960473956,791.2865398340588
1731015706.8901043,800.9230420218973,806.7824089993576,799.2555033150028,799.6839720926796
1731015706.8939874,807.3960351028497,806.6858564776015,801.2857017187356,806.6631144047223
1731015706.8978703,812.9990321966791,806.589276414112,802.0244926969982,809.5569547476788
1731015706.8985,815.6285496652343,806.492638966106,801.9527717443319,807.703502195399
1731015706.9017532,814.327581757491,806.3959324733268,801.9870026766296,802.6918133764793
1731015706.9036918,809.6627609693246,806.2991557886855,802.8161349228873,797.1856042409808
1731015706.9048684,803.3041651270164,806.2023073058036,804.4702643017957,793.3224944748567
