timestamps,eeg_1,eeg_2,eeg_3,eeg_4
1731140957.1197617,825.5021250856337,797.528324751715,807.316899523605,818.673098974045
1731140957.1386669,823.8315291183656,797.7783231658402,806.2615382059246,819.53641812051
1731140957.146378,822.7744906632645,797.9781426935292,805.503617581166,820.4918650275874
1731140957.157572,822.2927318550118,798.0929512549372,805.3027946376886,821.7185094257314
1731140957.162,821.3626307123185,798.1653201090691,805.6860212090502,823.3096251761643
1731140957.1764774,818.4075755534478,798.3627975738632,806.189722994799,824.9102749072625
1731140957.1776218,812.8072820104842,798.875461881993,805.8504895645997,825.6349535785658
1731140957.193244,806.8730035272474,799.6519566520433,803.6823492613446,824.6931525060797
1731140957.1953826,806.5189639069001,800.199063635483,799.4951508268053,822.4776761865087
1731140957.2040346,818.8571464257016,799.7421865677516,794.4916244351668,821.0766989360291
1731140957.2079308,846.9930305053072,797.7672310390518,791.0317603820404,823.2137599195679
1731140957.208866,885.2949164546485,794.5408153443177,791.4661667858945,829.8990679460856
1731140957.211827,919.6083294766293,791.1052920443306,796.7022418438622,838.6684355058726
1731140957.2127264,934.3047405619325,788.6726732310565,805.5059226511975,844.4860134370092
1731140957.214288,922.7155201870505,787.9045936205965,815.0666760756732,843.3994699329212
1731140957.2157233,893.3899403216365,788.6526156961686,822.4240805695961,836.2371226377011
1731140957.2196195,865.9626280081238,790.2347946851041,825.7707321862492,828.7720586795583
1731140957.2235155,857.8130746253879,791.8068841646316,824.8755929938219,827.3538771765501
1731140957.2244878,871.04354478805,792.4557096572718,820.6456196704303,833.2589190864844
1731140957.227412,890.8214981063713,791.2081790799909,814.4566215476951,840.9325073215296
1731140957.2313082,897.705257396125,787.4582666924168,807.8261935639871,842.4277436943536
1731140957.2331932,884.3856583189332,781.8141775612818,802.3834288052941,834.6944339512415
1731140957.2352045,862.4234888899306,776.5115827464944,799.5734334553658,823.1333216151274
1731140957.2391007,852.4916187235374,774.4686345727022,799.760493753724,817.5662233931039
1731140957.2401097,866.0409846135965,777.2478219499071,801.2848470911001,823.5734701513426
1731140957.2429967,894.3088980119468,783.5724158032048,800.665674973699,836.8414426885223
1731140957.2468932,914.6205646439748,789.9703454281865,794.5949233617844,845.9921413849612
1731140957.2476666,909.017389920263,793.3057517181568,782.7861404888329,841.8915949878664
1731140957.2507894,879.4801248259896,793.0975995117484,769.491256613146,825.4425561303271
1731140957.2520986,846.7380525694655,791.5736195719222,761.955903994059,806.9763958227676
1731140957.2546856,833.4191688452803,791.448454818526,766.2485720011616,797.6403130507045
1731140957.2557316,845.4556426156587,793.4984940356379,783.1539482191356,800.1199348396078
1731140957.258582,867.3056033341306,796.120342332444,807.1784937194046,806.5953349981561
1731140957.262478,875.2240546550356,797.1145778556134,829.5865706568302,805.6423610764441
1731140957.2663743,857.6807769849811,795.833999188595,843.3484829947537,792.2350604042413
1731140957.2702706,825.7551755816247,793.618384431834,846.5017885706733,772.4629669024073
1731140957.2710035,804.5537557037673,792.2630595227009,841.8927021200011,759.0598425378012
1731140957.2713535,812.6161670001451,792.2303253290211,834.1822282459714,761.4268719943566
1731140957.2741668,846.3068943506332,792.424320946673,826.7850636841672,778.1979004629219
1731140957.2780633,881.9483623082896,791.6290830254657,820.8023227818298,798.1640755797744
1731140957.2819593,893.8753027445871,790.0462967392748,816.0007915857843,808.6377057791881
1731140957.2826068,873.9262746496418,789.399865022542,812.3623321071275,804.6031658120513
1731140957.2858555,837.1453510623334,791.5539880823852,810.6893087856337,791.71532322837
1731140957.2869756,809.6609766194385,796.9272771356843,811.8652528653731,781.2958749483836
1731140957.2897518,808.5833690522477,804.0060286046515,815.5966042005552,781.6304196160058
1731140957.2899091,829.5670067394204,810.2048255632069,819.9000924678923,792.274046619805
1731140957.293648,851.3651454826536,813.2967847717732,821.991167669046,805.2929619875955
1731140957.2975442,853.3899379179016,812.4354528585397,820.0556109794381,811.9601307088418
1731140957.3014405,832.1781850001672,808.3210603185438,814.5598003616299,809.474593652586
1731140957.3025975,803.6079012699557,802.6843030005303,807.9804679104125,802.5008456222657
1731140957.3053367,789.210352998711,797.4985919493395,803.0344400910826,798.4767546042322
1731140957.3088143,797.899772342993,794.2366644437209,800.7504981695406,800.645975613025
1731140957.309233,818.2163587376957,793.3749528702468,799.9601138592677,804.721739002883
1731140957.3131292,827.532861348206,794.3320625910245,798.6727220133198,802.2349514086594
1731140957.3170254,810.7863446698113,795.9238746669239,796.19385213411,788.0840209409537
1731140957.317547,773.5703896089394,797.1143884713903,794.119042696506,766.0991064320701
1731140957.3182194,738.9376954834831,797.5764818193899,795.2003001176246,747.731286685693
1731140957.3209217,730.1719890830248,797.692738401359,800.8913507513031,744.3706197093749
1731140957.324818,752.8840364228657,798.0921744029009,809.6204451970701,758.9875989545094
1731140957.3277197,790.5176546326625,799.1801492084423,817.3937287078354,783.5764727429296
1731140957.328714,817.0564005548008,801.003158378191,820.467239515434,804.5263108793704
1731140957.3326104,817.1321473051628,803.3634360784811,818.0685296040159,811.9273464208835
1731140957.3338416,797.5326786060548,805.8871548903797,813.0198389309583,805.7922758598762
1731140957.3365066,780.7311030067008,807.9900728020993,809.7613774186232,794.6747928474081
1731140957.3404028,785.6746403241013,808.9979028065745,811.2967584402347,788.1661250846539
1731140957.3442993,811.6823904950861,808.5661750669138,817.2997929485829,789.3809734552199
1731140957.3466249,838.7731420763773,807.096551068521,824.5668457225294,793.1858457426979
1731140957.3481953,844.0852822132729,805.6700616892239,829.215149091558,791.140278642599
1731140957.3494637,820.8336763543658,805.4161728265244,828.966523581628,778.9223151503016
1731140957.3520916,784.3818149762097,806.782481425206,824.1096750997884,760.3438269325477
1731140957.352487,760.5993670673415,809.2601946092486,816.8179791201771,744.8706232832426
1731140957.3559878,765.8521316777592,811.7131091763944,809.565909665837,740.5598581689243
1731140957.359884,794.5283831363375,813.021522279059,803.8421065356275,747.8978194752625
1731140957.3637805,823.9513709992154,812.6392331124663,799.976864673856,759.5292833019084
1731140957.3650854,832.6167430633192,810.8015361366627,797.9137681296944,766.3798733014921
1731140957.3655305,816.9355913222596,808.3084365858945,797.9342859595836,765.3513393304867
1731140957.3676765,792.9023986094525,805.9989361689695,800.5081085191988,762.0280171833656
1731140957.3715727,781.613387824878,804.2382208280862,805.4915209516355,765.6949290714578
1731140957.375469,791.058524685878,802.7992174602762,811.6894525882474,780.6362051095703
1731140957.3793652,809.6277968432544,801.2517721927774,817.3948079468915,801.3181352112194
1731140957.3807073,816.6337093299821,799.5295511346501,821.3768505636431,816.0198911732274
1731140957.3832614,800.61151222142,798.1741349159621,823.2768240753436,816.1353607514259
1731140957.3844354,769.7440392374189,798.0717756771455,823.1088970647751,803.2713180193766
1731140957.3871577,745.6618449735322,799.9557025535178,820.6711408260007,788.0088100301824
1731140957.3874276,745.8174751414381,804.0411348318336,815.7988736159562,781.2300245127917
1731140957.391054,768.9662378438148,809.8703975153328,809.3211374014854,785.2005978758572
1731140957.3949502,795.7208742288702,816.2430317896623,803.5068168755454,791.9140072106685
1731140957.3963292,803.9557109463179,821.2934483740133,801.0238502964834,790.2445611996039
1731140957.3988464,786.6699429537616,823.0363878569575,802.9254540993414,775.9871985556093
1731140957.4027426,757.5979140499237,820.4687502873612,807.4238160937709,756.1490268401619
1731140957.4033408,739.7141533535957,814.598221873728,810.8054565222311,743.5557139338559
1731140957.4066389,746.0876282430281,808.3446123286986,810.0123471181556,746.2198571152951
1731140957.410535,769.1817128295418,804.8901231407549,804.8729445145115,760.6119146418332
1731140957.4119513,787.6207515142083,805.452458952103,798.1902919404763,774.6227273351926
1731140957.414431,784.5540760029907,808.2892953506855,793.673606013604,777.5890291151634
1731140957.4183276,761.9930937942048,809.9555243624559,793.4225254594977,768.8567896117135
1731140957.4222238,739.2114053043167,807.9357149110731,796.865787989997,757.9779801133686
1731140957.422246,736.8398312483062,802.525411296191,801.6790201422112,756.8001565802792
1731140957.4223678,759.8674010482563,796.468480031659,805.6041071529847,769.9895208204312
1731140957.42612,793.1755349560609,792.780085576245,807.6720656039064,791.196891507292
1731140957.4275732,813.024834247698,792.6168867550203,808.2087374604048,807.4941193616745
1731140957.4300165,805.5114264826246,794.8124842278673,808.0821160641713,808.7348915067652
1731140957.4339125,777.6349621038821,797.1784178084491,807.9822437818215,795.0816669997054
1731140957.4378088,752.1558824466135,798.2845690538168,808.1550425462436,777.1388997607631
1731140957.4411514,749.9781582965525,798.2717564495507,808.5254603985509,768.3456956538112
1731140957.441705,773.8576046831923,798.2681619663505,808.9350468368995,775.1305262518454
1731140957.443195,806.4535809062547,799.1855621977688,809.2910060694968,792.3219201916498
1731140957.4456012,824.248123874301,801.0336683896173,809.587558757078,807.419534702024
1731140957.4494977,815.9852782148884,803.2168548723846,809.8602060673866,810.3440044072714
1731140957.4533937,790.7982920611984,805.3073544951513,810.1400996533674,800.8948002581384
1731140957.45729,769.8932200709863,807.4500032847578,810.4370881424783,788.1002356884927
1731140957.457308,769.0584679645683,810.0646244325291,810.7457215501997,782.3454156336535
1731140957.458817,786.2952110425579,813.2368551517361,811.0573845147205,786.9516381834923
1731140957.4600568,804.2392604616884,816.3866320046758,811.3674867869588,795.9852784278032
1731140957.4611862,805.0428049918679,818.4207798018039,811.6760377124472,799.7004220029136
1731140957.4650824,785.575585816262,818.1683543874815,811.9850183544214,792.8492416591375
1731140957.4689786,760.5950456692899,814.8703978702915,812.2960190267692,779.0866672122811
1731140957.4728749,751.1071740827333,808.658315815295,812.6094668771373,768.1673018898571
1731140957.474439,767.2181556852534,800.9053314280475,812.9250197479798,768.5156438529181
1731140957.476771,799.573771388388,794.098841435254,813.2422161017986,781.213237212429
1731140957.478962,826.593434883919,790.9231137505795,813.5608300805711,799.8642098711325
1731140957.4806674,831.5930076413921,792.8079650245872,813.8808781406815,815.8572517620632
1731140957.4845636,815.6798909350297,798.8445146631337,814.2024693810027,824.4928491365775
1731140957.4884598,795.9737500643271,805.9625462148492,814.525677315663,827.2980705472462
1731140957.490061,790.9602963367208,810.4554365954663,814.850497404808,829.2051333955416
1731140957.4922483,805.219613827024,809.9943006558798,815.176872652872,833.2877612466153
1731140957.492356,825.9618335332407,804.9535091086198,815.5047495429484,837.5533621775746
1731140957.4962523,834.0109450643047,798.2946718508483,815.8341331696405,836.6689531616175
1731140957.497867,820.1534267211078,794.0224276608271,816.1651073895985,827.4667664339191
1731140957.5001483,793.3193556388936,794.9540349615727,816.4977778816523,813.5135941660235
1731140957.5040448,773.4837153031261,800.9952785528824,816.8321254544662,804.09927365889
1731140957.5056827,774.7657400835178,808.9953522359089,817.1678548500817,807.4362062144984
1731140957.507941,792.9142091218578,814.4091401005363,817.5044427375046,823.3471639104349
1731140957.5118372,808.3587668261217,813.8407729134308,817.8415750591754,842.080767795478
1731140957.5157337,802.9298887464481,806.9307408398965,818.179855349944,851.1283365687656
1731140957.5167725,776.2066965916483,796.496707870194,818.521116386026,844.8779617574114
1731140957.5196297,747.2518612151142,786.9824679070416,818.8673576312137,829.0893415409563
1731140957.5213048,739.78249094946,782.2200052422533,819.2180304615316,816.3072836029606
1731140957.523526,762.8740892127057,783.6929258470852,819.5674254110827,815.8871936702867
1731140957.5271883,803.0386973332261,790.0431286984726,819.906094464781,826.7729968935096
1731140957.5274222,834.1672952850273,797.9420351871174,820.2295934250772,838.851374094353
1731140957.5313184,837.4256969663978,803.8856238912556,820.551546513465,841.5821169247798
1731140957.535215,815.316929338567,806.0096592589028,820.9077764455211,832.5508328266297
1731140957.535678,788.8320309761739,804.8841429527461,821.3336485720696,818.7289913796172
1731140957.5369267,780.1260283418461,802.7698959068067,821.8120445277298,809.6209572305784
1731140957.539111,794.7600791573336,801.8672644101151,822.2286753278095,808.6504456959599
1731140957.5430071,817.8544815183741,802.8553290854431,822.4095556920652,810.6152684780069
1731140957.5469034,827.1006286117504,804.7578834702305,822.2955366904914,807.3833763263403
1731140957.5507996,811.745450751959,806.047102152045,822.1831723098193,796.4180358891809
1731140957.552549,781.8417554452249,805.9254602765559,822.7733979177397,784.1950762965489
1731140957.5545833,760.2165851662862,804.7595645692188,824.7134794121197,781.2511386731873
1731140957.5546958,763.8260444256236,803.5122763578216,827.6602559161621,793.01157847186
1731140957.558592,789.7030079116917,802.8269104015877,829.61756446153,814.172902810407
1731140957.5621283,816.8960354476496,802.5137200398746,827.6657927588016,831.5151257758306
1731140957.5624883,822.9960152040593,801.7246378561392,820.2407235448069,833.3003060657336
1731140957.5663846,802.1796292689235,799.6147134683524,809.2754960122496,818.1848785343974
1731140957.5681708,770.2364767199427,796.0637874700535,799.8851362375547,796.6997984349341
1731140957.5702808,752.1572039560137,792.0233251836023,797.0937482784868,783.7955781582826
1731140957.5734885,761.9600054334645,789.2048876417775,801.8864157979989,787.8407921300051
1731140957.574177,791.2540188268307,789.167722210078,809.889050510905,804.5654161778081
1731140957.5780733,816.3819931888478,792.2873277413445,814.1299724668129,820.9040126121201
1731140957.5819695,818.5521054845261,797.283761062159,810.0906671328055,825.7698400212024
1731140957.5837927,799.9943147003696,801.7242385525537,799.2838700297551,818.8555924298098
1731140957.5858655,782.1540946265493,803.3054404056833,788.5605986794434,810.039329987438
1731140957.589762,787.2212144640512,801.1649007549647,785.542814389165,810.042173779249
1731140957.5923936,818.5950288544999,796.3645379088055,793.484055155333,820.6012882611456
1731140957.5936582,856.743550311835,791.1822855968114,809.207459894868,832.7319851247066
1731140957.5970688,873.9760032700857,787.6903531162096,825.4020588810873,834.5030624254917
1731140957.5975544,856.2244267925372,786.673906155668,835.4150695534555,821.6075387738979
1731140957.5994146,814.478771104944,787.6829244794453,837.0961501761008,801.7895816284619
1731140957.6014507,776.8252449512518,790.0071051980269,833.2210313618117,789.4094219056833
1731140957.605347,767.3173148292869,793.5001946083617,828.6596118528472,794.5256647327794
1731140957.6092432,788.3055491070525,798.3612239319216,826.7316250396115,815.2254139278024
1731140957.611299,820.0888638458005,804.1245638871477,827.4275806660868,839.1365299995437
1731140957.6131394,837.7349712510819,809.0665126552652,828.3496047900369,852.6073388360826
1731140957.6150365,830.9785747009705,810.9321884531082,827.0381381633151,850.1620938260162
1731140957.6170356,810.9423711096908,808.5474603629457,822.6482813541945,837.1414722898344
1731140957.620932,798.8656835254701,802.8780737205344,816.0162659719566,824.1988709527769
1731140957.624828,807.1513012991672,796.509048566231,808.6702821579239,818.6115733026382
1731140957.6287243,828.9170488299865,791.9603367160175,801.8854044675347,819.3461518948591
1731140957.6302042,844.3408340444976,790.2807286599747,796.3390727161561,819.3521709481563
1731140957.6306586,837.8348897245835,790.9759675538395,792.198195730641,812.6558523582636
1731140957.632009,811.5488480100123,793.0011471870483,789.2881438693934,800.1096402186342
1731140957.6326206,784.1678863092766,795.6619892468476,787.2648347369249,788.9066011381943
1731140957.6365168,775.9328877594822,798.6375211312646,785.9048927661553,786.1984826686642
1731140957.640413,791.9073170552173,801.4194028559616,785.4647924646638,792.3001729506483
1731140957.6443093,817.3376182807341,803.0488074651257,786.7656633024576,799.701259224247
1731140957.6462803,829.595910432987,802.5638676669658,790.686091961894,799.327931092888
1731140957.6482055,817.4002893045839,799.6872739685988,797.244731051959,788.9285542292014
1731140957.6491096,791.1659667175351,795.0222110518212,805.019728916135,776.0357359844804
1731140957.6521018,775.1020263219499,789.6234915975278,811.6276250466904,772.3351830217763
1731140957.655998,787.0505844602014,784.4923286930355,815.1635283318315,783.8143335727794
1731140957.6598942,822.8617853278569,780.4999311400214,815.5184258654151,804.993478090204
1731140957.6619024,858.6035999639448,778.5957076040461,814.3446258552265,822.2842794701007
1731140957.6637905,868.9891349160263,779.7374411469418,813.4967502334574,823.9571777988832
1731140957.6669493,846.9925967165557,784.3120710455232,813.210657071211,808.8477915034881
1731140957.6676867,808.9487212354107,791.5123627172885,811.7345563885301,787.0753915439424
1731140957.6680148,781.432491255566,799.3881725580648,806.9884468505544,772.3757343006989
1731140957.6715827,780.6236727267029,805.7632821404579,798.9473560416278,771.9769026305181
1731140957.6754792,800.4101921444977,809.3876546548372,790.5212173551608,781.6233376242392
1731140957.6775243,818.3890854904648,810.425961463321,785.8005143645697,789.437411606566
1731140957.6793754,814.8314202693039,809.9846607295171,786.9128173854875,785.7196322234951
1731140957.6832716,789.3175371524724,809.2153031249048,792.2336900508291,771.2082430605856
1731140957.6869202,761.3625714023595,808.7311268933344,797.6882091609451,757.1953196643977
1731140957.687168,754.2134673546393,808.5900414952007,800.0734684545864,756.944859900629
1731140957.691064,775.0297528586569,808.5943384848813,799.3857827041074,774.7671057509593
1731140957.6931462,808.0443029969621,808.5662422715357,798.0829560710666,801.4089761566846
1731140957.6949604,826.7432848586471,808.4496709215193,798.2271060868599,819.8983077538383
1731140957.6988566,815.2991675220487,808.2765644799517,799.5013465856257,817.8536198774261
1731140957.7018895,781.7780298823758,808.0969667380245,800.0479612065798,796.9358064940945
1731140957.7027528,752.3664058215534,807.9375156481368,799.0379595587061,772.006465571536
1731140957.705825,751.1819133682853,807.7981788445466,798.0595357593726,760.422793286636
1731140957.7066493,781.6099601720241,807.6674993729176,799.6961292706803,769.6338149505114
1731140957.7087684,823.7528471568015,807.536281848495,804.6584382908192,792.6318485572608
1731140957.7105453,849.8619518757596,807.4020600608131,810.4177860959015,814.5294283156893
1731140957.7144415,845.4811111048443,807.2668117908624,812.8734136233882,824.5003007941908
1731140957.7183378,819.5145803333625,807.133199307596,809.6479397229688,823.0828499127321
1731140957.722234,795.4073437048236,807.0025253191764,802.0755133119584,819.205653640844
1731140957.7243905,791.1064835408181,806.8747034725739,794.2398566939835,820.4937250646055
1731140957.7247307,804.6049910386502,806.7491131802462,790.1041828997254,826.0672544271721
1731140957.7261302,816.8650805018685,806.6253004145161,791.1967357327973,828.0434518980064
1731140957.7300265,809.1672899829264,806.5031744005107,796.3529466244221,819.5059809214373
1731140957.7339227,780.0431492133187,806.3828647183649,803.0047493715888,801.0502560669688
1731140957.7368298,747.6229273223611,806.2645217131145,808.5384363378282,780.1991922929816
1731140957.737819,735.4345244464605,806.1482172327338,810.9363668513392,765.1857283937695
1731140957.7400122,753.2377232544297,806.0339504980362,809.0800984741995,759.3592134372137
1731140957.7417152,788.5549562038987,805.9216954802415,803.2955477466822,760.5621773270889
1731140957.743636,816.0457257825815,805.8114365044906,795.8793494093511,764.4280195087679
1731140957.7456114,817.4711842136254,805.7031765351445,790.6553366799778,767.7541198744868
1731140957.7495077,796.1076294461285,805.5969285316833,791.1132693568967,769.6107576984977
1731140957.753404,773.5571979112577,805.4927049193554,798.0687181808064,770.5517996816551
1731140957.755634,771.2785459725573,805.3905128196129,808.6532473305734,771.3985759990157
1731140957.7573,792.2031265191172,805.2903547281768,817.7383399910804,772.566338240717
1731140957.7611964,818.1282678177777,805.192231103409,821.0422360305203,774.033783436422
1731140957.7625413,825.3135568785717,805.0961421516342,817.7591006229911,775.6044502141469
1731140957.7650926,805.084361886942,805.0020881455902,810.8479120339631,777.1290776889037
1731140957.7689888,771.8823731015187,804.9100689078863,804.8772442660766,778.5718704499081
1731140957.771256,751.8459439697393,804.8200832534412,803.0595412429387,779.9681432821872
1731140957.77177,761.3814199615161,804.7321287584238,805.48401878814,781.3617031625909
1731140957.772885,793.4967371900728,804.6462018102741,809.48114197236,782.7726345379302
1731140957.776781,823.2914439228795,804.5622977442508,811.565166847672,784.1982774945344
1731140957.7806776,828.3332973416428,804.4804109294009,809.6120283752044,785.6278611665198
1731140957.7814467,807.2961767226931,804.4005347771966,804.1062252417009,787.053863372926
1731140957.7845738,781.2149504152721,804.3226617102162,797.9342573780488,788.4748649000987
1731140957.786878,775.7310052639415,804.2467831324454,794.8325335284845,789.8929623974457
1731140957.78847,798.7347827630321,804.1728894185901,797.1878082035839,791.3104555040206
1731140957.7923665,832.332371726317,804.1009699185132,804.4201492347094,792.7282904771282
1731140957.7962625,846.5405865357343,804.0310129661859,813.1459075270161,794.1462363910721
1731140957.8001587,823.8833054698824,803.9630058862638,819.2561242965199,795.5637090945228
1731140957.800352,774.7648305680973,803.896934997296,820.5330861140098,796.9803715049447
1731140957.8025,731.0415833366175,803.8327856137158,817.8780525229879,798.39625597255
1731140957.804055,722.8039713090488,803.7705420487592,814.3221752697608,799.811562538679
1731140957.8067102,756.3395639584515,803.7101876191027,812.7686492744768,801.2263804877772
1731140957.8079512,809.8818815519519,803.6517046509263,814.2441877187902,802.6405303161376
1731140957.8118474,850.001097237075,803.5950744868135,817.7337163060974,804.0536652604399
1731140957.8157437,855.9820815476181,803.5402774931309,821.2936050120838,805.4656731276577
1731140957.818122,833.6682232276952,803.4872930678425,823.3413029454293,806.8771746864184
1731140957.8192573,808.5159868508865,803.4360996488679,823.2715072796339,808.2895747960054
1731140957.81964,803.9598533843125,803.3866747230808,821.3268141412321,809.7040487029063
1731140957.8235362,822.805287027017,803.3389948359699,818.1627768805988,811.119542285855
1731140957.8274324,846.5825697449453,803.2930356019289,814.5084818133771,812.5313779872008
1731140957.8313286,852.637719754294,803.2487717151325,811.0206407547629,813.9332829872097
1731140957.8337438,833.9694434533194,803.2061769609683,808.2254799236607,815.3244232671549
1731140957.8352249,805.0914213233467,803.1652242280113,806.4414617781459,816.7178581360571
1731140957.8381624,789.64177226155,803.1258855205377,805.6951908068853,818.140011791814
1731140957.839121,800.8024306802537,803.0881319715689,805.7579414502625,819.6100151532142
1731140957.8416505,830.8067771645862,803.0519338564321,806.4037197062191,821.1022425069524
1731140957.843017,857.5306733036258,803.0172606068224,807.7697010830299,822.5241973328311
1731140957.8469136,862.2060907462405,802.9840808253542,810.4634693991504,823.7622157452988
1731140957.849366,843.9171106854258,802.952362300601,815.1170890545396,824.8183898455736
1731140957.8508098,819.6309186490564,802.9220720226292,821.530052819614,825.9603006461602
1731140957.854706,810.1356020165451,802.8931761990245,828.0504698146135,827.6817424517911
1731140957.8570678,823.3150512606198,802.865640271373,831.9089322799995,830.2772850852385
1731140957.8586023,848.1203138673778,802.8394289321258,830.6314190172568,833.1260372775002
1731140957.8624983,863.8630972485255,802.8145061417773,823.7765324934643,834.306711527054
1731140957.864988,857.0588751836362,802.7908351463833,813.7696792913381,831.4405066714228
1731140957.8663948,832.085491854277,802.7683784956208,805.0150028407814,823.8498001861517
1731140957.870291,807.2325209917464,802.7470980616864,801.5728071930195,814.1847014339512
1731140957.8741872,799.7415643712295,802.7269550591112,804.7457074966751,806.9435996594361
1731140957.875973,812.1801425211953,802.7079100649354,812.1456232827129,804.2606380972535
1731140957.8765907,831.0366738854127,802.6899230380076,818.9899586651635,803.2536905468417
1731140957.8780837,838.3834715259005,802.6729533363751,820.9802859549201,798.4767994731081
1731140957.8806098,827.0102944344269,802.6569597337005,817.0118114806179,787.6731258792958
1731140957.8819797,806.6474997059224,802.6419004388395,809.8951942645224,775.1807343996743
1731140957.885876,795.9601658676015,802.6277331241507,804.4645752742671,769.1817251199249
1731140957.8897722,806.6685563718482,802.6144149633285,804.2807093635583,774.7218282436066
1731140957.8936684,833.1096973146637,802.6019026672769,809.2776262060422,788.6948782137863
1731140957.8948784,856.4514390948539,802.5901524946738,816.0594240280016,801.6437190981959
1731140957.8962317,860.3690231253929,802.5791202201879,820.5016061882149,805.2292096920062
1731140957.8975646,844.8672936609423,802.5687610827672,820.5790103088447,799.0253387495852
1731140957.901461,826.2484503025411,802.5590297956135,817.3773658758673,790.745432827893
1731140957.9053571,823.0860291229487,802.5498807185191,813.8379493948622,789.6645402808233
1731140957.9092534,840.1019727769416,802.5412681912477,812.4600202385413,798.7552998665602
1731140957.911531,863.6017665355189,802.5331467912349,813.6792250321971,811.9835887778025
1731140957.9118536,872.3235867738674,802.5254710753401,815.8445330276256,818.8563803255391
1731140957.9131496,854.7781298172926,802.5181945318218,816.4849430912654,812.5526011481542
1731140957.9137836,818.9406737307223,802.5112682540057,813.8471876941821,795.3272269624257
1731140957.9170458,786.3832630019759,802.5046409305959,807.8191703590317,777.0782085106702
1731140957.920942,775.4550757608466,802.4982619497756,799.9446513029094,768.1763759079145
1731140957.9248383,787.0771829435699,802.4920872721364,792.7211194601243,772.0500089459816
1731140957.9274757,804.8222780549604,802.4860832452682,788.5418341994804,783.2560352072243
1731140957.9287343,809.3031628017126,802.4802201220334,788.6539745624394,792.4733972456227
1731140957.9326308,794.8958083377546,802.4744510846829,792.5357388768522,794.3087038235899
1731140957.932689,774.7298212973774,802.4686880788462,798.0715003007441,791.5610635820228
1731140957.936527,769.6719949422741,802.4628053944724,802.6037377399294,792.5178598641435
1731140957.9404233,790.3830368613307,802.456702634738,804.3705148006072,803.4748478725442
1731140957.9430976,827.2070386799338,802.4504143553954,803.4243631447189,822.4640729104672
1731140957.9443195,856.2465673156928,802.444168942893,801.3636234895985,839.3209506894817
1731140957.9464712,857.0778310590181,802.4382438454836,800.050935904679,842.4994086647635
1731140957.9482155,828.449792452645,802.4325575060782,800.2791825093774,827.8592302830699
1731140957.951594,789.7530534408365,802.4262419779675,801.3848920942785,802.7024414325011
1731140957.952112,766.7891302371312,802.4177919554111,802.049179656082,781.358748734623
1731140957.9560082,772.4865855955678,802.4063383416872,801.5814629613944,774.9725972289906
1731140957.9587195,797.5162542301216,802.3936870385088,800.5979111920532,783.1992160955376
1731140957.9599044,818.3766895530697,802.3851751837933,800.4889817214091,794.7079839274298
1731140957.963801,816.6147910080113,802.3865341442875,802.0745711095478,796.4932881901503
1731140957.967697,793.6007590281923,802.3960305773093,804.6056476425505,784.465519590797
1731140957.9704995,768.8003987867401,802.3970715155651,806.116917171088,766.4718068373888
1731140957.9715931,763.1677044834299,802.3627166076396,805.0437265560404,755.3361348926037
1731140957.9743414,781.5453934063469,802.2815721413338,801.8109937448883,758.0430088302458
1731140957.9754894,808.5067757035685,802.1965230576754,798.915679840722,770.2362331774916
1731140957.9793856,820.7972814468152,802.2200462646751,799.2244966231834,780.3690369884429
1731140957.9814117,806.063383607899,802.4780508364101,803.8035282773938,779.6593019411439
1731140957.983282,772.7507046088868,802.9661257322695,811.0479499006747,769.410998168706
1731140957.987178,743.3894061461616,803.3949982173143,817.723053989681,759.7369051198114
1731140957.989405,736.8365305718881,803.2226961190441,820.9465118558523,760.9137089053269
1731140957.9899633,753.7897273804668,802.0499921414805,819.6586196680697,774.6051519828688
1731140957.9910743,777.1546094903446,800.2198640725567,814.9213776590351,792.2247032095928
1731140957.9949706,786.7714640501316,799.0285113203,809.3166134378197,801.7944468086578
1731140957.9988668,776.1921590043655,800.0189836630118,805.8999237472265,797.6010741091023
1731140958.002763,757.4132052180026,803.6265264676155,806.9556420083779,784.6182335897477
1731140958.0055854,749.602932642048,808.3087316315235,812.9015024269129,774.1272905866304
1731140958.0066593,761.6049348210223,811.1959330358518,821.9748628259314,774.4506122345987
1731140958.00831,783.4548743799078,810.0478305879668,831.0841555074137,784.6768975590902
1731140958.0105555,794.4339057584951,804.9924163588964,837.3766539758657,796.3443625770063
1731140958.0144515,780.9999121169973,798.5246207034919,839.493901898239,801.1168325828706
1731140958.0163517,749.4640486360339,793.7219099925657,837.7951041153166,797.7133557096901
1731140958.018348,722.5245724545874,792.2272310893419,833.6759746112257,792.5237314628836
1731140958.021207,722.0532016688941,793.6737890571517,828.6690235433355,793.9391917638277
1731140958.0222442,751.9196866684706,796.7449017142283,823.9155909450727,805.5018845173787
1731140958.0261405,794.8115238797034,800.5040260890319,820.1438192545809,823.4766460116468
1731140958.0272152,825.6729655127401,804.6047643046963,817.9095717542805,840.3284280475419
1731140958.0300367,830.754154826394,808.4420555595783,817.7327401537052,850.5888605740125
1731140958.0339327,816.7322050903855,810.566492270052,819.8754163622384,854.0087803303082
1731140958.0368292,802.8869223315812,809.3486392325567,823.838700522696,853.8405950561903
1731140958.0378292,803.6052831432185,804.3826418084899,828.0535717721947,852.5744312820503
1731140958.0417254,816.2368631306847,797.1823779802014,830.3158901328565,849.3135691766181
1731140958.0456216,824.1780108727298,790.3721788352578,828.9895334573579,840.9479065970213
1731140958.0461206,812.0528342617826,786.0471299073297,824.2209137919391,825.7960996094694
1731140958.049518,780.1875370248206,784.7046623276167,818.1557470525187,806.5653648851262
1731140958.051292,746.5666144777389,785.4821314935589,813.7928950909711,790.208989512164
1731140958.0524511,734.4063826488933,787.1873704331334,813.1435439528884,784.3925736550343
1731140958.053414,754.5240633660078,789.0429784993429,815.9270061505803,792.4902007982747
1731140958.0573103,795.9959608010087,790.6131874617719,819.7197819158207,810.4085517464981
1731140958.0612066,832.976296084715,791.3546646705593,821.5371719080541,828.0514004064115
1731140958.0650258,843.386143359326,790.6006699145493,819.856052975081,835.3516333908233
1731140958.0651028,825.3046145419626,788.201048909772,815.6752695200873,829.0186660890257
1731140958.0680733,797.7812882454509,785.1489137391197,811.7275548374939,814.7473821532378
1731140958.0689993,784.9400523040016,783.3233047139477,810.262584653259,802.6495906800328
1731140958.0728953,796.1697604776867,784.2734059838373,811.0738150818012,799.2097924656942
1731140958.0767915,818.8387777934439,787.9981443373018,811.5145906573213,802.3488102868938
1731140958.0806878,829.6344068835633,792.8335271175492,808.7599897452197,803.872346682925
1731140958.0836952,814.9280481959871,796.5987918621148,802.5778214521193,797.3049236119597
1731140958.0839312,783.0095601539804,798.0152454846859,796.1733736906358,784.3184692756469
1731140958.084584,757.954375849324,797.2501140558996,794.1070390115367,774.0039617368074
1731140958.0862322,760.1644128690529,795.358521982392,798.7707618575457,775.3384353339744
1731140958.0884802,789.5498470130652,793.3878184317218,808.3039164122813,789.1933390939931
1731140958.0923765,825.2225311565885,791.991020993135,817.8007547783868,806.953961158794
1731140958.0962727,842.1924019381618,791.6363824343788,822.9251574870424,817.3817352804698
1731140958.0993173,831.4902274942543,792.8154657354476,822.9231923298107,816.0958143675044
1731140958.1001687,806.964138156911,795.7661584250435,820.5052185035428,809.3378611633458
1731140958.1028366,792.9283450988162,799.9347572488064,818.8795501592467,808.3638331865884
1731140958.1040652,803.102322205409,803.8571883042889,818.798359716045,819.0716465134437
1731140958.1079614,828.82896372454,805.8112872071664,818.338674895392,835.8847383526384
1731140958.1118577,846.5560795968983,804.8364022683339,815.4150591458064,845.3695274236737
1731140958.114939,837.9669138218047,801.3383401162298,810.4076150495666,836.7621648356329
1731140958.115754,805.576682749511,796.8368801474179,806.3312660005219,810.8644595688642
1731140958.11965,770.9982466016918,793.0619528069843,806.4764063136633,780.2960075847507
1731140958.1211724,757.886668638761,790.9910124168696,811.8038291748609,761.0632583556884
1731140958.1217418,773.7747426861499,790.3833643528269,820.3437728734089,761.8922257084976
1731140958.1235464,805.0527707417908,790.071041265657,828.7747839514391,778.9975334025698
1731140958.1274426,828.36580987175,788.8539848677632,834.5061945843648,799.6142720213678
1731140958.1305609,828.9447170289222,786.4442811713157,836.6179864779295,811.2405548332144
1731140958.1313388,811.3916125478677,783.781753989962,835.4576837630115,809.6665860271997
1731140958.1352353,794.6409038161606,782.4399299737487,831.8470529664008,800.1591616594453
1731140958.1391313,795.5057770052581,783.5573972971704,826.7197781052092,791.6574537140897
1731140958.1406472,814.5214945138118,787.140592061447,821.1380181021336,789.2751852943062
1731140958.1430275,835.9142917598539,792.2526404645598,816.1650190911282,791.3407670867213
1731140958.146183,841.6215458699239,797.8125098145009,812.4156597726302,792.868444513417
1731140958.1469238,827.3058138975127,803.2389895736129,809.692697290728,791.6116724563669
1731140958.15082,806.5801592833515,808.4251723929567,807.1971004244219,790.790963786916
1731140958.1547165,799.7114570281643,813.2102049693922,804.2640146725325,795.874091916735
1731140958.156113,816.2309858719996,816.953270725742,800.9897113702499,808.323394575773
1731140958.1586125,846.0275671949063,818.6694168355585,798.1423929621427,822.1627190171545
1731140958.1595523,866.5674393127458,817.6787094457837,796.4553236342257,827.1253754601048
1731140958.161805,860.7916789959828,814.2899283774077,796.0326061908445,816.7042723330356
1731140958.1625087,831.4560001865901,809.9599925650981,796.3922230446157,794.8715099955588
1731140958.166405,800.0542166569334,806.6727284740624,796.9368979628198,775.3338981349289
1731140958.1703012,790.4570412644125,805.8214501954681,797.3259013094539,772.5418246338963
1731140958.1741974,809.9368468136843,807.3283823539346,797.5198409449863,790.6222186549502
1731140958.1774268,843.0117779590968,809.6896011192835,797.6263477475635,819.1152414520369
1731140958.1780937,863.4835472875686,811.0096764890238,797.7466675741953,839.7383574544609
1731140958.1784575,855.105026584848,810.33461514492,797.9152679575268,839.5925980297856
1731140958.18199,824.1745244341561,808.3343255255159,798.1161107906559,820.6498294132765
1731140958.185886,794.0920602093528,806.841868537634,798.3213690206545,798.0091588278628
1731140958.1897824,786.6407907463602,807.5610193043177,798.5154879991962,788.2714926056683
1731140958.191053,805.1479183436202,810.8197304212664,798.6978772757936,797.1536742482839
1731140958.1930487,832.6215497171901,815.2114651948301,798.8747236164215,815.8476281878965
1731140958.1936786,845.757256263553,818.3755341058878,799.0512397772135,828.5256315058361
1731140958.197363,833.3475942166176,818.4013018654448,799.2289426435602,824.6799020672339
1731140958.1975749,804.5363643310604,814.9021516493772,799.4067935578746,806.5075213467112
1731140958.201471,780.606968802301,809.0427693393215,799.5832861710136,785.8331415753189
1731140958.205367,777.1886103332239,802.612763677105,799.7576368756143,773.6351485662973
1731140958.2086706,791.5974109176223,796.9829514126511,799.9298453050642,771.2587305921422
1731140958.2092636,805.8970566797351,792.7631998759863,800.1002309094088,770.7963610338363
1731140958.2131598,803.0928268482788,790.2093873125784,800.2690339607417,764.0088501100903
1731140958.2162683,782.5998948520327,789.7062331906011,800.4362947446931,751.5057681086056
1731140958.217056,761.5661173071879,791.7013835503857,800.601929920932,743.5889976605341
1731140958.2209525,760.5799186526818,796.1211265464016,800.7658471433724,751.559492142653
1731140958.2242928,785.5648029279257,801.8292009507699,800.9280019134178,776.806488165877
1731140958.2248485,821.0744601435863,806.6837759818685,801.0883864018308,807.2028275195229
1731140958.225993,841.055401515454,808.3579773909441,801.2469876929924,824.4729578491738
1731140958.2287447,828.9891181981196,805.6029322749883,801.4037612797007,817.2698824562489
1731140958.232641,791.4755987082376,799.2293480380076,801.5586513668277,789.8973392354428
1731140958.2351737,754.0409259773886,792.0198446056258,801.7116576408135,759.7020001185946
1731140958.2365372,741.829636574512,787.3392703987523,801.8628982887884,744.8069840063082
1731140958.239915,760.1787671358484,787.1979655511378,802.0125749391293,751.4213325619974
1731140958.2404337,790.7712417219021,791.1285351432584,802.1607685723524,770.4197038200826
1731140958.2443297,806.8257850642939,796.7345390952648,802.3071444929849,785.6254864234048
1731140958.248226,795.0957143721893,801.4390350452895,802.4508756309506,786.9214460123862
1731140958.2521222,766.5383722100001,804.0075049442097,802.5911836969751,777.601074781302
1731140958.2540789,746.8690783058917,804.771278632193,802.7285293988189,770.4042793886204
1731140958.2555366,755.0454974481637,804.7494660467555,802.8655817897959,776.1314136374
1731140958.2560184,787.5978331684045,804.7502779691267,803.0062647231761,794.5441640816866
1731140958.2599146,821.4957085978549,805.219230095248,803.151715979615,814.8166440700933
1731140958.2609332,832.8462372494497,806.601691114768,803.2949373087347,824.6471830623341
1731140958.2638109,816.0351019752628,809.4446743471553,803.4201736649617,820.2255242351396
1731140958.267707,787.8974152057259,813.886457421779,803.5141899924944,808.9360245282764
1731140958.2711585,773.7626279942671,819.0211438510855,803.5888122693593,802.8243516834665
1731140958.271603,786.8456713066499,822.9579343426498,803.6968375695069,808.3650251566731
1731140958.272984,817.7582041516649,823.8483244537393,803.9091736677918,820.9599820886876
1731140958.2754996,842.5917667139834,821.2060775136546,804.2343487657394,828.6307758479397
1731140958.2793958,842.7840686188631,816.3994356811248,804.5189177626818,821.8124907602564
1731140958.283292,820.3127769076139,811.7894133626487,804.4419460014016,801.2275101116113
1731140958.2867806,795.7284166182956,809.1827033551596,803.7171397836157,777.5518552645935
1731140958.2871883,790.8495845559189,808.8957276783973,802.425029904504,763.391761414744
1731140958.2910843,810.5569514397823,810.0779331648844,801.1133863751577,764.1475995908798
1731140958.2918894,838.5969742384901,811.6911730851394,800.4140066669344,774.8138370198715
1731140958.2949808,850.6711277009434,813.0781589477122,800.5306128830535,784.7872944542177
1731140958.2958734,834.1980534072746,813.8151315003929,801.1700704756371,786.6416558929732
1731140958.298877,798.9513868464632,813.4805617791073,801.9035809461685,782.05858571859
1731140958.3024025,769.9466537731953,811.902925308399,802.4891895931191,780.3242904879439
1731140958.3027732,767.8617137091945,809.5631414977347,802.9150088777246,790.3782693243875
1731140958.3066697,792.3882620646618,807.385663620053,803.2750166700908,812.5436183854355
1731140958.3105657,822.1162638652023,805.8473594799378,803.6498399782602,836.816058289802
1731140958.3107946,831.5311220603966,804.3542200709967,804.0639583115782,849.7161659602662
1731140958.314462,811.5540060531299,801.8128006860455,804.5024253576482,844.6144997587061
1731140958.3180244,776.7760688272303,798.0489264383247,804.9427022426089,827.1264156810345
1731140958.3183582,753.4244902173418,794.58105352876,805.3730883250585,810.9421463837244
1731140958.3222544,758.1092493377346,793.6822606096437,805.7938727591121,807.3720115952198
1731140958.326151,784.8639454517358,796.3897733510765,806.2103387366745,817.1009149197432
1731140958.3297,810.753932070133,801.3175342625483,806.6266367279802,830.6535630478259
1731140958.330047,814.9109641643115,805.4624212340574,807.043859271191,836.764198800938
1731140958.3308136,795.259010690374,806.3429565688417,807.4611244373544,831.5492228934686
1731140958.3336463,769.6324969820183,803.6502279346436,807.8772753668185,821.1248997416449
1731140958.3339431,760.7998874241764,799.1593412215695,808.2917827586981,815.8753774011797
1731140958.3378394,777.6984874591134,795.2261390334568,808.7047412980256,821.2955252171998
1731140958.3417354,808.0994012747116,793.2580082911726,809.1164794623994,832.9944470176787
1731140958.3456316,828.7019486826973,793.2734371382559,809.5272470278363,840.0272133166856
1731140958.3486052,824.4176204193118,794.5184557342727,809.9371299462678,833.87012230108
1731140958.3492682,800.8410922699351,796.2566526421621,810.3461135356845,815.6039695793575
1731140958.3495278,779.3698689025346,798.0233607625513,810.7541680044671,795.2835101231218
1731140958.353424,778.9577709607731,799.4558642103681,811.161292544662,783.9916430961147
1731140958.3573203,799.9024569106309,800.2727468923275,811.5675230320229,785.1946708280555
1731140958.3612163,823.4881333537189,800.5994755342211,811.9729304267634,792.5286847936559
1731140958.3648903,827.9073638393492,801.1868776976506,812.3776161728339,795.7027037266804
1731140958.3651128,807.1056294256263,803.0093452963816,812.7816831879404,789.4904133627919
1731140958.365754,776.7115932802952,806.3818144289734,813.1851657794451,778.3489186939227
1731140958.3675106,761.8834273197383,810.3685635845094,813.5879549134135,772.8345141740053
1731140958.369009,776.7224763758879,813.1418115924688,813.9898238173952,780.6153628452319
1731140958.3729053,811.9910293917659,813.1413381150603,814.3906564944599,799.3403311458533
1731140958.3768015,841.6060185349656,810.162961978945,814.7908204100102,817.4481127956171
1731140958.3805122,843.3354055602084,805.5562106920958,815.1913333645891,822.8065492017314
1731140958.3806975,817.0311599466909,801.4453715460978,815.5933075119723,812.4469817315286
1731140958.384594,784.9573922017975,799.569022357666,815.9965184434118,795.1859547661095
1731140958.3864155,773.3340235785846,800.4236608043051,816.3980182858113,784.5165574490632
1731140958.3884902,790.3227701350788,803.0559943860661,816.7928675234409,787.5081615445666
1731140958.3923864,819.16197703906,805.5170845461179,817.1787327554102,799.1530798672045
1731140958.396134,832.4088140118697,805.7826220111197,817.562795673488,806.9789760955272
1731140958.396283,815.2017023062573,802.7295748706024,817.9639972906822,801.834097696066
1731140958.400179,777.926638220731,796.6412884989065,818.4011720875247,785.6244149401062
1731140958.400694,747.9745098695867,788.9610358790796,818.8656196242965,769.7814829465832
1731140958.4040751,747.8646571846949,781.5447261872721,819.2973905457371,766.1708819703614
1731140958.4053211,777.7927698309879,775.9689751319994,819.6048370817153,777.9832482849082
1731140958.4079714,816.321848698245,773.2146558989012,819.7568608190363,797.5838225693418
1731140958.411756,837.9557896835338,773.5914107368288,819.9116125406365,812.5828929114435
1731140958.4118676,833.043010780636,776.6641976551754,820.4472753284631,815.184508814456
1731140958.415764,814.0750793554406,781.259692276417,821.7337241873058,807.5734953354898
1731140958.41966,803.783150351156,785.8434765635737,823.6745849763388,799.2892854476333
1731140958.4235563,815.3496835080524,789.2619654469606,825.4192628027055,798.9146047720743
1731140958.4242263,841.3039172779412,791.3446630463807,825.7232069175203,806.9878746679924
1731140958.427378,860.0798748416229,792.831283750921,823.8394981424437,815.9551905563035
1731140958.4274526,854.4179650840579,794.6659931564965,820.162805143397,817.0656799233548
1731140958.4313488,826.3007529789337,797.2670789754208,816.0494206963735,808.3902466332077
1731140958.435245,796.3175486192308,800.3196121643927,813.0577574937258,797.2796703776291
1731140958.4356344,787.959250108372,803.1031299849583,812.2642967900406,795.0587802493193
1731140958.4391413,809.137963367636,804.9912520969569,813.9877423989833,807.9254390010142
1731140958.443,845.3598404195523,805.7880635489122,817.7631553717257,831.1818092026608
1731140958.4430375,870.1228568644059,805.7503577413297,822.3443818395162,851.6697490847964
1731140958.4431317,864.9059028497169,805.3395888107,825.8601813513035,857.0932838265007
1731140958.4469335,833.40447109084,804.9234587580072,826.4391728664267,845.2811189630602
1731140958.45083,798.6364944761835,804.6429098737324,823.2371884135249,825.9386101386625
1731140958.4547262,784.8306919076485,804.4674318128987,817.1817599700557,813.1011280112348
1731140958.458622,798.4664186455824,804.3164681593279,810.6699780350822,814.1844968452629
1731140958.4586225,823.9227548374122,804.1397840487376,806.2112205490866,824.6302714168495
1731140958.462037,837.2776867947971,803.9320612134906,804.9569938253252,832.5125037922014
1731140958.4625187,826.5985149880788,803.7107801131234,806.248926443503,828.9368930593788
1731140958.4664147,801.6498115590907,803.4923620379762,808.4769921959812,815.254989908516
1731140958.4703112,785.0728804042902,803.2825420202821,810.4155508793056,801.2701085462471
1731140958.4705746,792.8623203478876,803.0788970451655,811.8504067658242,796.6172295913657
1731140958.4742074,820.8234568508758,802.8770267545734,813.0747376286563,803.0700603708245
1731140958.474244,848.2765942555706,802.6744446521459,813.9805571050953,814.0510698274587
1731140958.4781036,855.5105957748513,802.4710546840615,813.8519888751775,820.9852207447519
1731140958.4809422,839.978645530727,802.2678625655574,812.1518206894341,820.431466564834
1731140958.482,817.5450226851722,802.0657335259955,809.4002733497532,815.8562860373007
1731140958.485896,808.0459267375794,801.8649460876749,806.9919990808886,813.0964530199508
1731140958.4897923,818.0264181709719,801.6653668110541,805.9074132364856,814.2327994724274
1731140958.4898658,835.8875337035711,801.4667830642906,805.6443459973176,815.734296237497
1731140958.4936886,843.4603076469128,801.2690963604921,804.7114280573915,812.3962951502675
1731140958.4975848,833.172261905227,801.072335305794,802.411012174783,802.9544164829575
1731140958.4998477,815.0759326293153,800.8765822246867,800.0575066512935,791.7672555727994
1731140958.5014813,807.468198496103,800.6819064014978,800.1154623351939,784.9667543068101
1731140958.5053773,819.7075997399915,800.4883394972073,803.8536437150569,784.8525344765224
1731140958.5054877,842.650188899827,800.295884924771,809.7880506747891,787.8333268707543
1731140958.5055149,855.3085736342798,800.1045423645359,814.5836841448698,787.7750921589334
1731140958.5092735,842.3426789784528,799.9143343461288,815.7582335397032,781.7244206313153
1731140958.5131698,807.7060342973397,799.7253225667317,813.7882719509641,772.9434998151802
1731140958.517066,772.6657426644854,799.5375944976712,811.7161735106341,768.4530869855777
1731140958.5187528,759.1631429790302,799.3512045853008,812.5786167237352,772.8565495237552
1731140958.5209622,771.8756300796375,799.1660910020539,816.8787479786654,783.5303858836744
1731140958.5211098,794.0012444064467,798.9820512343712,822.2344438990127,791.5749151366027
1731140958.5248585,800.7731754672164,798.7988876020164,825.3973977189515,788.397101687408
1731140958.5287547,779.9112329162704,798.6167368789103,824.8230110649832,772.9158160142581
1731140958.5326507,742.2330194861778,798.4363503282034,821.6567278941122,753.4152252120783
1731140958.5365472,713.6913587804163,798.2588521616622,818.5424118025039,742.1834010869973
1731140958.5367315,715.2559488273471,798.0846358044685,817.5101438949785,746.8654827465582
1731140958.5376582,746.6016912663952,797.9118584631128,818.7110793110788,765.0406083587717
1731140958.5404434,786.1958992107318,797.7361893269072,820.7385198974432,786.000989486503
1731140958.540455,807.5500340455053,797.5538404967244,821.8960479607099,798.390646255763
1731140958.5443397,799.1935939998922,797.3678299151183,821.2480981117355,798.2097789123428
1731140958.548236,773.0812231071601,797.1926613933462,818.8054721186937,791.3726315516905
1731140958.552132,754.7160838969941,797.0485250522057,815.0788691907234,788.7588159871996
1731140958.5523536,762.413324930057,796.9395671147853,810.6786081141184,797.2686130949409
1731140958.5560284,792.1869284374128,796.8267461739872,806.3335545302134,813.811741275006
1731140958.5565634,820.8221858103366,796.6277399631849,803.027049759947,827.3048646251146
1731140958.5599246,825.0544808912156,796.2804957283511,801.6795641654176,827.4844422190303
1731140958.5638208,801.2745840984965,795.8642332659332,802.3483488635112,813.6023754951893
1731140958.5677173,769.4180682071506,795.6836463480661,803.7218875087194,795.829285077157
1731140958.5679755,757.5579662350335,796.1617979535155,803.7436470975256,787.8749214394337
1731140958.5716133,779.4308541475085,797.4950595183466,801.2023803924636,796.3488558521627
1731140958.575395,822.7691708172212,799.33138972314,797.0006500617093,815.1099067251815
1731140958.5754688,857.7477611293315,800.8934572612786,793.8103729270597,829.2377867522587
1731140958.5755095,859.2715428512013,801.5676245272049,794.148199682622,826.0526312636299
1731140958.5794058,826.1406073332447,801.3837395049165,798.3816333528847,805.033274340952
1731140958.583302,782.1790660192146,800.8860986328741,804.36239571511,778.769028385557
1731140958.5835977,758.003910960359,800.6058460376828,809.0179935889083,763.6147949953697
1731140958.5871985,767.4327703116387,800.7129321054564,810.5648098875228,767.0361344064372
1731140958.5910945,797.3710954685469,801.0715698620193,809.5586655130138,781.8786732192674
1731140958.594374,819.4786949545373,801.4778081483496,808.0722954640423,792.4797762159997
1731140958.5949907,813.9704455897014,801.8188191519641,807.8195905045751,787.6384129526339
1731140958.598887,785.7535436448275,802.0891669278899,808.7701771083871,769.6346179704416
1731140958.5992196,759.7239137997764,802.3322385346504,809.2889495606046,752.0211570471528
1731140958.6027832,759.6847850001494,802.585063988761,807.5955421077957,748.50596065607
1731140958.6066794,788.6860201360212,802.8587330070897,803.3150365091064,762.326666579582
1731140958.6103356,826.6412301974054,803.146238451938,797.8626491139103,784.3958005201405
1731140958.6105757,846.4402538990847,803.4371718725067,793.4036608572949,800.9670173170693
1731140958.613279,835.0916263616605,803.726170381478,791.3172984034586,804.2351676819493
1731140958.614472,803.1144613955779,804.0133960285347,791.4436261595029,797.5466620341422
1731140958.6148417,775.1833216131477,804.3012897407334,792.6351967252907,791.4619111428908
1731140958.618368,769.9262979749134,804.5917517619567,793.9864470795119,794.167988757827
1731140958.6222644,785.3612043116048,804.8852670268552,795.5923319623616,804.3134500938946
1731140958.6261606,801.8877412610191,805.1814130875624,798.2147634156813,812.4747363160909
1731140958.6300569,800.2342370622973,805.4796451423588,802.2890959230065,810.1684099301731
1731140958.6304634,779.048697821217,805.7797097906283,807.2904376136669,798.514585732628
1731140958.6321845,756.9417125585799,806.081640385132,812.0598570127412,788.5448254219182
1731140958.633953,756.9685251605505,806.3855745730377,815.7078630608497,792.2648888997693
1731140958.637849,786.5128535846243,806.6916084442958,818.1596157976455,811.7876347897791
1731140958.6417456,829.5101567125464,806.9997577559868,819.822417264413,835.874840477331
1731140958.6452758,857.7537286959824,807.3099920508339,820.7904155262917,847.2923304096112
1731140958.6456418,852.3880261754134,807.6222832452532,820.4837517181642,835.5665750226134
1731140958.6460853,818.4495012896423,807.9366322706903,818.1584517072704,805.2804466191878
1731140958.649538,780.8910806459388,808.2530633712046,813.8158410717317,773.3572164514926
1731140958.65109,765.2303868977257,808.5715912244864,808.6280482628077,757.1257038731768
1731140958.6534345,778.1327584979028,808.8921799639132,804.451212052198,762.0166846593474
1731140958.6573305,803.3215114496992,809.2147317303678,802.79133221358,778.2318955625668
1731140958.6612267,815.9680245811978,809.5391484046279,803.9646743999657,789.0168940895071
1731140958.6617074,803.6988099333059,809.8654688813523,806.9545882710654,784.050978345399
1731140958.665123,776.8427279799073,810.1939837667497,809.9699345151241,767.2070225158019
1731140958.6690192,759.4659865118624,810.5251339500738,811.3412300573008,752.5084156910273
1731140958.6699953,768.85121642569,810.8590557989949,810.2669658566963,752.0458860287532
1731140958.6729157,800.6773019246011,811.1949656339482,807.0418113127082,766.3029469206427
1731140958.6768117,832.1499555917342,811.531064431909,802.7387227635691,784.8194912900874
1731140958.6773293,840.2967629121288,811.8657907632971,798.6862391602491,795.8540907130498
1731140958.680216,820.3621644481357,812.2003887828257,796.1333927322909,796.1745127407303
1731140958.680708,789.5090655024123,812.5408025777923,796.1332647478055,792.7363594334671
1731140958.6846042,773.0635945902507,812.8952490310588,799.3188170681867,795.5447479595333
1731140958.6885004,784.4660239730299,813.2652630983982,805.3906847577259,808.4028138154019
1731140958.6889005,814.9837509483801,813.634567898009,812.6933442737077,825.4411709332901
1731140958.6923966,841.3066602266941,813.969045159584,818.5444155478217,836.0273113612333
1731140958.6929512,844.66699211953,814.2425171747667,820.5118188107672,833.738879766865
1731140958.6962929,825.8155813757702,814.4849262284953,817.927887185814,822.0201516649212
1731140958.700189,803.766446207289,814.8120465766098,812.4653205643183,811.9408053777641
1731140958.7040854,799.7424236723087,815.3673844560559,807.1482066896164,813.7362487808074
1731140958.7078056,819.8350870084487,816.1391495720976,804.3898060978918,828.7025304173103
1731140958.7079816,850.447359008459,816.7369831626808,804.503869899655,847.7784337577453
1731140958.708573,869.5173293025642,816.3514512961141,805.813444731924,857.956489324337
1731140958.7118778,863.5379310025189,814.0970806163413,806.1884064384006,851.6438317548168
1731140958.7151563,836.40258580931,809.6744846100071,804.6969160127921,831.9634131757911
1731140958.715774,804.0660904342711,803.9603140236794,802.071406020325,810.2314438816657
1731140958.7196703,781.4581277073804,799.0150439397955,799.8197245793051,797.7555454144391
1731140958.7235663,773.45017640251,797.2224635778492,798.9844212990788,798.1408777277691
1731140958.724195,775.5955664917277,799.8270550336014,799.6887858457029,805.5987714505671
1731140958.726711,780.6953760796702,805.7466005837377,801.6531613562627,810.0865050604614
1731140958.7274628,784.1679128765716,811.6527025168741,804.835473245721,805.074590730684
1731140958.731359,785.1762800626974,813.5907405805707,809.319093213674,792.0134361871098
1731140958.7352552,784.937161107375,809.2682480532243,814.5598057307113,778.3073677557666
1731140958.7391517,784.764062071632,799.5213120729542,819.0087035509447,770.737370492575
1731140958.7398171,785.183081525592,787.9627246406492,820.8724697190986,769.9234581259802
1731140958.7430477,786.0504778048399,779.0468374807448,819.5346583847027,770.5834394219635
1731140958.7456162,787.023571025642,775.7710199586005,816.2693324614241,767.3930621263883
1731140958.746944,787.8880461915566,778.3238816052381,813.3769614558048,761.1287087753846
1731140958.7500966,788.6186225323645,784.3217240670638,812.355312875993,759.0702761112843
1731140958.7508402,789.2870781206274,790.3724450684048,812.7245741401704,768.5163027047194
1731140958.7547364,789.9620907779494,793.9988599255954,812.6219289704432,788.8502374931134
1731140958.755439,790.668131054936,794.7547830208924,810.6809099516057,809.8607471591391
1731140958.758633,791.3954194106615,793.8992582248706,807.5018482625572,819.1489027530283
1731140958.762529,792.1256102945069,793.0432482941577,805.3609747840553,813.0768043046116
1731140958.7645216,792.8481858016575,792.9425770824369,806.3973032780954,801.377515650527
1731140958.7664251,793.5626067580656,793.3447482200671,810.8645557906641,800.0063888743271
1731140958.7703214,794.2729903782181,793.7311110153174,816.916142696662,817.0490039840516
1731140958.7710607,794.9829008357193,794.011205832708,821.9970205864335,843.5840071751248
1731140958.7742176,795.6934601284912,794.4894052426826,824.5635096674433,858.3082894052376
1731140958.7781138,796.4040987213687,795.3325241706235,824.7453252955793,843.3322188530949
1731140958.78201,797.1139932090102,796.2674389330673,823.7018004092266,798.7123459991831
1731140958.783427,797.8228660324106,796.8586021162255,822.5534091478564,743.9632394414753
1731140958.7850368,798.5308960288725,797.0141121884254,821.8008280755288,705.4020796307641
1731140958.7859063,799.2381680800736,797.1547472675182,821.3970178120807,699.2606652027862
1731140958.7866828,799.9442845944322,797.8837529381191,821.0991485433367,722.8928295997342
1731140958.7898026,800.6486325366774,799.4794731501515,820.7352822982864,759.2115901519948
1731140958.7936988,801.3513707920253,801.6274698631571,820.2724543618028,789.474933143345
1731140958.797595,802.0544454919203,803.5549780924973,819.7583699790125,804.4628091279072
1731140958.8014913,802.7612023343906,804.4454179232912,819.2457011242368,806.8647746938984
1731140958.802305,803.4733960502571,803.8817644555795,818.7563665623538,805.1727536790028
1731140958.8023322,804.1865667874656,802.0815098902809,818.2853688166117,805.4107461816867
1731140958.8053875,804.8883569124972,799.7871569963337,817.8192532177587,807.3545385930023
1731140958.8092835,805.5660981693089,797.8410469554266,817.3493236778061,807.1039206283351
1731140958.81318,806.2249151224077,796.6657640899989,816.874348904536,802.4345675220935
1731140958.8170762,806.9039677441222,796.0038699959315,816.3970607154027,795.681605522128
1731140958.817927,807.6647534099246,795.2068999540162,815.9201717032569,791.8439294089964
1731140958.819977,808.5314126980904,794.0037359221744,815.444674399341,794.0935529289985
1731140958.8209724,809.4061447675602,793.1680477355991,814.970184503396,800.925047632607
1731140958.8212376,810.0496552888491,794.3218254765652,814.4959500995798,807.3975674648849
1731140958.824869,810.2412654778635,798.6784875462371,814.0215184525522,809.3238407585635
1731140958.828765,810.1240706115866,805.572192824475,813.5468382598989,806.9193903917752
1731140958.8326612,810.4782902840874,812.1492828615521,813.0720495470237,804.8759733610332
1731140958.8335488,812.4284116899381,814.855727912512,812.5972613932023,808.4972388357762
1731140958.8365574,816.2532958656624,811.8035284363324,812.1224596242295,818.6196909582574
1731140958.8401427,819.8222366474606,804.1704691457745,811.6475425246458,829.4396458624192
1731140958.8404536,818.3825923454258,795.4663749336104,811.1724249622728,831.7190672808773
1731140958.84435,807.6416198518264,789.2453133560156,810.6971400349059,819.7745551309822
1731140958.848246,789.5432211314359,787.0620810906562,810.2218552221307,797.0815819702482
1731140958.8491707,775.3877160941618,788.0851337752919,809.746725339271,775.5558627338502
1731140958.8521423,779.9304772591645,790.2749029465405,809.2715979760214,768.1496958482028
1731140958.854917,808.276851465777,791.8972506222925,808.795793323324,779.9008059307995
1731140958.8560386,847.6671740958974,792.2889830019268,808.318360680429,804.2683282359117
1731140958.859048,874.4858287904356,791.765528995312,807.8390624188414,827.7576974977547
1731140958.8599348,872.5517378605128,791.2260245558999,807.3596201154731,839.42526487586
1731140958.863831,847.0243815877576,791.8401029454388,806.8837629553917,838.0174730049727
1731140958.8647926,821.0403581221815,794.6875091731641,806.4144222691951,831.3786374825736
1731140958.8677273,816.9313350278335,800.1500880500108,805.9483656224651,828.9656628412802
1731140958.8716235,837.5977670287626,807.3466212798207,805.4726739097647,833.868823223933
1731140958.8755198,864.134737596654,814.2671558783404,804.9706273395891,840.9890207574562
1731140958.8779533,872.1252106317559,818.8376585012087,804.4409269028985,842.6311293601525
1731140958.879416,852.8322579487739,820.1962505229171,803.9200060144776,836.3293040924045
1731140958.8804147,821.1502075301053,819.0553274613815,803.4791183728902,827.8398028265439
1731140958.8833122,803.5144238847075,816.7964967776492,803.1670396211524,826.5321556211721
1731140958.8872085,816.0077929236415,814.1958791670295,802.9097296270694,837.0715911085608
1731140958.8898573,850.9531675941068,811.0357325350848,802.4563306667206,854.5549891122637
1731140958.8911047,882.8922037289984,806.8854726778127,801.5133409185852,867.4404061576444
1731140958.8950007,888.7533678526233,802.100416944687,800.1272935991985,866.1579415960919
1731140958.8960366,865.6813582011513,797.938142550284,799.1070036346839,850.5377305043057
1731140958.8968587,832.329636784723,795.7017077688179,799.9785300464249,829.9709517395733
1731140958.8988972,813.0432319635476,795.7933176609093,804.0860463859796,815.976198023417
1731140958.9027934,818.1497899054315,797.509258780404,811.2906500747331,813.0950982548709
1731140958.9066896,836.4999036903514,799.5808346724441,819.5180918761725,815.676533265028
1731140958.910586,846.104574987564,800.854772473544,825.8414979913721,813.4249811657967
1731140958.9116583,833.6439555083512,800.6357945347279,828.2368900692942,801.1538912448649
1731140958.914482,806.3662949037844,798.726215992635,826.5957866744824,784.3469192744749
1731140958.915764,786.5198114813002,795.4514371985969,822.5168546447986,775.483578106569
1731140958.9183784,793.1236676431114,791.7529849210543,818.3545191001148,783.9149832462876
1731140958.9222746,826.1318600376619,789.0993834659291,816.1139652299312,807.6099141581957
1731140958.9247975,865.6868896800665,788.9523172033092,816.586102772726,833.6014966135663
1731140958.9261708,886.6970609454868,791.9224858951328,819.0977925395447,846.8375932937421
1731140958.9272804,876.7839554632385,797.1918934209858,822.1188710709176,840.4139863190446
1731140958.9300673,843.4972769142198,802.76698111932,824.3962496691552,819.3349679893299
1731140958.9339633,806.2285847034594,806.539725679016,825.7014311832036,795.5400808522269
1731140958.9346693,781.2330461818271,807.45253455663,826.4818292680402,779.1014715400732
1731140958.9378595,772.6421307164078,805.945976500799,826.77572218928,772.8564091113138
1731140958.9417558,774.579206200622,803.445532452172,825.6384568067227,773.4647212824931
1731140958.9429023,778.9524842177144,801.3686243854388,821.9000211251429,775.9696304652772
1731140958.945652,781.0979557890381,800.3889721636199,815.5822513259993,777.3210076257644
1731140958.9495482,780.513012640297,800.3621219360892,808.4055352226817,777.0181444978706
1731140958.9534445,778.7242657802857,800.755871567371,802.7019487279435,775.9118672460268
1731140958.9535744,777.1527887102566,801.1246953456118,799.7840082715694,774.8837900157827
1731140958.9573407,776.2786235756222,801.3070581298988,799.3174685796149,774.2719417548543
1731140958.9585245,775.8748971165653,801.3541287973095,800.0246114710368,773.9676166917465
1731140958.9597378,775.5518581362496,801.373175379416,800.7669381690952,773.7374635146882
1731140958.961237,775.0930441677374,801.4274560962913,801.0793123712789,773.440240669979
1731140958.9651332,774.4916786721245,801.5214223719115,801.0448459755073,773.0625699917011
1731140958.9690294,773.8353565218049,801.6313416664431,800.9200253934055,772.6544569001013
1731140958.9724798,773.1975329309424,801.7361478146532,800.8722302108401,772.2619861982957
1731140958.9729257,772.5997250980683,801.8290605714366,800.9248579533877,771.9008477261596
1731140958.9741464,772.0277213846699,801.913662038716,801.0244398305038,771.5639504528999
1731140958.976822,771.4608749148634,801.9957383387584,801.1177574258882,771.2389300222134
1731140958.980718,770.8887172040415,802.0783968777005,801.1849113075053,770.9189691265311
1731140958.9846144,770.3117408088817,802.1616418382455,801.2327418292319,770.6039825486014
1731140958.9885106,769.7348884211159,802.2441309725061,801.2753021799227,770.2969202207142
1731140958.9897685,769.1619752813111,802.3247722005807,801.3209617096867,770.0002818526674
1731140958.991385,768.593997870292,802.4032537367973,801.3704155777401,769.7149002717462
1731140958.9924068,768.0301698496604,802.479784607955,801.4206252658205,769.4404601082698
1731140958.994678,767.4694829529478,802.5546579520958,801.4688459868869,769.1764382409393
1731140958.996303,766.9115181521577,802.6280110101554,801.5141749435343,768.9226378272888
1731140959.0001993,766.35642764197,802.6998195307572,801.5570665817826,768.679213896225
1731140959.0040956,765.8045716965192,802.7699962464153,801.5982769031717,768.4464644244888
1731140959.0053902,765.2562343537854,802.8384724338052,801.6382220100535,768.2246513100336
1731140959.0079918,764.7115511084979,802.9052214443647,801.6769155086417,768.0139462729244
1731140959.0102904,764.1705731897096,802.9702432432991,801.714193838768,767.8144642480005
1731140959.011888,763.6333497955959,803.0335426037245,801.7499245750661,767.6263129459056
1731140959.0157845,763.0999649077771,803.0951180920898,801.7840772648517,767.4496172787046
1731140959.0196805,762.5705296418007,803.1549606221578,801.8166909318473,767.2845168896099
1731140959.021012,762.0451606960239,803.2130536195197,801.8478174808542,767.1311546346485
1731140959.0235767,761.5239715728019,803.269371941095,801.8774901068375,766.9896720351325
1731140959.027473,761.0070836227865,803.3238854253814,801.9057221693339,766.860215083483
1731140959.0291955,760.4946429400185,803.3765748962646,801.9325198286009,766.7429407101423
1731140959.0296185,759.9868164937188,803.4274568257828,801.9578926846712,766.6380085821578
1731140959.0313692,759.483748013198,803.4765917280796,801.9818569634705,766.5455515504763
1731140959.0352654,758.985490467634,803.5240407847418,802.0044336452087,766.4656428775398
1731140959.0366342,758.4919860218123,803.5697639463087,802.0256457166878,766.3983059372368
1731140959.0391617,758.0031859028683,803.6135298333564,802.0455166811547,766.3436088636447
1731140959.043058,757.5193200509333,803.6549844207875,802.064070078553,766.30181829973
1731140959.0469542,757.0411218163954,803.6939896559782,802.0813290591906,766.2734661325261
1731140959.0481007,756.5696207764156,803.7310979882774,802.0973160338241,766.2591162189917
1731140959.0508504,756.1052319026415,803.7676532511651,802.1120537469076,766.2587720650353
1731140959.052256,755.6465318342534,803.8048755157957,802.1255689657846,766.2713101562728
1731140959.0547466,755.1900860546671,803.8419124437207,802.1378972559722,766.29479658021
1731140959.0586429,754.7329720064737,803.8743189920486,802.149083243233,766.3283981123185
1731140959.062539,754.2779062079201,803.8957440342006,802.1591697390081,766.3752244061545
1731140959.0645585,753.8369760613602,803.9046269953072,802.1681765786425,766.4432044175007
1731140959.066435,753.4267002350481,803.9128181276329,802.1760862250512,766.5401150571728
1731140959.067006,753.0500951942221,803.9461506769825,802.182866042887,766.6622314097647
1731140959.067878,752.6745810008961,804.0254807948576,802.1885435098734,766.7846364420068
1731140959.0703316,752.232326336399,804.1299200358399,802.1932952248749,766.8694790643681
1731140959.0742278,751.6723017503234,804.172311173514,802.1974385685311,766.9039880791022
1731140959.078124,751.0569780163016,804.0395288547259,802.201208939332,766.952463937048
1731140959.0820203,750.6223658151353,803.727134361481,802.2043618904739,767.1652428743552
1731140959.0835,750.6656207386592,803.5043286744054,802.205946203629,767.6746257903144
1731140959.0859115,751.1952687222521,803.9296833496156,802.2048044754185,768.3794259665818
1731140959.0859165,751.5388800134808,805.5586019889973,802.2010385266791,768.7845460947167
1731140959.0898128,750.4259300436058,808.4565751937575,802.1975891862487,768.2047423334938
1731140959.093709,747.0676282980622,811.9121045873976,802.1997855904299,766.5285588335051
1731140959.0976052,743.0230465490149,814.6194829369477,802.2108256322076,765.2029479652474
1731140959.099122,743.2942900148504,815.226941130883,802.2243601611145,767.3859912306799
1731140959.0994987,754.38195704881,813.0122724925176,802.2211195047723,776.2067433715818
1731140959.1015017,778.8671037663216,808.4643103455645,802.1798495117968,791.6507807599203
1731140959.104817,810.3888579916111,803.3858376142347,802.1056445288034,808.8426723015604
1731140959.1053977,835.1944894055631,800.1101708423821,802.0575768714558,820.4430155139337
1731140959.109294,841.8206823476515,800.0125639664936,802.1345538546781,822.2537636047435
1731140959.1131902,831.6476613903818,802.3272093137268,802.3846389465486,817.3379448884829
1731140959.114744,819.8350453368259,804.3714829397044,802.6684046209414,814.4759402701304
1731140959.1170864,823.728972212539,803.2627209251524,802.6148300696326,821.5801820239411
1731140959.1209826,847.7065423854839,797.9384127490994,801.8592298026879,839.2820187763731
1731140959.123722,877.9202440719764,789.9805815904862,800.5994937622246,860.0549431513098
1731140959.124879,892.6185574464662,782.6764830176039,800.1089973911801,873.8137192218193
1731140959.1287751,880.2625403135646,779.0327630138393,802.4791043328111,875.6830181404384
1731140959.1303658,850.4334733103013,780.0729013006733,809.1774591494881,869.8327742583743
1731140959.1326714,827.9537383093901,784.4433834365188,819.3057533990326,866.3122496631934
1731140959.134439,834.2359459863576,789.4968992339233,829.4171524874466,873.2567644184699
1731140959.1365676,870.4036316851583,793.0388640972185,835.5630415253767,890.4404721623769
1731140959.1404638,915.646704156473,794.4336785468147,835.8676918692787,909.1340033845763
1731140959.1426277,942.4347007613708,794.3913582015191,831.4175310732169,918.4184344416612
1731140959.14436,936.9299445394098,793.975629946925,825.0277433270915,913.2027833004897
1731140959.1459875,908.69893755212,793.8309545451873,819.1862881209098,897.8849251817594
1731140959.1482563,882.1566054248372,794.049253940114,814.7535385571598,882.8697519740563
1731140959.1521523,876.7156690680141,794.437392779733,811.1555500887464,876.61840180223
1731140959.1560488,891.6824542013466,794.803604654048,807.6484933971575,879.4228681179014
1731140959.159945,907.944620705661,795.0775859600033,804.480136156851,883.8124580147947
1731140959.1615326,904.635369629079,795.2855181565259,802.9374376096157,881.219820054535
1731140959.1616096,876.8404458170592,795.4788164379739,804.2428050262449,869.4659608974365
1731140959.1638412,839.9918230707422,795.687663387121,808.2673091274693,854.9604772979794
1731140959.1677375,817.724031849555,795.9142796844488,813.2200337773739,847.7966022857911
1731140959.1693792,823.2319522080662,796.1474957703862,816.6790591295761,853.6293764266908
1731140959.1716335,849.105771471686,796.3773795770486,817.2139560170588,868.8275948713806
1731140959.17553,873.6883323528625,796.6007500446891,815.3448699376337,882.8909846537811
1731140959.1772318,878.733713561945,796.8193284766634,813.1051742969823,886.4179644097346
1731140959.1794262,863.9427139973395,797.0358807521318,812.5705751118273,878.3834946462288
1731140959.180438,846.3389800636417,797.2519069628457,814.473476946389,866.8357728538465
1731140959.1833224,844.9193178582922,797.4674406221599,817.8672956258386,862.3379139520406
1731140959.187219,863.5186105569016,797.681880560155,820.9590755500996,869.4514858446971
1731140959.191115,886.648983928505,797.8947458176195,822.4131532303375,883.2131043823292
1731140959.1928537,892.1852655128993,798.1059226240169,822.2202582254599,893.3421287646618
1731140959.1950111,870.325197599776,798.3155353723396,821.6461774878388,892.4643328213347
1731140959.1989074,832.8400157866107,798.5237375782622,822.3991845951117,881.5721303218324
1731140959.1993432,804.8528776604606,798.7306087255075,825.5524323197674,868.6797847190142
1731140959.2028036,805.8056099266211,798.936176883522,830.7975747348376,862.3411045744467
1731140959.2043197,834.669912924142,799.1404883592228,836.4092556311787,865.3950077992246
1731140959.2066998,870.6506048216935,799.3436305680195,839.9903869222633,873.4806372728832
1731140959.2084756,888.5719843657793,799.5456599917967,839.6933667795338,878.9384116994714
1731140959.210596,877.2754319587606,799.7464756240909,835.284772594486,876.8775377623512
1731140959.2144923,847.2955096291934,799.9457788407068,828.3810497337303,868.8274415711342
1731140959.2182486,822.0980346524249,800.1432897636229,821.6000104043658,861.172147957967
1731140959.2183886,819.6423422635313,800.3392308912029,817.0849659257939,859.4743023903105
1731140959.2222848,838.6942286079487,800.5347186863669,815.370753860894,863.2585687375112
1731140959.2240975,860.7184760271589,800.7313694952624,815.390379361507,865.8908114667681
1731140959.226181,865.5895241431965,800.9296532452552,815.5618852457114,860.114734388613
1731140959.2300773,848.0198802391178,801.1267302586625,815.0048097983876,844.6888102181415
1731140959.2339735,821.2660391088077,801.3162315748356,813.8714632700853,826.1913599422501
1731140959.2371538,805.620531545444,801.4928802142928,812.695787388586,814.1386562837323
1731140959.2378695,811.8120583386086,801.6616571056269,811.6563073980653,813.4881188466005
1731140959.2392595,833.029409635208,801.8442177437043,810.6304952151739,820.8581822573542
1731140959.2397194,851.501003531628,802.0695921049066,809.8941838363063,827.4668697153593
1731140959.241766,853.5187202455064,802.3418616772218,810.4743708966482,826.1184534957598
1731140959.2456622,840.2861802815434,802.6013316920108,813.4978274495032,816.4532900295173
1731140959.2495584,825.7854233704786,802.7272315593345,819.0291264745237,804.38263945961
1731140959.2534547,823.7276449183196,802.6337775041972,825.555719162296,796.4822322673494
1731140959.2553415,834.8568587110758,802.4458643089235,830.7197583139379,794.2105292662994
1731140959.2560592,845.7481997783087,802.61096579268,832.7536967154781,792.9207171454101
1731140959.2573507,840.5437317826941,803.7194909413454,831.5338853258455,786.5735124563039
1731140959.2612472,815.7655293174286,805.9681016902925,828.5957833232162,774.0491277150403
1731140959.2651434,785.2044677199898,808.6535788481576,826.2147262135186,761.2845930927199
1731140959.2690396,769.9459909937232,810.3391553460328,826.0885332501585,756.8654737597341
1731140959.2709634,781.1962890731638,809.7929355714734,828.2543412246059,764.4898875541071
1731140959.272936,809.9825974880956,806.9157311569928,830.8477976284705,778.8046864645104
1731140959.2742,832.6100407832394,802.8296416753908,831.0430202602695,788.5781870228171
1731140959.2749643,828.2974671194643,799.1659969474365,826.8086504867182,785.0767349882535
1731140959.276832,795.5959715843514,797.2426158656369,818.3548822888889,769.0260096953086
1731140959.2807283,754.5555478020307,797.6388743944458,808.1336491392286,750.426212529101
1731140959.2846246,732.1691469512954,800.1610007146438,799.2845998456596,741.1032533053509
1731140959.286585,741.8438988169713,803.9880590064777,793.6980626573281,745.7609824601521
1731140959.2885208,773.1310497736295,807.92870194006,791.1798822750803,758.6443262199164
1731140959.292417,800.3408949801156,810.813684209475,790.2201592167697,768.4673418732932
1731140959.2938695,803.3092605464225,811.9108101259808,789.5282034466965,767.5657962854531
1731140959.2963133,783.2642348914873,811.1042357625316,789.0022063207253,757.833025319785
1731140959.3002095,760.7000762459792,808.721075151477,789.4494671195287,748.6909877413763
1731140959.3022072,757.3301567642496,805.2371420171155,791.4747323115649,748.8920045343231
1731140959.3041058,777.5509571043577,801.231853363084,794.6125353469386,758.9883148783854
1731140959.308002,804.9637636731012,797.638914668427,797.5328079188272,770.7226737164192
1731140959.3091402,816.5101063157299,795.8598896407134,799.1853812747313,773.8207555467004
1731140959.3118982,801.9664446497901,797.2621180794516,799.8316400968139,764.4653700187021
1731140959.312775,772.3368708248971,802.1586694505288,800.9075353948268,748.3292400820332
1731140959.3157945,750.2653507773776,809.0554075296241,803.7224224056149,735.6622549612873
1731140959.3178294,750.7577649522339,815.009321536621,808.1788302243807,732.6596125209514
1731140959.3196907,768.6608485298082,817.1602582215645,812.7561999270379,736.4615616575729
1731140959.3235867,783.6388444177479,814.4766734734674,815.7694447066157,738.0209250903671
1731140959.3274832,778.4073102418964,808.4316440569568,816.6480014016835,730.3951115186528
1731140959.3313794,754.4290748305219,802.0888038333145,816.0397672511334,715.4357227470698
1731140959.3316803,731.3363497497545,798.3015936153523,814.8236652544216,703.1567903710517
1731140959.3334513,730.3790365607141,798.3068378170263,813.1776933855173,704.052047761554
1731140959.3352757,755.9087880114314,801.468995016566,810.6117573914248,720.3491422043285
1731140959.339172,790.4987394370565,805.9577722701354,806.7679952831365,743.1711139899015
1731140959.343068,807.865468517376,809.6841156522132,802.0905065263089,758.192653949295
1731140959.3440804,793.2857101635863,811.0800527739995,797.7830105395092,755.9449237428202
1731140959.3469644,755.3930378331995,809.679858155864,795.2321437040084,739.1558990198179
1731140959.3490732,720.1343808323186,806.4285705958614,795.3944629253024,721.2898699470647
1731140959.3505857,711.4049478231444,803.4077523152471,798.3907961360426,716.7844172388384
1731140959.3508606,733.0474744554424,802.7837172059857,803.2946686876061,729.9780270333365
1731140959.3547568,766.1147302314023,805.3869006539171,808.2073119700225,751.3618714524197
1731140959.3586533,783.8706785869205,809.8898222891847,810.8604812319127,764.6275295451969
1731140959.3625493,773.0142059464689,813.3896428794121,809.734303656002,759.3983304842238
1731140959.3646953,744.0677835907402,813.2315131895182,805.1418763995952,739.5117443274205
1731140959.3664455,722.2475978655489,808.8416790597913,799.4620375396606,720.0438350649009
1731140959.3694909,726.2913706775171,802.1452889479407,796.0458963583153,715.5113678837889
1731140959.3703418,752.9356193609738,796.1656543835496,797.1701554669962,728.891953372136
1731140959.374238,779.9352685904857,792.887719824351,802.2853121777265,750.1177022182547
1731140959.3781345,784.8545792142118,792.1029881762086,808.0012061514188,764.6933176515163
1731140959.3790207,763.829961049112,792.0873116551804,810.2516910724755,765.0278260038606
1731140959.380317,734.8664768016026,791.3543097713039,807.3161886627065,755.416589694747
1731140959.3820305,723.1714539425953,789.8730056353924,801.320210864995,747.2330694740178
1731140959.3859267,740.6551218247303,788.7928544590668,796.7564508068191,748.8890783419265
1731140959.388396,776.3233755548847,789.1685723223071,797.0155611343054,759.0600348222904
1731140959.389823,805.3834572991228,791.008669137396,801.7732478863718,768.615740808306
1731140959.3937192,809.6301232189777,793.4714212009029,807.4744716985304,769.315745021619
1731140959.395939,792.3230178856408,795.80916960003,810.4505351910609,761.6749966057954
1731140959.3976154,775.1369788362771,797.972074433564,809.8816552898813,755.1316451401948
1731140959.4015117,779.625449749624,800.2658072484876,808.0820847422905,760.1998433041533
1731140959.405408,808.6839304170624,802.537837273195,808.1180570782144,779.184094640082
1731140959.4073014,843.5627194946547,803.8979184938952,811.0879410860535,803.380786960203
1731140959.409304,858.9354117208491,803.4279127987847,815.4113468007257,819.319097711257
1731140959.411561,843.5366526110665,801.2732950184139,818.4427390405403,819.073651581834
1731140959.4132004,809.4567253467045,798.9951609659507,818.69952703627,806.3116010311875
1731140959.4139607,782.6066050234325,798.6421531264413,816.7252986339807,793.213768560749
1731140959.4170966,782.157381395184,801.1962391993593,814.0766823549488,790.812594987574
1731140959.4209929,805.6267942080628,805.7336385885718,811.6322939359851,800.5885182524788
1731140959.424889,831.6998405810778,810.0855931501612,808.8733771137987,814.0175767553699
1731140959.4262068,838.3782551021418,812.4370945916196,804.7352513641637,820.0832166506348
1731140959.427183,821.3141767409619,812.4696691894333,799.1430649734888,814.1940473778111
1731140959.428785,796.8942515329858,811.1576146101307,793.741814948335,801.1079604279998
1731140959.4326816,787.4443125569221,809.6134605623399,791.0554797112915,789.9200680983822
1731140959.4365778,801.2261280907886,808.1499482999054,792.6882508231217,785.953690433376
1731140959.440474,824.5116418533696,806.3339413101203,798.0476728694541,786.6077142017386
1731140959.4428048,832.7366656957144,803.801993995011,804.6775466244269,784.3133929245936
1731140959.4443705,811.4124190167804,800.9873944953551,809.9209718696488,773.5783609504764
1731140959.445112,769.2605354885042,799.1118536934677,812.5059652861827,756.0341861024225
1731140959.4482665,732.6687695114359,799.4679581775686,812.8588234749706,739.5700424191035
1731140959.4489012,725.8810755770585,802.541545753314,812.2313983864293,732.5747117199107
1731140959.4521627,752.5731331445184,807.5698745995871,811.6555884171448,737.8653166617349
1731140959.456059,793.1257211814459,812.7906976471346,811.5041394189244,750.755417710394
1731140959.4584267,819.6084125691623,816.2051536866248,811.6596225447935,762.5402211257378
1731140959.4599552,816.8006351059734,816.4253099147576,811.875754825585,766.8164248169381
1731140959.4638517,792.9137359472171,813.2183752680728,812.0074987973607,764.0237681329578
1731140959.4640174,771.7867576919182,807.5958594058771,812.044845177484,760.8239232232607
1731140959.4677477,773.0824060327697,801.4956514342937,812.0423595948033,764.7571965014384
1731140959.471644,796.5900254657524,797.1364640960702,812.0483553935163,778.2874607387638
1731140959.4740489,823.176379741503,796.1224524289179,812.078293359089,796.8935129637599
1731140959.4755402,831.1403863044346,798.560885616387,812.1238550455766,812.6742239443128
1731140959.4794364,814.2631647683492,802.7424773269562,812.1716941989105,820.4874629087562
1731140959.4829226,786.8920054165952,805.8843569461337,812.2146361078741,821.554635271547
1731140959.4833326,772.2740915674982,805.7783696856651,812.252634558749,821.5263595590799
1731140959.4838414,783.8353600644667,802.3330988998085,812.2887287338659,824.6756490380601
1731140959.4872289,814.4775547948005,797.8015790695496,812.3253772809019,829.3606910639505
1731140959.4896708,842.3948359235239,795.3564738140051,812.3632453471023,829.0869597965892
1731140959.491125,848.7287450478935,796.9932800892927,812.4018044858854,818.7231049012051
1731140959.495021,832.8157534524886,802.3277398617347,812.4403376044112,800.5775111084021
1731140959.4989176,812.4971790700904,809.0962973933786,812.4784898892193,784.5645916671131
1731140959.501828,809.0501320624164,814.7242641776548,812.516278434967,781.5264521851352
1731140959.5028138,829.1711504237824,817.570824990698,812.5538600644051,794.9538474900811
1731140959.505293,859.1333184736789,817.0919206361161,812.5913388665442,818.1594932853737
1731140959.50671,876.0590171782553,813.3979734092928,812.6287156804049,839.3568406163708
1731140959.5106063,866.7905199449789,807.1030619624001,812.6659421015785,850.1256304749721
1731140959.5145023,838.5841730177596,799.5853914258795,812.7029972982932,850.0509745881061
1731140959.5183988,813.0030266733928,792.9218210570289,812.7399206132999,844.5410192063887
1731140959.5187814,808.4048988270173,788.9990644617203,812.776766457951,839.3077850867378
1731140959.520733,825.3651693326235,788.3688692369064,812.8134962039888,836.8289441147989
1731140959.5209146,846.4878535559908,789.9511236596916,812.8498915031919,836.5442415619931
1731140959.522295,850.5802182381628,791.9691234100438,812.8856297540498,836.87069999101
1731140959.5261912,830.2014101603372,793.278981522111,812.9206114020087,836.7531489027247
1731140959.5300877,798.8858159177711,793.8628394775715,812.955390599534,836.0156197067
1731140959.5339837,781.7607961038808,794.1378986055432,812.9912216090321,834.9678185729309
1731140959.5365367,795.919437332096,793.9890364293674,813.0291477280861,833.9340702806398
1731140959.53788,835.5628652043054,792.7310096859801,813.0681896647211,833.0422185378175
1731140959.5396383,874.2650934719939,790.1634143984708,813.1040727298314,832.2558220365062
1731140959.5417762,883.761803245583,787.546849423313,813.1310571404584,831.4906965691862
1731140959.5456724,855.2167817050107,787.1796419552503,813.148326475453,830.6948556137239
1731140959.549569,806.1269712640699,790.6087272331436,813.1676941883759,829.8627573597275
1731140959.5521586,766.9587592767233,797.0424372606594,813.2131754331793,829.0124090913943
1731140959.553465,757.9128550642389,803.5822914944132,813.3022608616079,828.1608113557753
1731140959.5537217,774.4187753604988,807.256301981771,813.4118569258133,827.3140314421607
1731140959.5573611,792.8538125288869,807.1101393860067,813.4581114072671,826.4697673025013
1731140959.5585437,791.2306826663589,804.557945496119,813.3380146717045,825.6236780979914
1731140959.5612574,767.2416296086642,801.8768998570642,813.0546911869856,824.7733777195766
1731140959.5651536,738.609252293792,800.4180926222845,812.8566248846969,823.9189274945265
1731140959.5677805,726.1285507735545,800.0920897795543,813.211098062589,823.0615153426717
1731140959.5690498,734.8615078233374,800.152006002301,814.4434143971507,822.2021811792986
1731140959.572946,750.3487435452324,800.1018144810632,816.1626399844798,821.3413615437375
1731140959.5768423,752.9744422935713,799.9112696910547,817.054140684458,820.4790752193463
1731140959.577449,737.0864638600164,799.736771555583,815.6221069552516,819.6152695566901
1731140959.5807383,717.2300575780272,799.670148001282,811.5464342681086,818.7500114668247
1731140959.5834024,715.6455283457444,799.694939406578,806.3423431901095,817.8834744790469
1731140959.5846348,742.0313039894343,799.7508981454731,802.4069802975611,817.015831366602
1731140959.588531,783.3730017837286,799.7941524046479,801.1317598147593,816.1471868300824
1731140959.588662,812.8755784023747,799.8144854073973,801.7922154942892,815.2776293339853
1731140959.5924273,810.838556624707,799.8222706475713,802.2483815586475,814.4073822768914
1731140959.5963235,780.457523398662,799.8301655346539,800.8029642891004,813.5369147976862
1731140959.5963542,745.7385697750246,799.843872705544,797.5726951294205,812.666799955728
1731140959.5990243,733.0770955824665,799.8625331820971,794.3290262222345,811.7972153811309
1731140959.6002195,750.9968510351224,799.8830014242438,793.1850925173584,810.9273562941194
1731140959.604116,784.034821163125,799.903113678621,795.3016842016999,810.055502240643
1731140959.6080122,805.6786016127601,799.9224801368244,800.425634090992,809.1805032516239
1731140959.6119084,800.1449463677403,799.9417173736249,807.2306857888834,808.3044024216962
1731140959.6146464,775.5342828213667,799.9614898374483,813.9592677461039,807.4338874165555
1731140959.6152596,757.5499306823652,799.982068128036,818.9637054190579,806.5769076560964
1731140959.615805,768.4958579751346,800.0033853877258,821.0650527067871,805.7329631713758
1731140959.619701,808.2577805130181,800.0252725523288,819.8093897667437,804.8827884976721
1731140959.6235971,852.6946594116089,800.047623484374,815.6181794116015,803.9916263779598
1731140959.6236022,871.1928083550131,800.0704267849361,809.6985048152735,803.039361576964
1731140959.6274934,849.8887831874309,800.0937204211862,803.6440813189352,802.0693469025938
1731140959.6302683,802.4293684593241,800.1175415258685,798.9063477217322,801.2097603415633
1731140959.6313896,759.8841509691991,800.1419054857067,796.4474921720104,800.600073663316
1731140959.6341648,747.8237981200226,800.1668106821949,796.6866590739485,800.203853318404
1731140959.635286,768.5267834241241,800.192251293078,799.5235815582744,799.629859787123
1731140959.639182,801.818814164516,800.2182255564294,804.2057953831176,798.2344281024351
1731140959.6430783,822.861512377444,800.2447369172911,809.1874289121305,795.735298121587
1731140959.6458902,821.7939194087118,800.2717913949456,812.4411652413291,793.1410854007711
1731140959.6469746,809.5002329638205,800.2993949668918,812.4173054669428,793.1194819151212
1731140959.6508708,806.0019206275405,800.3275525905638,809.1235746931046,798.7204797617386
1731140959.6530702,822.2619694435355,800.3562685360695,804.3867908846164,810.5675571898319
1731140959.654767,850.7003934028835,800.3855470701885,800.8438782450478,824.7532632415684
1731140959.6585424,871.671946221627,800.4153928594654,800.2898557097407,834.2027751174851
1731140959.6586633,870.0168957676005,800.4458109960427,802.6773642872146,833.5731333223539
1731140959.661512,848.030434270004,800.4768068403966,806.585397984449,824.0438250557817
1731140959.6625595,824.2702969844754,800.5083858786911,810.6864712056846,813.5408339606408
1731140959.6664555,818.8945365766604,800.540553670461,814.8211861090032,811.2957340195934
1731140959.670352,837.1547045087061,800.5733158625943,819.6723126662528,820.5548419600207
1731140959.6719754,864.6233702981727,800.6066782177281,825.4241531677471,835.4256911319569
1731140959.6742482,878.5603456163258,800.6406466256303,830.8374539966184,844.9297665871695
1731140959.677134,866.4783524330599,800.6752270945702,833.7721672409472,841.3672913547084
1731140959.6781445,836.605915830821,800.7104257337812,832.7226924285261,826.2313046681192
1731140959.6820407,811.4121042078968,800.7462487372486,827.9119199946231,808.8077197966987
1731140959.6859367,809.5192314728689,800.7827023722904,820.9804075528442,798.821148377871
1731140959.6898332,831.0571536108755,800.8197929713311,813.7544924907976,799.5103340120331
1731140959.6908808,858.3938741230637,800.8575269240988,807.4101633394039,806.8006296303276
1731140959.6927562,871.1170239679429,800.8959106687026,802.6843796866129,814.5265640899905
1731140959.6934826,862.48712710964,800.9349506815535,800.4251140942638,820.2698547046733
1731140959.6937294,843.8423349543617,800.9746534667603,801.3677601665916,826.20855616154
1731140959.6976256,833.665052487992,801.0150255455375,805.175601438413,834.4400704021137
1731140959.701522,840.7365504866523,801.0560734457871,810.0666968696615,841.7987881381929
1731140959.705418,855.8331212291024,801.0978036917646,813.8602991637374,840.0042844254368
1731140959.708378,859.4372090175619,801.1402227936911,815.4660067479512,822.0775737784422
1731140959.7093143,839.2831795934776,801.1833372372452,815.2875590382192,789.7694346308174
1731140959.709786,802.723921134254,801.2271534729516,814.4184427877224,755.1359512435288
1731140959.7132106,772.8712029261858,801.2716779055096,813.6966160194063,734.062714471775
1731140959.7171068,771.1098311121737,801.3169168830995,813.3692849989318,736.2793573702181
1731140959.7210033,800.1276982200544,801.3628766866859,813.2891428466502,759.2400119085329
1731140959.724,841.1939084464825,801.4095635193237,813.2358619071439,790.0496447199082
1731140959.7248993,867.7813484984583,801.4569834954675,813.0968620654496,813.6181523415045
1731140959.7284229,864.7989196143886,801.5051426302972,812.8766962925247,821.3597857178382
1731140959.728691,838.8079842133782,801.5540468290682,812.6275749508858,815.1982109148954
1731140959.7287955,811.8848338524872,801.6037018765034,812.3896212986272,804.9906783461414
1731140959.7326918,804.1647365205557,801.6541134262377,812.1727105169648,801.294194899821
1731140959.736588,818.5158776766134,801.7052869903305,811.9675528276856,808.0403866355924
1731140959.739622,839.2059383551859,801.7572279288556,811.7624287965976,820.0071364433959
1731140959.7404842,845.6154174385491,801.8099414395858,811.5518997530291,827.124955656692
1731140959.7443805,829.8794429919406,801.863432547783,811.3366271450718,822.6852813969592
1731140959.7475967,803.7648110217445,801.9177060961083,811.1194833995759,809.0649423251754
1731140959.7482767,788.8169101853674,801.972766734663,810.9024989045837,796.1043572695448
1731140959.7521727,797.9632278763219,802.0286189111672,810.6860760681257,793.200637511958
1731140959.7552438,824.1705126923224,802.0852668612906,810.4696690388648,801.6255104793826
1731140959.7560692,845.8477726910539,802.142714599155,810.2526688457879,813.6094007452052
1731140959.7599654,844.5382418116635,802.2009659080435,810.0348237593101,819.032510058531
1731140959.7633631,820.1809439087181,802.2600243313474,809.8161968607393,813.9995116058506
1731140959.7638617,791.3487456071564,802.3198931637562,809.5969505521845,803.9346316598901
1731140959.766502,780.2863558478638,802.3805754426407,809.3771909566666,798.6032131139947
1731140959.767758,794.9274896439282,802.4420739395539,809.1569361162501,803.4764782458044
1731140959.770866,822.4957998799748,802.5043911518394,808.9361596969752,815.0131301855372
1731140959.771654,839.9744965304433,802.5675292945273,808.7148424515451,824.011934262064
1731140959.7755504,833.0102818966752,802.6314902929021,808.4929941166274,824.1022804423844
1731140959.7794466,807.6912353213863,802.6962757760648,808.2706414565033,817.7818133828503
1731140959.7833428,785.2794608588425,802.7618870712203,808.0477969854903,814.3711129047551
1731140959.7854073,784.1725617987821,802.8283251974613,807.8244333734875,821.3692958925722
1731140959.7864878,804.221674815891,802.895590857396,807.6004943659838,836.7767190238952
1731140959.7872393,826.6235321272762,802.9636844264045,807.3759613653012,849.436708601231
1731140959.7911353,829.545181750874,803.0326059429931,807.1509479057843,847.5345359469826
1731140959.7950315,806.583417365728,803.102355107265,806.9257235822867,828.1044454545049
1731140959.7983034,772.8820796311244,803.1729312926097,806.7005426646018,799.3625021198743
1731140959.7989278,753.7793045627765,803.2443335638548,806.4752695395117,774.1257833282255
1731140959.8021097,764.9085400727577,803.3165606773914,806.2490761079916,760.6098915362287
1731140959.802824,799.564149614623,803.3896110331438,806.0207457428666,758.5228202227256
1731140959.8043125,833.5203924246324,803.4634825789595,805.7899460302782,762.223747502787
1731140959.8067205,843.7114063108186,803.5381727386268,805.5589054923166,766.2276150818542
1731140959.8106165,825.9608830178419,803.6136784955486,805.3325942976464,768.1589962966832
1731140959.8145127,797.4129609317067,803.6899967137265,805.1151663430799,768.3470336828221
1731140959.8177316,781.6618503032549,803.767124541811,804.9028890493602,768.0398750971278
1731140959.818409,788.9958184638596,803.8450594214187,804.6792212662306,768.0884707706972
1731140959.8223052,808.3242608759107,803.923798161875,804.4221721505321,768.6373085771276
1731140959.823218,817.3621772039603,804.0033351880593,804.1299288078384,769.4355996363322
1731140959.8262014,802.1545727433228,804.0836614124812,803.8529449413902,770.2188911269031
1731140959.8300977,769.4680619654938,804.1647662011565,803.6981453150662,770.8819153814936
1731140959.8332436,741.9684983035456,804.2466436823204,803.773622771667,771.4535134820187
1731140959.8333538,740.3408193153572,804.3292999917256,804.0875308381526,772.0020917178188
1731140959.833994,766.7279916670833,804.4127521692443,804.4545571858046,772.5702729566833
1731140959.83789,802.505110526778,804.4970092417274,804.4668570300537,773.1629223837265
1731140959.8417864,822.1604350367071,804.5820393681292,803.6223083259373,773.7655953515098
1731140959.842123,812.5957991687418,804.6677523268431,801.7073270096143,774.3645345520289
1731140959.8456826,782.8105699280286,804.754043164275,799.2717184047017,774.9548375842938
1731140959.8489757,756.2431793090655,804.8409146956512,797.6629935598992,775.5384341346796
1731140959.8495789,751.7519235192318,804.9286053909617,798.2281465187774,776.1189437624932
1731140959.853475,768.5297085602297,805.0175438951328,801.113209029013,776.6984053207213
1731140959.857371,787.2810121599141,805.107966334033,804.782979663034,777.2768608752191
1731140959.8610284,786.774522045714,805.1993054140089,806.9920760240938,777.8534400724955
1731140959.8612676,762.2123830606117,805.2899366666677,806.6082990086863,778.4274222593369
1731140959.8645976,730.2569909675298,805.3781244955048,804.7109503392941,778.9986133751173
1731140959.8651638,716.3390888642296,805.4643843333415,803.8599598804383,779.5671462331879
1731140959.868184,734.2226119802953,805.5537055163404,806.0232336068417,780.13309849959
1731140959.86906,774.2287351133948,805.6542185039395,810.8706520075983,780.6962684718669
1731140959.8729565,809.8924450088969,805.7695264512023,815.848080181538,781.2562919098034
1731140959.8768525,818.1827318952011,805.8874418664279,817.9427874740352,781.8130877197142
1731140959.8799336,797.274394922445,805.9767257243006,815.7268770089505,782.3673348752426
1731140959.8802197,767.4437100289225,806.0071623933202,810.2003056656306,782.9203862347088
1731140959.8807487,754.2163633612828,805.9946740716863,804.0055054082371,783.4730808279536
1731140959.884645,767.5495974380403,806.038894778553,799.7366516723642,784.0237622781032
1731140959.8885412,794.2123202678207,806.2879243590895,798.4891709964256,784.5673291498792
1731140959.8924377,809.4845524799492,806.7828835684825,799.4374641187243,785.0980470292153
1731140959.8958414,798.1342772412512,807.2425846368227,800.5509619841024,785.6170094502911
1731140959.8963337,767.189592146343,807.0028071290694,799.9816181636941,786.1395648555605
1731140959.898839,740.3481761263998,805.3406265346815,797.3469802996729,786.691871225579
1731140959.90023,739.1119475210301,802.0923560011995,794.146923350903,787.2871679363865
1731140959.903124,766.010437806744,798.0114168908096,792.9570188080255,787.8893520191406
1731140959.9041262,802.9288411588144,794.3620329603215,795.7802528325212,788.3999587087293
1731140959.9080224,825.3666381046282,792.0103430929383,802.6097880768217,788.7184945786107
1731140959.9114635,821.1359148555634,790.9100570024505,811.2612122260717,788.885649126772
1731140959.9119186,798.7858444154994,790.520812159428,818.6758290675036,789.2109179829426
1731140959.9158149,779.3535117899366,790.6942024925419,822.7785208947115,790.1777513979434
1731140959.9177442,778.5528202324723,792.0482866339353,823.5491587758612,791.9668917943043
1731140959.919711,794.3112832315473,795.3662164738992,822.6094150384524,793.7778725297825
1731140959.923607,809.8912963287531,800.5213522389339,821.7630973345758,793.6473803035037
1731140959.9270854,809.433921580725,805.9099118561791,821.6282720709675,789.6264633962761
1731140959.9275036,792.2253360426544,809.0133216547755,821.3087695841674,782.2196648027318
1731140959.9313998,773.4798000861227,807.8788753634313,819.2362828488072,776.0074053026815
1731140959.935296,771.3336914562481,802.5753293257566,814.5000649338618,777.658478381188
1731140959.9366496,791.3580155552125,795.503761044139,807.6950562569384,790.4879695422005
1731140959.9380643,821.4818256030046,790.0721119786572,800.7118501282085,810.0645299177351
1731140959.9391923,841.2722305041406,788.4717392548908,795.6714365552128,825.6622270574517
1731140959.9427073,837.9625354254205,790.2443325468654,793.8015269048,827.45652389489
1731140959.9430883,816.4437659208768,792.9458199127872,795.0074186418226,814.0259655420064
1731140959.9469848,795.218269200131,794.4622201870044,798.271561701731,793.8786615955336
1731140959.950881,791.4289396598951,794.9027724243389,802.3856491575863,779.295994989725
1731140959.9547772,807.0781088805153,796.2503905772566,806.4272709142305,777.2526230000017
1731140959.9555547,827.9056288360308,800.0878150637691,809.8277194620078,784.9109337127163
1731140959.9583292,835.967929347371,805.6448235594919,812.2986094575133,793.3221041920846
1731140959.9586737,825.2744268043202,810.1049371243868,813.8545874221641,795.7369650020016
1731140959.9625697,807.1135540467309,810.885864448569,814.8360832824321,793.0364384594095
1731140959.966466,800.4793157120753,807.7587285933548,815.6903741923448,791.7853557576474
1731140959.9703622,815.6831396616558,802.9549850164724,816.5240238416965,797.2612315544657
1731140959.9730046,844.9314580770047,799.3423054259126,816.8076785701508,808.1152246346384
1731140959.973951,867.7950811384412,798.3765907769636,815.6581963947394,817.4642445978986
1731140959.9742584,867.3038277129465,799.478910981957,812.7007143195179,819.2664479398493
1731140959.97446,843.812122406367,801.062489003514,808.9092169082177,814.1501583152218
1731140959.978155,815.3522192549651,802.058226134407,806.5701441345484,809.3284034189546
1731140959.982051,803.6657640111291,802.582894520985,808.0107457085633,812.3482861766577
1731140959.9859471,816.6662191108961,803.3511861592042,813.8025284207757,823.9488472544193
1731140959.9895732,841.6309168270004,804.5950737494722,821.9091794376034,836.4860799140364
1731140959.9898434,855.3194248120182,805.6071705322995,828.7768552520077,839.8442375633249
1731140959.9933653,843.2433776150637,805.345267023129,831.772357036797,830.0978403018551
1731140959.9937396,812.1173116162835,803.5183375049828,831.0334417267492,813.3605934278116
1731140959.9976358,784.7482741667162,801.1416030780603,829.1086351858095,801.1636053723176
1731140960.001532,781.3818294906526,800.0148064170675,828.6290004578929,801.1267725742288
1731140960.0051951,803.125268943305,801.4738162063778,830.0030008517035,810.9383322412652
1731140960.0054283,831.3210533931508,805.3527731482407,831.1330863662075,820.8142553282775
1731140960.0079448,843.2194010977082,809.9592317587135,829.4084330669867,822.2314242766436
1731140960.0093246,830.7205933675549,813.1296408946279,824.2782058278359,815.3797903015214
1731140960.0122707,806.6210792712084,813.6180925427484,818.198936995997,808.9699141681083
1731140960.0132208,793.2552230112877,811.7892591157371,815.0579513811209,812.5115249556507
1731140960.017117,802.9650260611326,809.1165442639928,817.2205690574353,827.4643895901964
1731140960.020817,826.740554660521,806.9537279514021,823.5008733324255,844.6936187110105
1731140960.0210133,840.9265787546717,805.6220756560721,829.6940652118367,850.6484059069057
1731140960.0249095,826.9764095401971,804.500626032593,831.3466829473571,837.6296019907717
1731140960.0288055,788.0188879722701,802.8675882201877,826.7377912249017,810.1092456352951
1731140960.031176,748.142648782016,800.6207632106831,817.9305599764551,782.0966913005598
1731140960.032702,734.3757337003836,798.2525865928152,809.2389152211074,767.5180207130245
1731140960.0364387,755.6477637537471,796.2490146027764,804.3032209546823,770.8472513450309
1731140960.0365982,795.6268018495017,794.618576375434,803.822136768544,784.7918707190909
1731140960.0404944,825.2087212028329,793.0490245127745,805.3950065165556,796.3801773952937
1731140960.0428853,824.8001601283262,791.4826494736304,805.4574813753993,796.6613767091967
1731140960.044391,798.8728261700178,790.4236842755856,801.93830406851,786.8265841263812
1731140960.048287,771.4758805402926,790.5549136153403,795.842051161495,776.4072597511212
1731140960.0500813,766.4875968614543,792.0141304480798,790.720225847059,775.1928196995639
1731140960.052061,788.5044285432823,794.126646713942,790.4403267178914,785.3101270596384
1731140960.0521832,819.7702415444351,795.916756660198,796.79210085159,799.8106621193053
1731140960.0560794,835.5593336991059,796.8401199290082,808.4636569177889,808.8569780273848
1731140960.0599756,825.1578285004267,797.0110079276648,821.8420372700308,808.1894848528832
1731140960.063872,800.731750780374,796.8725475947157,832.8673528723739,802.5145844230984
1731140960.067683,786.5320003025979,796.7836369750627,838.7416784358995,800.9142533594182
1731140960.067768,797.7303566752075,796.8593952669463,838.7614315938926,808.4823858223768
1731140960.068987,827.0402740609372,797.0436499580592,834.2080506109502,821.5903966988923
1731140960.0716643,850.4297329635269,797.2434635227945,827.5261583414159,830.681644484481
1731140960.0755606,846.9618383908305,797.4087390564671,821.0946663595718,827.8994355211566
1731140960.0778253,816.2065925025398,797.5392821113985,816.1170492608285,813.1689655611947
1731140960.0794568,779.0452214511371,797.6565299616661,812.3198391002546,794.1958529957353
1731140960.083305,761.3952186821778,797.777843355783,808.7325314133,780.8933688554611
1731140960.083353,774.070042264608,797.9079905514718,804.9358507429628,778.7493018242196
1731140960.0872493,804.9110268394047,798.0433509594324,801.6851768836838,785.9632613530383
1731140960.0878918,829.3566766869344,798.1789623279709,800.349130097956,796.098169172284
1731140960.0911455,830.6577032246199,798.3123879348041,801.6719043023472,803.8552589968776
1731140960.0950418,813.0295612214828,798.4438011615889,804.9390577635389,809.2743606892154
1731140960.0989268,796.8809528904402,798.5743916080409,808.2501275472844,816.9054867068163
1731140960.098938,800.347223791354,798.7050453766768,809.7238918250971,830.5757670916843
1731140960.1028342,823.0184887647017,798.8359668584635,808.7888328011704,848.2251203490592
1731140960.1067305,845.83985492856,798.9669404996142,806.6329384963561,861.6128547551348
1731140960.1067972,847.2525561193016,799.0977043929337,805.4283154830769,861.8451100662529
1731140960.1106267,821.8281682651732,799.2281414476645,806.8163477280636,846.5978416721834
1731140960.1127656,785.6803373691661,799.3582775041691,810.7427584358926,822.9609202213086
1731140960.1145227,764.0763254207365,799.4881997850221,815.5184820127093,802.9957383127266
1731140960.1145487,771.313251206577,799.6179848837911,819.0315789265346,795.0732851053206
1731140960.1184192,799.2043008444734,799.7476574294426,820.1393629408128,797.9170068452466
1731140960.1223154,823.6396286306677,799.8771699552497,819.2206701342128,802.4860916815169
1731140960.1257024,824.1213933939451,800.0064139530117,817.6557366829542,800.423224458176
1731140960.1262116,800.4317281997492,800.135296626769,816.8263351387591,791.9487976380576
1731140960.130108,772.5840176374927,800.2638867113194,817.3667833959071,786.0845323617156
1731140960.1301708,763.8817848759815,800.3925273975215,818.9419859095952,792.4950933606209
1731140960.134004,781.1910834384953,800.5217114307125,820.4377344522843,811.7663487245262
1731140960.1379004,809.0782939159353,800.6515788485057,820.4420745342394,832.7868945158255
1731140960.1417966,822.7138989660273,800.7812611508606,817.9485946103196,840.0694461582534
1731140960.1446078,808.532039597922,800.90881933041,812.99994994488,825.3603018812775
1731140960.1456928,775.4056164007746,801.0326542846137,806.7768692317206,794.2295201310214
1731140960.1457927,747.4779688195114,801.1542939307469,800.9039871852303,762.4998015486477
1731140960.1477058,744.958332884533,801.2803324803685,796.417716419079,745.4398098771717
1731140960.1495893,768.4533533655564,801.4195779137028,793.2522285112825,747.9142902787238
1731140960.1534853,799.0341927600632,801.5731968060877,790.727986235046,762.4679743611046
1731140960.1573815,813.6240660880716,801.7228911208872,788.6299035834252,776.1305780521516
1731140960.1612778,803.29641414438,801.8316766768862,787.8680614755981,780.3409382048692
1731140960.1614146,779.8230039399941,801.8728272208973,790.0094954113488,776.4035286346273
1731140960.1635127,765.2208612270297,801.8822064138802,795.9163035997,772.7123377353676
1731140960.165174,772.9087256468545,801.9887392752028,804.5184406577686,776.623056994637
1731140960.1690702,796.1363551500018,802.349116933448,812.7822317253194,787.9959569297545
1731140960.1729665,813.4601846220554,802.9527357238381,817.1986452420202,799.7076108448704
1731140960.1768627,806.8281950463585,803.4025060452507,816.0314519674532,804.3635162449663
1731140960.1770363,777.2253168794382,802.9403625166468,810.7849509375533,801.1796928935053
1731140960.180759,744.8409489750809,800.950251546507,805.5763950674663,796.9324307439942
1731140960.1824183,733.5238562588472,797.7396499846304,804.5092904304191,799.9908418940954
1731140960.1826458,752.0369241725108,794.8426339461256,808.8222050450726,812.4565502637649
1731140960.1846552,787.093824846439,794.1880486758578,816.0200074242357,827.3490985738367
1731140960.1885514,813.8170687992887,796.5346578264405,821.7476221585321,833.84649520878
1731140960.1924477,815.4901963333136,800.5732519383773,822.9439895910899,826.7280668758403
1731140960.1926584,796.79355649408,803.7307099566,819.781109001699,811.9888324091809
1731140960.196344,779.466519253434,804.1366770660675,815.0076283948358,803.1124261424598
1731140960.20024,783.5718688593354,802.0259385217304,811.5252265429011,810.260014656628
1731140960.2013235,809.9201677986425,799.3277297742067,810.2897839845715,831.1630517929943
1731140960.2041364,838.770958215719,797.9016135373398,810.002773684923,851.7459558689724
1731140960.2080326,846.3056836506677,798.1087060948822,808.4730121900627,856.6582009773647
1731140960.2082806,825.1269756655781,798.9489754417007,804.4653721247264,841.5666187964928
1731140960.2119288,791.4936289452675,799.3833399289297,798.8027152596261,817.3494266386889
1731140960.215825,773.1268237268724,799.3731119352392,794.0445644858167,802.6436746125017
1731140960.217586,787.4740340718677,799.6631364470245,792.8777453668449,810.2948213990563
1731140960.2197213,827.8647427470726,800.7675394279869,796.2281926424353,837.9070935991128
1731140960.220229,868.3824072768656,802.3981514396786,802.4972624729236,869.4765470126082
1731140960.2236176,883.4342056685231,803.9158019349815,808.6284314735985,886.7148225103906
1731140960.2239025,866.7079935416825,805.1329759583386,812.2188658133385,881.5359120365432
1731140960.2275138,834.9171741429866,806.4268963341443,812.9246636518344,860.5503615519779
1731140960.23141,813.747617413769,808.0227521528337,812.0279051547326,838.7005653405848
1731140960.2353065,817.4834067506541,809.3596448527425,810.7716687304378,827.553219023518
1731140960.239134,838.7166268513881,809.3933537365563,809.2276043602369,827.6263700142861
1731140960.2392025,856.1035705269068,807.6101070457163,806.8066549120161,830.3504372542308
1731140960.2395244,853.1769225006805,804.7054300305806,803.6793032636967,827.100901877147
1731140960.2430987,832.3347539497229,802.2316255826244,801.3126806420757,817.1596252215702
1731140960.246995,812.6442862091703,801.5620638814772,801.2879215734883,807.9799391357701
1731140960.2508912,813.7907744040339,803.085813634987,803.5479306500733,808.0141712248413
1731140960.2525263,839.6628715766798,806.1513522957747,806.0321185597946,818.5717563789423
1731140960.2547874,874.8067699531113,809.5401690150098,806.3220443796766,831.7421201135991
1731140960.2551465,896.2665511021124,811.9923869890187,803.8422133611225,836.2646352373324
1731140960.2580397,891.1919394504124,812.601074061374,800.516668714528,826.6911089376846
1731140960.2586837,866.3322464239599,811.1581241481551,799.2094162428597,808.3708156103843
1731140960.26258,842.0107455704245,808.3899386351733,801.3264390586749,793.8877561296387
1731140960.2664762,835.4299598546959,805.7605070903858,805.6792352221205,793.3720198709001
1731140960.2703724,846.8745157794657,804.6706712050724,809.5229457736363,806.3220410351488
1731140960.2707682,860.2958464172306,805.457472126625,810.7782215172739,821.7238003894103
1731140960.2742686,857.8779155574498,806.9938636790885,809.5483840735839,826.6204090431656
1731140960.2769446,836.1692041298238,807.3686714592077,807.8054077706109,816.2729501963853
1731140960.2781649,809.7876760750461,805.2642913608489,807.6828772180442,797.6697540160125
1731140960.282061,799.2985430856473,801.0108522096164,809.8052643836492,783.626648556106
1731140960.285957,813.548536235805,796.4939446428505,812.8551190813147,782.4632047757784
1731140960.2863903,841.6045232264157,793.9889629643926,814.5459975708703,791.7687706011695
1731140960.2874663,861.2510298087606,794.8086568486501,813.2038567781746,801.1626482962062
1731140960.2898536,856.802712868166,798.6878767455373,808.869924329921,801.2774961609654
1731140960.2937498,831.0288781992249,804.1347917734091,803.267493168061,791.0570367125462
1731140960.29585,801.3283681570209,809.2544337876357,798.7406379788433,777.383961389398
1731140960.297646,784.5321769866132,812.4328239803898,796.8787969581881,768.293795715231
1731140960.3015423,784.7270399723712,812.7065809794101,797.6695119915364,766.6662486516248
1731140960.3020122,794.0257265505098,810.017051991535,799.6640977045661,769.7120565921862
1731140960.3054385,802.3124116479685,805.4053279799954,801.0283934753168,773.0175624512619
1731140960.3093348,804.8990631232006,800.8131939537896,800.8072186039251,774.1778061670185
1731140960.313231,802.9074917294101,798.2064553113647,799.5724618624553,773.3424263195004
1731140960.3147552,799.5412292148718,798.415323871597,799.0073336045167,771.769718797188
1731140960.3171272,796.9897077536849,800.6442039931295,800.6909948045295,770.4421858326576
1731140960.317634,795.6686187341235,803.1801801623819,804.8676540025208,769.6209654757648
1731140960.3210237,794.9813347558901,804.6870414557679,809.9468967668665,769.0976295651706
1731140960.3224068,794.272100370273,804.9254277870451,813.0305532127135,768.5934047149885
1731140960.3249197,793.2705319867636,804.4625368649544,811.2930131099756,767.9739413967752
1731140960.328816,792.0411844555949,803.9516679180946,803.7014330033578,767.2511359029074
1731140960.3327122,790.7523679298041,803.697740121855,792.2376011335367,766.4924562433088
1731140960.333256,789.5118783212139,803.6693490533347,781.6152879258885,765.7472231080397
1731140960.3336606,788.3341796588047,803.7114270671703,777.0256641947022,765.0262587905546
1731140960.3366084,787.1846094293769,803.7130512493604,780.8872277997913,764.3171969148956
1731140960.3405046,786.0290746721191,803.651706130292,790.9155436262969,763.6055559982686
1731140960.344401,784.8550582025196,803.5569771656263,801.4024065517743,762.8851236849955
1731140960.348297,783.6671685052298,803.4623609543801,807.0897126501959,762.1572582965105
1731140960.348878,782.4745287032872,803.3820983761077,806.567626661505,761.425863297756
1731140960.3521934,781.2825376749913,803.3132451173567,802.4297146602714,760.693642049783
1731140960.3525658,780.091658447735,803.2472982308487,798.4843913381028,759.9612430475518
1731140960.3560896,778.8999842311595,803.1786661561077,796.8998396995618,759.2281816674822
1731140960.357347,777.7058248975404,803.1064898761733,797.5270143804862,758.4939495818206
1731140960.3599858,776.5086861355168,803.0324683993085,799.0745448538833,757.7585116442551
1731140960.363882,775.3089458617382,802.9583255473165,800.4625026324893,757.0222290174758
1731140960.3645,774.107172822241,802.8847054170523,801.3426823258362,756.2855837032826
1731140960.3677783,772.903717297758,802.8113720763007,801.8879488664477,755.5489898286488
1731140960.3714712,771.698674948598,802.7378450730266,802.3835636054574,754.8127601563021
1731140960.3716743,770.4920341989382,802.6638251832958,802.98371970304,754.0771602726452
1731140960.3755708,769.2838105020056,802.5892639996047,803.6895781425261,753.3424665923718
1731140960.379467,768.0740899607752,802.5142370017035,804.4357023866038,752.6089896285763
1731140960.380122,766.8630044987541,802.4388115244623,805.1689054494749,751.8770675260382
1731140960.3833632,765.6506915620492,802.362995033216,805.8745132829432,751.1470506043951
1731140960.3872595,764.4372746485861,802.2867501267965,806.563597945125,750.4192917842557
1731140960.3903766,763.2228729064601,802.2100286495727,807.2514058050513,749.694146194251
1731140960.3911555,762.0076267871403,802.1327926018823,807.9454779496368,748.9719759304851
1731140960.3922873,760.7917139726566,802.055016596649,808.6453586300099,748.253154198769
1731140960.395052,759.5753278070038,801.9766816343799,809.3474664832004,747.5380645253995
1731140960.3957438,758.3586107058027,801.8977698563853,810.0491410728544,746.8270939993698
1731140960.3989482,757.1415847777832,801.8182627212791,810.7498065030752,746.1206247428876
1731140960.4028444,755.9241762609066,801.7381393833618,811.4501687190298,745.4190334876536
1731140960.406741,754.7064199924421,801.6573723160296,812.1510690392446,744.722709348553
1731140960.4092815,753.4887835016112,801.5759228858709,812.8529061648603,744.0320869767406
1731140960.410637,752.2722977681365,801.4937456592238,813.5556637737683,743.3476667685009
1731140960.4113655,751.0580484718546,801.4108087239124,814.259181557863,742.6699754461106
1731140960.4145331,749.845919401491,801.3271222848388,814.9633620144407,741.999445132716
1731140960.4184294,748.6334227738837,801.2427445605992,815.6682203403903,741.3362783662856
1731140960.4223256,747.4164318880385,801.1577257699698,816.3738344407832,740.6804762587066
1731140960.4262218,746.1932742349037,801.0719892621945,817.0802809851638,740.0322048420356
1731140960.426988,744.9706923922477,800.9852392544793,817.7876041145246,739.3924152169341
1731140960.4272275,743.765484842459,800.8970647506543,818.4958204951344,738.7631522430997
1731140960.4281871,742.5937105698298,800.8073489394368,819.20494500637,738.1466894460882
1731140960.430118,741.4466534994006,800.7167942097228,819.9150180876044,737.5431902352911
1731140960.4340143,740.2709238370805,800.6269529447554,820.6261142266037,736.9483400241397
1731140960.4379106,738.9871119180146,800.5390637330431,821.3383117832695,736.3543526215906
1731140960.4418068,737.5710235067975,800.4518001723811,822.0516234988116,735.7573644080545
1731140960.4426098,736.1624369330173,800.3597624466538,822.7659344356184,735.1689434003513
1731140960.445703,735.0798385739124,800.2558900750153,823.4810427751731,734.6204494693673
1731140960.4470923,734.5951393699153,800.1394908675079,824.1968777575729,734.144451029797
1731140960.4495993,734.4779235375224,800.0256671290267,824.9138126074002,733.729861313321
1731140960.4534955,733.6674182501487,799.9442977195628,825.6327444976514,733.281410279185
1731140960.4573915,730.7227417839573,799.916225547639,826.3545171609002,732.6489195603455
1731140960.4582317,725.4424751730778,799.9111035723525,827.0786537828673,731.7788840731527
1731140960.461288,720.8908138549634,799.8240776436571,827.8023270673178,730.9378334877434
1731140960.4621675,723.5487357748096,799.5308972821563,828.5213780234856,730.8013201851487
1731140960.4651842,739.3810766550054,799.0475537006586,829.2346199761092,732.1726847966341
1731140960.4659977,767.307423658475,798.707733731562,829.9495288816033,735.4240848680174
1731140960.4690804,796.5388876603282,799.1443535726806,830.6828865222125,740.3061991152802
1731140960.4729767,813.1779781371491,800.9054755331993,831.4487449148938,746.7288324694098
1731140960.4738536,812.228484024071,803.8765302805468,832.2343844530477,755.9145968263622
1731140960.4768727,803.5187491640929,807.0261002748902,832.9832740017403,770.204254598507
1731140960.4807692,804.2372744669719,808.834572937335,833.6190472947782,790.7135083479016
1731140960.4846654,823.5557823610685,808.1993560457605,834.1299130554377,814.6041509155939
1731140960.4849029,853.1107854149701,805.2365143822045,834.6705359153633,835.0066932402615
