timestamps,eeg_1,eeg_2,eeg_3,eeg_4
1731142901.7186933,789.5621954593809,812.3904295101463,796.7230826418248,787.0404572822162
1731142901.7224083,799.8076363157496,812.1993397291847,796.2816649678974,789.7278794611954
1731142901.7294457,798.352228196007,812.3374589156413,795.7989650545319,787.9946174403582
1731142901.738,779.866656796544,812.792921898588,795.1779217378804,780.0192828326152
1731142901.7436996,749.1893822325285,813.1617889212708,794.3200028708816,768.1012650299193
1731142901.7476008,720.034322804386,812.9975176303773,793.2711320541475,758.0981727489957
1731142901.7483337,707.9064766652933,812.358477077426,792.2731397755977,756.4804580949052
1731142901.751502,720.3939068957841,812.0756647190108,791.5669937376546,766.2193565871275
1731142901.7535915,751.0883958496828,813.3336600764119,791.0644107691031,784.0320599698917
1731142901.7536137,782.2459591693616,816.6788573472243,790.2669937422922,801.263005264732
1731142901.7554035,795.6675637858929,821.2049033450982,788.6953214717192,808.5477838315202
1731142901.7593048,784.8948800017738,824.7838276340722,786.557561999787,801.5989103916555
1731142901.763206,759.752562838951,825.4664564077439,784.9427960823865,784.0752967965393
1731142901.7671072,739.0724965357398,823.0584942469511,785.0768379789977,765.0962306236516
1731142901.7672217,736.437534244043,819.478573697528,787.0916759361356,752.9239530300154
1731142901.7691827,749.9993112560468,817.4173681825289,789.4723754183192,749.6258064260924
1731142901.7710085,764.8960886916375,818.3273665463736,789.973866997082,750.9695962401861
1731142901.77491,766.5751284074562,821.4296861919529,787.476572697783,751.4083765427121
1731142901.7788112,753.8075327344616,824.5389765918615,783.1871007509774,749.5626835676974
1731142901.7827125,740.0691853899174,825.9122063679242,779.9359751382306,749.2797941581039
1731142901.7847743,741.8824266327155,825.522503336942,779.9355325419789,755.5069984853799
1731142901.7861097,764.0343434247234,824.8026968561924,782.822505934555,768.933123830805
1731142901.7866137,794.2848084781531,825.2615502620896,785.7426530368286,784.2912297107318
1731142901.7885342,812.1259743607006,827.1977702337454,785.5865646870666,793.7942067811478
1731142901.7905152,804.5531710511216,829.4614376723732,781.5978813145006,792.7545458994097
1731142901.7944164,776.2252529299229,830.2894990309618,776.0855724671788,782.8275256911492
1731142901.7983177,745.9552829372547,828.506358552043,772.4680734460659,770.5115995256168
1731142901.800366,732.337118353479,824.2937404296662,772.2427457221183,762.4042572872481
1731142901.802219,739.925783213008,819.1498357633343,773.6019158595375,761.0426816937546
1731142901.8049977,756.8780374682981,815.146411962849,773.0792136681713,764.2305084968591
1731142901.8061202,765.6233440638838,813.8895549403238,768.8545433600491,767.6374844885827
1731142901.8100216,757.5913321651382,815.7016082998658,762.7129652734064,768.0514834068509
1731142901.813923,740.0397129322868,819.4911379971035,758.742975948497,764.9519994709087
1731142901.8159573,729.9468807615339,823.4586348864178,759.7531687722613,760.2177766912426
1731142901.817824,740.5751339507165,826.2207195909336,764.5094292534432,757.1838216155353
1731142901.8217254,771.5965646427949,827.531056943904,768.3594375725653,759.6431570756793
1731142901.8234546,809.8009197401327,828.0247697228381,767.0118913450322,770.2249851575251
1731142901.823886,838.6501640092771,828.2554048327909,760.4708466480615,788.0408297467471
1731142901.8256266,848.8206840947327,827.9776689938517,753.7270918211552,807.3445155465713
1731142901.829528,842.3741770086204,826.4165832165958,753.284890180384,819.5273838161938
1731142901.8315487,828.691125408298,823.2695313375278,762.0915595729938,818.3353382142957
1731142901.833429,816.2764586125188,819.3766741292319,777.0086329208904,804.6868084652488
1731142901.8373306,807.0759675528168,816.2359097405742,791.0510388704015,786.8450274770072
1731142901.8412318,797.538765541292,814.6707124113276,798.6641412846217,775.3331374308184
1731142901.842774,784.9776554681887,813.8881647319942,799.7490586179513,776.5731187010349
1731142901.8451333,773.0679874694047,811.9380166174535,799.2773381015226,790.1416215365871
1731142901.8471403,770.7421636649801,807.348977263896,803.0759146662015,810.9519556181417
1731142901.8490343,784.5624456678995,800.5939458568015,813.3539651301211,833.4230359804048
1731142901.8529358,811.102415655257,794.0647440696678,827.3666776881211,853.8806966252474
1731142901.856837,836.8297980357332,790.4389795948058,839.7986592569513,870.1887141991282
1731142901.8583753,846.9381205988807,790.675889386019,846.6062995460067,880.5854997638103
1731142901.8607385,836.5978060862832,793.2240446966316,847.3844300953123,883.9598190658887
1731142901.861662,815.3535593553243,795.0780277792958,844.924570059667,881.5206585466094
1731142901.8627317,800.5007137414451,793.88653779747,842.8529773232456,877.6518563999773
1731142901.8646398,804.1056408945318,789.5384699318533,843.3306350636267,878.0474732402786
1731142901.868541,823.7454245542318,784.0940604476303,846.2700385149597,885.8584192813107
1731142901.8724422,844.5288057590216,780.2003956180189,850.1449258596635,898.990670810685
1731142901.8763435,851.114119356894,779.2501929399671,853.3821310902213,911.2594654464742
1731142901.8783233,840.1446319929541,780.653953464759,855.2082236720978,916.8427131148583
1731142901.8802447,822.856109546127,782.6402513080246,855.5605233479747,914.3911328686124
1731142901.88055,815.6196562652065,783.7882784909536,854.5352451065592,907.3534655159519
1731142901.8841462,826.2846150977637,784.0137866765257,852.096973408161,900.4877869527703
1731142901.8880477,847.6912542077522,784.2895140560581,848.298949499962,895.8833841939077
1731142901.8919487,863.6249802194478,785.4492918727525,843.6402696726213,891.9927028486256
1731142901.8932955,862.0951191995844,787.1424008314759,839.0572941845417,886.2026041572578
1731142901.8939147,844.9440440410577,787.850405440299,835.4693273613047,878.2366439935797
1731142901.89585,826.098639370811,785.9992737143822,833.2701093527664,871.0511845871176
1731142901.899438,820.1679397973464,781.2854682232798,832.1999737946733,868.2716207632928
1731142901.8997514,830.7731397677846,775.1259616887758,831.6568021891155,870.4303512435137
1731142901.903653,847.9934250651647,769.8392551531803,831.1268835533809,873.5210467720096
1731142901.907554,856.8737520326597,767.198035015905,830.4013569011644,871.5509324197126
1731142901.909506,849.9916593104691,767.4638342383732,829.5189621893552,861.2972394884137
1731142901.9114552,833.7030655034297,769.5190648536495,828.5972852409845,845.2839627396804
1731142901.9153564,822.7525965421884,771.7652882489646,827.7132613917577,830.1630758258967
1731142901.918326,827.5648198285036,772.9681336860614,826.8779610230735,821.5143196930223
1731142901.919258,844.833708256662,772.5589869103147,826.067148747071,819.3596537237603
1731142901.9231591,859.5478667279123,770.5467027001716,825.2565566648275,818.355694188206
1731142901.9250977,857.157852788763,767.4274367126409,824.4370905219192,812.6913403978951
1731142901.9270604,836.007245791984,764.1757858709491,823.6118918419156,801.5526007143885
1731142901.928216,809.6349553246984,762.0630222120877,822.7874312942354,790.3739698241997
1731142901.9309616,796.6720654763845,762.1531389173089,821.9675998011923,786.6237547723928
1731142901.9348629,806.2336059984783,764.7547426555337,821.1527796139642,793.530702180862
1731142901.937214,830.621026265298,769.307405331231,820.3416362334608,806.9785873541224
1731142901.9387643,851.4524002892878,774.8458972902638,819.5329602857026,818.259678788146
1731142901.940689,854.4295818722663,780.6380435404561,818.7263800627177,820.5726393261366
1731142901.9426656,840.6741813724797,786.4335546001159,817.9221431306445,814.0068385607948
1731142901.9465668,825.1501769723772,792.1744867105011,817.1206335208626,804.9292795952125
1731142901.950468,823.3795437494447,797.5539290255817,816.3220762404153,800.3461669605125
1731142901.9543695,837.6269169107202,801.9103762443692,815.5265073243662,802.0628087962156
1731142901.9561024,854.3604977006765,804.5602403764514,814.7338791134665,805.5662249478266
1731142901.9562805,855.3684304792396,805.248628818587,813.9441614076246,804.3800188962557
1731142901.9582708,833.4318479914036,804.3404623604226,813.1573787380584,795.9679997910932
1731142901.962172,799.5729969035076,802.6445296691813,812.3735907328683,784.1934437615402
1731142901.9631364,775.6593998373306,801.0418664846165,811.5928462180859,776.4870097219202
1731142901.9660733,777.9155043504978,800.1593573568132,810.815142698068,778.1944576271234
1731142901.9699745,804.2739900901927,800.2264618601597,810.0404237292682,788.5370576920191
1731142901.971872,835.6706948030777,801.1236725741065,809.268641405073,801.127800523007
1731142901.973876,850.4739852043249,802.5528521821028,808.4998722917021,808.5837364152695
1731142901.9749904,840.755853633902,804.2197665193625,807.7343949590891,807.8921597590639
1731142901.9777772,817.4979457405013,805.9132372433974,806.9725732196865,802.5878567719466
1731142901.9816785,800.6882668299468,807.438905144908,806.2144608668227,799.9313008990871
1731142901.9855795,802.6226623909067,808.5155273022564,805.4593328004252,804.9824639442527
1731142901.9874637,818.2827066190267,808.8238999722681,804.7057246744753,816.1318286599786
1731142901.989481,830.5402495650444,808.2577293221174,803.9525966776098,825.8464212341388
1731142901.9933825,825.3516157039204,807.1517207498617,803.2014206040823,826.3112797251641
1731142901.9938784,803.9469399269292,806.1799046729373,802.4573814027134,815.5839875645926
1731142901.9972837,782.0229591061245,805.9043689575919,801.7267722510534,799.3702020978172
1731142901.998057,776.9602961106233,806.3507207052753,801.0093205891394,786.9915226603418
1731142902.0011847,793.6522052125688,807.0379120685029,800.2898760581282,784.6091155318165
1731142902.0030549,820.2895870493935,807.4793275898286,799.5406957746727,790.7910811240486
1731142902.0050862,837.4094860479767,807.6898224057747,798.7450587363406,797.7390702929384
1731142902.0089877,833.0880604954681,808.1836041109683,797.9361633686573,797.3060573747744
1731142902.0127666,812.2217076179011,809.4231545400928,797.2150006793388,787.2901405611939
1731142902.012889,792.3290488287887,811.2402215631839,796.6932203629417,773.093518971622
1731142902.0167902,789.1032513669923,812.8277410044026,796.3442039975914,763.3068502531571
1731142902.0186462,803.522719090315,813.3708522373074,795.8560218097889,762.7043347691466
1731142902.0206914,821.2905067258946,812.7472924686535,794.6992941645038,768.4593587787863
1731142902.0245926,825.1457337697271,811.6414840084498,792.5864400424531,772.811434292437
1731142902.028494,809.7281834232288,810.9906908323554,790.143296065417,769.8790276198791
1731142902.0316546,786.5299123947206,811.3145347654311,789.0933377854928,760.6842064088886
1731142902.0323954,774.7914041993365,812.5075793550163,791.2815187847974,752.0612115447132
1731142902.032977,785.7771789449672,814.1194029652913,796.9355482672062,750.5220856935543
1731142902.034238,813.1605146630487,815.6721495943102,803.7199329581223,756.518458143423
1731142902.0362966,837.3345673134814,816.6903548113452,807.8079118228995,764.138138564592
1731142902.0401978,840.4630977131965,816.6177735114998,806.4487866865152,766.5863988883227
1731142902.044099,820.4794042650881,815.0057631182647,800.0776770526115,762.7881711893506
1731142902.0480006,792.7754157272783,811.9924356710214,792.2433411842502,759.2564411049759
1731142902.0498292,777.9926005628512,808.594652625756,787.2980656185503,765.1404820912529
1731142902.0505426,785.6892967788934,806.3419494014855,787.5216519382388,784.2079677467998
1731142902.0519018,807.2194895534051,806.3597099284796,791.7605837503619,810.5404541632465
1731142902.0558033,823.5622739705682,808.5741323437472,796.4838993971861,832.0164515435281
1731142902.0597043,821.3549829755491,811.6813761776833,798.3775008354946,839.1330978465444
1731142902.0636055,803.6778331393047,813.924151895455,796.5687840670221,831.9771227015236
1731142902.0654206,786.8689906288351,814.1106202573043,792.9733177719789,819.6096292011109
1731142902.067507,786.4970365643826,812.1998625621369,790.7017421759459,812.6195352031071
1731142902.0678978,804.364792169226,809.1775546241787,791.8568753046452,815.2483019349978
1731142902.0694306,827.0804039313741,806.4552047759277,796.3661341857552,823.3696368046467
1731142902.0714085,837.0671660460913,805.2455328670701,802.5450640037344,829.289819575572
1731142902.0753095,826.9463988561844,806.2064108512808,808.6676778452343,828.7411238101994
1731142902.0792108,805.6138350800813,809.3373797695796,814.0830711904921,824.0872291345524
1731142902.0810122,790.9458787954296,813.9724237954947,818.9614168848302,821.3226326992236
1731142902.0831122,794.9571520948041,818.8469360376818,823.1028652231104,823.803452435714
1731142902.0870135,813.7361142653419,822.4047215577096,825.1941221898693,828.4144667752568
1731142902.0883188,830.8167970414692,823.430959447196,823.5282246989873,827.7460084304284
1731142902.0909147,831.3502798100358,821.731972854197,817.7609376975848,816.5752879898145
1731142902.094816,815.0676939557487,818.3278575172063,810.0611216822962,797.0702834855359
1731142902.0966036,796.8819900257246,814.8696612035641,804.2450977073768,778.0791296661178
1731142902.0987172,794.4629095837269,812.6140358277828,803.1558072952059,768.8265595555912
1731142902.1026187,813.1779034038003,811.6983974459487,806.2821518931362,772.031425210938
1731142902.1028185,841.0026275976321,811.2349468261797,809.7761606647352,781.9650261132567
1731142902.10652,857.7109309403662,810.0910060307086,809.2146879314112,788.996784310479
1731142902.1072068,850.9498275293093,807.7432651640278,803.0718238838945,787.0285622046955
1731142902.1104212,826.2169160717477,804.6384816533615,794.0469987894472,777.955025476363
1731142902.112195,802.6016451372419,801.903768890823,787.0405443498003,769.6250607546006
1731142902.1143224,797.5459722027477,800.6522456938576,785.3822107415359,768.9591818607503
1731142902.1182237,812.8699563467551,801.3123365440288,788.4385029988878,775.9140787416629
1731142902.1221251,833.5426020525218,803.3597326024432,792.5499677074678,783.498223342758
1731142902.1260264,840.3398988985787,805.5967822441423,794.3704495408757,784.0573174280509
1731142902.1260948,825.9382791179167,806.7971075512955,793.6441372247431,776.5402484834981
1731142902.1277866,801.0740402068222,806.3061811492971,793.0628460261432,768.3377268431975
1731142902.1299276,785.8054626273159,804.2444298511724,795.4969929314849,769.8379863144052
1731142902.1338289,793.3220121338513,801.2671251111526,801.1706059214416,786.1186511286996
1731142902.1377304,819.5335390653144,798.1403977007608,807.2687003577506,812.5731090779077
1731142902.1377387,846.4342794910683,795.4508085460708,810.2380518145044,837.8237998338744
1731142902.1416316,856.0189410677243,793.5623740493977,808.7413524911004,851.3660748111909
1731142902.143378,843.6142463984404,792.6817234331609,804.799887751323,850.0774921269478
1731142902.1449833,820.5538051360475,792.8320302504441,802.2804742464721,839.1722100094939
1731142902.1455328,804.6308964088603,793.7207434293622,804.032598802171,827.580994224562
1731142902.149434,806.1101446615518,794.7083451878972,809.9236808640958,821.6833744223645
1731142902.153335,820.3758254095014,795.0702895756555,817.1587178409511,822.1212211736224
1731142902.1572368,832.8349923090251,794.4560639895525,822.4316589496689,825.4217222494685
1731142902.1589694,831.4316870440528,793.1804102594629,824.1195796136753,827.9161641256328
1731142902.161138,815.7465260319833,792.0571301474856,822.9025637084821,828.1991847274113
1731142902.163871,795.367298189213,791.8766038513749,820.6610270645963,826.9064809591558
1731142902.1650393,780.6697932673428,792.9447926505792,818.9131137978862,825.2501607672705
1731142902.1689403,775.4599508697779,795.0165935797323,818.0918585774735,823.964033789583
1731142902.1726592,776.9193648802369,797.5712928524633,817.8447038373731,823.1279967185917
1731142902.1728418,780.196169842283,800.1029521380972,817.6750021107404,822.4942671154247
1731142902.174561,782.2332854439229,802.1951390755642,817.3257917697223,821.8301186565587
1731142902.1767433,782.543538107965,803.4618524318842,816.8008443840603,821.0550641863938
1731142902.1806445,782.0124379736893,803.5947132894447,816.2127002110838,820.2044610189741
1731142902.182759,781.5503882777826,802.5909090414589,815.6500068624865,819.341408164253
1731142902.1845458,781.5057840050745,800.9476564475091,815.1356284530541,818.5015193633524
1731142902.188447,781.7664985259672,799.5394660590741,814.6498090914024,817.6863513118421
1731142902.1901524,782.0920964993944,799.1590801165714,814.1667808679323,816.8818567467215
1731142902.1923485,782.3370732302344,800.0504508849531,813.6742624200236,816.076065489389
1731142902.1962495,782.4875828950447,801.8195153726559,813.1734154663453,815.2653865143834
1731142902.200151,782.59499087816,803.7873732800476,812.6704273536125,814.4520814900993
1731142902.2016473,782.7065778153543,805.4711105268957,812.16975326954,813.6395222580245
1731142902.2040522,782.8383114295103,806.8215252365284,811.6722941487385,812.8294590788811
1731142902.2057438,782.9827111524264,808.1248107325098,811.1768345157196,812.0218600409736
1731142902.2075796,783.1268817938811,809.7461157383254,810.6819831040846,811.2159559546283
1731142902.2079537,783.2636498953306,811.9006049153458,810.1871170134018,810.4111504897207
1731142902.2118547,783.3927769669816,814.4896556840163,809.6923076181521,809.6073036576488
1731142902.2157562,783.5171493307242,817.0019178457813,809.1978551095746,808.8045687419665
1731142902.2196574,783.6391894789065,818.5945374510618,808.7039456827257,808.0031391435349
1731142902.2205353,783.7596052159302,818.496871241737,808.210575696206,807.2031147565071
1731142902.2213354,783.8779257820785,816.623718434687,807.7176380173668,806.404503417076
1731142902.223559,783.9934715385491,813.9338942307105,807.2250240986543,805.6072796955287
1731142902.22746,784.1059036738268,812.0745562059501,806.732668887502,804.8114314661148
1731142902.2313614,784.2152480332697,812.3925555943146,806.2405429103615,804.0169714089342
1731142902.2352626,784.3216755358608,815.0256992561192,805.7486265949158,803.2239252039435
1731142902.2369268,784.4253149006389,818.8225878415859,805.2568934645873,802.4323167671077
1731142902.239164,784.5262015634249,822.1554265238327,804.7653085355358,801.6421632660163
1731142902.2394233,784.6243275728864,823.9424170501528,804.2738348549677,800.8534815883966
1731142902.2425,784.7197111069488,824.1017523345843,803.7824385378123,800.0662991667725
1731142902.243065,784.8124203349566,823.2268891099783,803.2910869052906,799.2806567780284
1731142902.2469666,784.9025255745988,821.9041969956377,802.7997411528502,798.4965921671064
1731142902.2508678,784.9900056581749,820.2730356519941,802.3083516193517,797.7141067507349
1731142902.2525182,785.0746955485218,818.1216524646948,801.8168663779107,796.9331429304624
1731142902.254769,785.1563932992468,815.3337735575791,801.3252566563897,796.153618635857
1731142902.2583113,785.2351669047281,812.2205449858392,800.8335429573439,795.3755437479557
1731142902.2586703,785.3116732255407,809.407012501348,800.3417843609031,794.5991570841154
1731142902.2625716,785.3870423663177,807.3881870430149,799.849997999742,793.8249119485863
1731142902.2664733,785.4619228402203,806.207690069501,799.3580335762409,793.0531305232468
1731142902.2681098,785.5349648031231,805.5754235070544,798.8655259445336,792.2833903577305
1731142902.2703743,785.6022011947175,805.2605233676053,798.372098265034,791.5141794458016
1731142902.2742755,785.6594166522934,805.3125464306129,797.8778527207277,790.743677494736
1731142902.2771995,785.7080229750161,805.8972258212048,797.3838168425634,789.9720214699539
1731142902.2774203,785.7605511086601,806.9889926637451,796.8916377357826,789.2037308465934
1731142902.2781768,785.8372672105909,808.2997698056108,796.4019710763735,788.4469787881083
1731142902.282078,785.9470577848329,809.5080865704572,795.9121754682108,787.7065847361515
1731142902.2837012,786.0595032223513,810.4877980946806,795.4157426864939,786.9725863867444
1731142902.2859795,786.097046707422,811.2587856263629,794.906595624421,786.2151403066069
1731142902.2898808,785.9852979066617,811.7507914854108,794.3884658428194,785.401561040785
1731142902.293782,785.7654580683352,811.7236520501202,793.8824649913275,784.540102158497
1731142902.2960875,785.6878261752678,810.9943952689789,793.4194725743188,783.7223266430626
1731142902.2976832,786.1253148077944,809.7028072676073,793.0083408640221,783.1006559453181
1731142902.2992926,787.1937944243099,808.2318289177636,792.5942935118604,782.7479136154566
1731142902.3015847,788.2418383414216,806.7828872202931,792.0557100196963,782.4470192843603
1731142902.305486,787.777060305623,805.0712469277892,791.2971206773685,781.6254755127646
1731142902.3093872,784.5112282976077,802.5830562086693,790.4377127437969,779.7268171902288
1731142902.312341,779.4765040730189,799.2725067896387,789.9691214925843,777.0736499767856
1731142902.3132885,777.5189676745795,796.0318850124844,790.6503507530135,775.6657985294449
1731142902.3148842,785.3529235959753,794.3315114377419,792.9617989400521,778.8087464135226
1731142902.3149755,805.5680251770323,795.130465744264,796.2851426695439,788.9247794704538
1731142902.3171897,831.3941894484317,797.914947454421,798.5194067338435,804.7975739898305
1731142902.3210912,849.1215882624077,800.8038858255983,796.977362193867,821.1656822127419
1731142902.3249924,848.5469368106575,801.8468332568522,790.4910731096537,832.1866647252047
1731142902.3288937,832.5401339543733,800.5345244481418,781.2072967738961,836.1862629123868
1731142902.3304756,815.9003849147175,798.1982664435018,774.1810573337166,836.9326140988486
1731142902.332795,813.2261113083629,796.8801321622756,774.4399811689709,839.6885487621944
1731142902.3338635,826.2029638719554,797.663362293638,783.4947783584321,845.6566199651976
1731142902.336696,841.9088365296204,799.9696742978028,798.073230153675,850.3486597196157
1731142902.3405976,844.0791266436457,802.3771344873905,812.1941550443845,847.7203832131158
1731142902.3444989,827.6965693219768,804.0322028791954,820.984994625548,836.3056077047349
1731142902.346067,804.267439708824,805.2368736223184,823.3226796964273,821.6116222880571
1731142902.3472614,793.1274636330186,806.7478860508974,821.545418766585,812.466734947444
1731142902.3484,805.8528405082902,808.6662416888153,818.9529825373896,814.3887533094709
1731142902.3523014,836.4599030465856,810.1286544207653,817.3795350164398,825.4601157964216
1731142902.3527515,865.3460192967733,810.0951949081657,816.6198507056642,837.8967810875941
1731142902.3562026,873.9944397738597,808.4097826014595,815.646518446131,843.8679266228968
1731142902.360104,858.9823011316523,806.1166278762995,814.107865439623,841.0033435507419
1731142902.3616586,834.3216255485341,804.7976172600564,812.6897605073023,833.5518728883708
1731142902.364005,820.264635966222,805.5478399301267,812.2293670645604,828.5882299949201
1731142902.3679066,827.3735815126752,808.3493914595173,812.6523538304782,830.3516217588419
1731142902.3716395,848.4629420635343,812.1271290956763,812.838521818851,837.1026660541932
1731142902.3718078,864.8148791167396,815.2949783024187,811.5602641793549,842.8899261711732
1731142902.3757093,861.6719170289584,816.474066751279,808.6742686654243,842.7470912209233
1731142902.37725,840.5224562986276,815.1220904993439,805.555403447245,837.0169844408956
1731142902.3796103,818.1997089133498,811.8262516949037,804.3389242355124,831.0972134577245
1731142902.382182,813.4017378021547,808.0405406492667,806.3898289105497,830.7047618795464
1731142902.3835118,831.4359385733734,805.2815641737479,811.0403279868538,836.6916320316535
1731142902.387413,859.5495337979875,804.2022731482526,815.6415218348134,843.9898518556961
1731142902.390528,876.7833503952176,804.2113979744115,817.1753011140923,845.7468042974346
1731142902.3913145,870.572171177393,804.0505632472485,814.4180972660157,839.1810177898212
1731142902.3928416,846.7438826419503,803.0054122714788,808.9408684925186,828.1717424918858
1731142902.3952155,824.779226761998,801.7633235955274,803.9620220109543,820.3709833514501
1731142902.399117,822.1328296128826,802.0384056523991,801.893712783874,821.1934690903464
1731142902.4030182,840.3418355899133,805.0771780144363,802.6951455954435,829.5281716115761
1731142902.4069197,864.0959258841311,810.2394947882988,804.480593272256,838.5141160403043
1731142902.408433,873.7308340890949,814.9630711587514,805.7104429125696,840.6613516181532
1731142902.409416,860.804147421464,816.3347491241964,806.7785535758903,833.321481610336
1731142902.4108207,834.338107562792,813.1267540816159,809.4267446390861,820.4669980089039
1731142902.4147222,813.1424953992291,806.72961301872,814.5656320606133,809.6525900286616
1731142902.4171023,810.6681028231699,800.2909399714572,820.6633300677554,806.4959600964542
1731142902.4186234,824.501646388428,796.7649322431741,824.3783071903398,810.6049561389436
1731142902.4225247,838.8086819352085,797.3161315346993,823.0376787532755,815.7816255555832
1731142902.4240243,837.7633814705397,801.0758070956562,816.8252483013196,814.4762678447368
1731142902.426426,819.1555154322185,806.1155936813946,808.7338802308341,803.6209388672763
1731142902.428304,796.9745370338587,810.6638924947443,802.2942131512164,787.7965151011641
1731142902.4303274,790.4508197177126,813.6563842078614,799.0560855354394,777.0360683460202
1731142902.434229,808.0635990892196,814.4952941203012,797.9699241689996,780.0149952289038
1731142902.43813,839.457086680125,812.6532654104234,797.0123640218688,797.003571312633
1731142902.439616,862.1748401205488,807.8221422444686,795.3297441207576,818.0174699446768
1731142902.4420311,858.2807811428862,800.617755388974,793.8547358787796,828.4935596799598
1731142902.4459324,827.8682905118591,793.0703902222313,794.0467187968078,819.1244909110118
1731142902.447192,788.8150468621909,788.0845117052501,796.2762339322317,792.6504807822447
1731142902.449834,763.0811798924857,787.8999327326243,799.4842516396674,762.1812259464264
1731142902.4520228,760.5299103948889,792.5733005892943,802.2132557961904,742.1527498498303
1731142902.453735,773.0432746019453,799.6733821492298,803.7887187885797,738.9212512363526
1731142902.455207,783.1557277744682,805.5482333040806,804.6233022142818,748.0629644905213
1731142902.4576364,779.4754057440683,807.3783976495588,805.7042416980604,759.6362769138252
1731142902.4615376,765.7062718601367,804.6771518750965,807.9035672112328,766.1996684079597
1731142902.4654388,755.8779936843154,799.3013290640342,811.4662230464412,766.8903380983586
1731142902.4660802,760.5964959072826,794.0632755164415,815.6902241494522,765.2174093759577
1731142902.4693403,776.965633936764,790.9740951179482,818.9598732122656,763.9857640474365
1731142902.4707987,791.1966107676019,790.3359194450964,819.4451754467016,762.6589049638909
1731142902.4732416,791.246674238523,791.1438175104661,816.3152297229783,759.267517366478
1731142902.4771428,777.9220390466872,792.1764919668279,810.5745365781105,754.2100261274771
1731142902.481044,764.6052573497944,792.7820979601685,804.624698650016,751.5277760233873
1731142902.4849455,765.9544874212635,792.946091138549,800.7128469272722,755.8479928884211
1731142902.4849682,785.1962437845325,792.9370019738757,799.5559506276234,767.5132291405871
1731142902.4863904,810.4411237359018,792.9772590781447,800.286229509734,780.485169430561
1731142902.4869432,823.0576688384436,793.1304921731012,801.5136452897503,785.6066459120606
1731142902.4888468,811.9023043330333,793.3523106044489,802.3502527492498,777.3570732860682
1731142902.492748,782.7586615486092,793.5796229977459,802.6578409003239,758.9465133144225
1731142902.4966493,755.4818007927393,793.7807141764017,802.7071798845183,741.2747585015439
1731142902.5005505,750.0712478517304,793.9571653293932,802.7757655387906,735.7595995081303
1731142902.5019815,771.4413894554243,794.1238756072944,802.9706373598218,746.0090356317603
1731142902.5038562,804.5884423709612,794.2921543883688,803.2587015333175,764.734664758143
1731142902.504452,824.8053043824909,794.4646979111609,803.5673153901307,778.7031792593034
1731142902.5083532,816.0669952326218,794.6388128674718,803.8522292229106,778.3812687867018
1731142902.5122545,783.574867909437,794.8111705417508,804.1090471432265,764.9781190402477
1731142902.5161555,750.1734702207143,794.9802482844851,804.3532505606208,749.2787225706053
1731142902.517573,738.936611959208,795.1462514406924,804.5991912888495,743.1162795093652
1731142902.520057,755.6207704720782,795.3100011022724,804.8517676147308,750.374818291549
1731142902.5218637,785.0346299939317,795.4720723157689,805.1087528836724,764.7423686061804
1731142902.5227444,804.0710053513926,795.6325784176447,805.3662478189307,775.6987390559744
1731142902.5239584,800.6117858805658,795.7913678461243,805.622068709598,777.4887175737387
1731142902.5278597,782.8694058187953,795.9482752734199,805.8761313326709,773.7391439158263
1731142902.5317607,771.6528976657271,796.1032391710653,806.1293036783203,774.2452682996833
1731142902.5331647,782.1688320413101,796.2562884980997,806.3823173799586,786.7974013446062
1731142902.5356622,810.7817806283771,796.4074814309461,806.6353845464959,810.7039220738928
1731142902.5395637,838.0611904727585,796.5568617342873,806.8883572042348,837.1063513102725
1731142902.5416324,845.52236515531,796.7044499626313,807.1410203343651,855.6761416013888
1731142902.543465,831.6196899800171,796.8502551626891,807.3932592249241,862.2677746749578
1731142902.547366,813.1959877485798,796.9942881522032,807.6450682247538,861.51959504089
1731142902.548756,811.1864195301368,797.1365672331065,807.8964858562131,862.56525165778
1731142902.5512674,832.8556504092692,797.2771169883692,808.1475388273791,871.5242758883832
1731142902.5551686,865.5940676796524,797.4159645368485,808.398224867191,886.8957563941545
1731142902.5567842,887.2553234361123,797.5531366343087,808.6485229740796,901.4300639959413
1731142902.55907,884.0712033465143,797.688658922597,808.8984090060235,908.5673721793014
1731142902.5605204,861.1583046045417,797.822557430746,809.1478637457881,907.7200773078157
1731142902.5629714,837.2661118126631,797.9548617529155,809.3968726264732,903.8871974831204
1731142902.5643475,828.7550883616427,798.0856080190833,809.64542210093,902.2876516419484
1731142902.5668726,836.5581428766413,798.2148380412657,809.8934970932298,903.1812292509051
1731142902.5707738,846.9074437718194,798.3425913389963,810.1410808513414,901.7285461153456
1731142902.574675,844.6609955489289,798.4688921707539,810.3881559691981,892.997340380356
1731142902.5785766,827.3924749483814,798.593743519328,810.6347045559526,877.4693811101454
1731142902.5794086,808.031504924488,798.717145748058,810.8807064840537,861.9155228280215
1731142902.5799391,803.8428736960157,798.8391454161693,811.1261368602109,854.5905035605948
1731142902.5824778,821.1854326287037,798.9598832731621,811.3709661550633,858.6720039937672
1731142902.5863793,848.9936470048074,799.0795705662191,811.6151664752194,869.4574295041548
1731142902.5902803,866.6209169178678,799.1983329711463,811.8587227880893,877.7489699477762
1731142902.5917046,859.8414328473732,799.3159733542128,812.1016391163057,876.7354497817194
1731142902.5941818,832.1457691635646,799.4318904808545,812.3439239336202,866.8339442017914
1731142902.5955305,802.257136729138,799.5454786299483,812.5855484370356,854.737432311817
1731142902.598083,789.8044480656035,799.6570650530872,812.8264024485396,847.7022127133406
1731142902.5982966,800.4433737086425,799.7687358782255,813.0663089617402,847.8258127281655
1731142902.6019845,822.0912220243786,799.8837017301603,813.3051540056401,850.7992420350494
1731142902.6058855,835.1211368024512,800.0031878804341,813.5430960302626,849.8620994017223
1731142902.6097867,828.2543594129124,800.1220852386498,813.780655956672,841.5724953710046
1731142902.611122,807.3277448159329,800.2280386574905,814.0183987894094,828.7126749480491
1731142902.6136882,789.9515807966729,800.3098520194611,814.2561281185609,818.1008784044279
1731142902.6171846,790.6729958383744,800.3753337527322,814.492119146901,815.2261720478325
1731142902.6175897,808.9645048305629,800.4651119116398,814.723558862345,820.0396318128123
1731142902.6214907,829.7502370521337,800.6368296002665,814.9491626448355,827.0354818976557
1731142902.625392,835.7099459748923,800.9029127736762,815.1730747450688,829.2342864819669
1731142902.6266253,821.1751127566387,801.1492773364906,815.4061596000992,822.9050053990185
1731142902.6267135,796.5473561286581,801.1232152867799,815.6595731259841,809.7625881369952
1731142902.6292932,779.9858750227114,800.585531855438,815.9304181367586,795.457741115748
1731142902.6331947,783.123367205163,799.5990627168414,816.1919880964883,785.6661874437372
1731142902.6360729,802.1301330565342,798.7283875892415,816.415489307118,782.5282552519984
1731142902.637096,821.2357535786955,798.8795038728466,816.6446455336193,783.8963719312853
1731142902.6409972,825.9359418478941,800.7570890096692,817.0855425404826,785.8590683945587
1731142902.642305,815.0791003213612,804.2756388288893,818.0818259305127,786.4282815254438
1731142902.6448984,801.5687464596323,808.3868496190315,819.8525752882801,787.1437631468826
1731142902.6487997,800.7937569403455,811.5436443039617,822.0753901350528,791.0464158686219
1731142902.6527011,816.5786022270812,812.5825404358325,823.6550133771068,798.877126618582
1731142902.6549609,836.9557664580611,811.4803161264953,823.0440202764275,807.3003671487475
1731142902.6566024,843.771124281567,809.4641587231486,819.1623368364193,811.2722411917222
1731142902.6578965,828.1933872202617,808.3419377704092,812.4607627537698,808.7181589823798
1731142902.6605036,799.0593939903671,809.4348838875434,805.3283756860332,803.2197704662572
1731142902.6615455,776.9031781728926,812.7854008353501,801.212544343288,801.8835929529661
1731142902.6644049,778.2534221195799,817.1552320099278,802.6277752064933,809.7051272276888
1731142902.6683064,802.6638713373466,820.8131483368226,809.2559934670938,824.8778327305648
1731142902.6722076,832.8132171845057,822.5892024978401,817.6842759152285,838.9775867552725
1731142902.673488,847.714959991831,822.5038209392189,823.35143033909,842.288256280518
1731142902.6738489,838.7196008227527,821.5743366864598,823.4900048006259,830.6104715135898
1731142902.6761088,815.686382968873,820.9598947994507,818.7966526674115,808.5824678964698
1731142902.68001,798.3889579108491,821.0650399715339,812.4410063305369,786.8331557414293
1731142902.683911,800.0533435324287,821.2674849489997,807.2940040413405,774.7824084406657
1731142902.6878128,816.4907875065674,820.4873549340766,803.8596942333807,774.4131373376432
1731142902.6890793,829.9094013870396,818.1513015965573,800.6974097030435,779.832971767866
1731142902.691714,824.3378632698889,814.756216360129,796.7144660010786,782.8323975669257
1731142902.6927369,799.7329280030041,811.5598330627059,792.9472257962765,779.6674194537701
1731142902.6956153,772.7721261926589,809.683698034517,792.0326956787924,773.4262870463372
1731142902.696466,763.4108046224115,809.4156165002399,795.8375135635521,770.3789538201711
1731142902.6995163,778.233987955264,810.2628414876998,803.4392612161986,773.9158950499514
1731142902.7034178,804.5128564781825,811.5704152296624,811.3189595277885,781.4568428200844
1731142902.704671,820.2230819315503,813.0145938982818,815.6653352496638,786.7897271736297
1731142902.7073193,812.0410550791643,814.5015636085514,814.8999590713636,785.5268795057788
1731142902.7112205,786.415546783534,815.6941763961369,810.4172845658908,778.8647092610015
1731142902.711625,764.2915707615202,815.8190431510498,805.1102130686537,772.5047621825221
1731142902.7151215,763.7186466261963,814.1250086014472,801.0980554922616,771.785922803643
1731142902.719023,784.8820856776586,810.6659304594351,798.5761140901774,777.2040262859446
1731142902.7202623,810.0634958228632,806.6696367834832,796.4946784767109,784.0553020665948
1731142902.7229245,818.374231914955,804.0325959983572,794.0669971100089,786.4538126275609
1731142902.7268257,802.8165363091017,804.2000638132896,791.5362085749922,782.382111451763
1731142902.730513,775.7014849226765,807.2296393603203,789.6373472175909,775.6162690345521
1731142902.730727,758.4378727770091,811.7344386606308,788.6061536100588,772.8712531454918
1731142902.7313864,764.3627446197025,815.7372380538858,787.9251784895944,778.296846381415
1731142902.7346282,788.385217498637,817.7876063868582,787.0371562310789,789.6158564144446
1731142902.7358537,811.3667966352932,817.5618152603781,786.1643642035918,799.1326514235169
1731142902.7385294,815.4863391991053,815.6585411370681,786.3141042915005,799.2545426390058
1731142902.7424307,798.3464853927304,812.9501733680764,788.4446116837253,788.5630846351199
1731142902.7463322,774.6353756243628,810.0844544903837,792.5668348564915,773.6074136323449
1731142902.749401,764.0457271113214,807.4256971792348,797.5214137556809,764.5400298094513
1731142902.7502334,775.2517964545228,805.2554878001328,801.5357737677937,767.5988271463657
1731142902.7514453,799.021658427955,803.8747817149113,803.130488409484,780.3441653971729
1731142902.754135,816.0480037492475,803.4622352261783,801.8410592065272,793.6853774698698
1731142902.758036,812.9216028357415,803.8709609932457,798.4125938718286,799.2107412570298
1731142902.7619374,793.0481276372113,804.6429116996039,794.4102955017727,795.7520257982216
1731142902.7658386,773.7017904409147,805.2863255771654,791.4748684646011,789.6340648165283
1731142902.7663069,771.8878096097585,805.5626968556087,790.6176842818188,788.4936460252662
1731142902.767037,790.5791872279187,805.5325470225142,791.8792122257054,794.1950576155192
1731142902.768289,816.2456167064264,805.3875978971479,794.4426251314882,801.1576626057137
1731142902.76974,829.4977378142713,805.2741820513179,797.1015533149832,801.5945223362697
1731142902.773641,820.4329590158311,805.2335442603301,798.8790636037704,792.9850600963528
1731142902.7775426,796.5139257819093,805.23789160433,799.5028846358434,781.0027347477699
1731142902.7814438,776.467743002101,805.2477403771643,799.4233256367418,775.0198404762468
1731142902.782628,774.8983323933693,805.2434516410283,799.3130357748495,779.9351153240827
1731142902.7853453,790.2910520163379,805.2262498440947,799.4449948616156,791.5682886745587
1731142902.787177,806.6773930974751,805.2055796891665,799.5439252785484,799.9306508431772
1731142902.7892463,807.7414738689349,805.1885204900161,799.3020894076398,797.7605058783415
1731142902.7931476,791.3378799883648,805.1767088336659,799.056574446708,786.9904197976434
1731142902.797049,771.8919447113377,805.168414463482,799.8715019925538,777.5222775075614
1731142902.7982194,768.4973521512076,805.1615350715836,802.7814983619326,779.2339606879144
1731142902.8009503,788.6419607319489,805.1551151353219,807.7625076331461,793.7539374883977
1731142902.801227,821.0724929633659,805.1492814653316,813.3379160708929,812.5990268167052
1731142902.8048515,843.7505351323232,805.1445386241091,817.2932139928707,823.1233128408797
1731142902.806065,840.725234519463,805.141229613223,818.1066957860559,817.7610081384903
1731142902.8087528,814.6648936746442,805.1394046629291,816.0573421523872,799.7065897993976
1731142902.812654,785.0207478904858,805.1389472355244,813.0652712961447,780.8456790047218
1731142902.8138113,772.9369449812141,805.1397313411969,811.215084764302,773.3762757416124
1731142902.8165555,784.7212898134553,805.1416935064299,811.0298630522976,781.220497086348
1731142902.8204567,807.3078484914934,805.1448233521453,810.9573072147623,797.614454367797
1731142902.824358,819.6220151174024,805.1491267778066,808.678725272925,810.6735501555175
1731142902.8249536,810.4755051570633,805.1546029767245,803.3067854623893,812.543937216694
1731142902.8282592,787.977784216877,805.1612426948175,796.6105332839494,804.9205101744658
1731142902.8294024,772.6481293371885,805.1690324337034,792.0276384042265,796.7287854235668
1731142902.8321607,780.2150798707211,805.1779484220158,792.0298706818759,796.1985264279473
1731142902.836062,808.4677992097938,805.1879408967408,795.9319922061516,803.9981799373577
1731142902.8361478,838.6779304998895,805.1989307392444,800.0978949240751,812.9431831994693
1731142902.8399632,850.0087117987348,805.2108471699411,800.6349781497842,814.254236557726
1731142902.8438416,835.2536788007844,805.2237069949207,796.5334162544748,805.1091536769753
1731142902.8438644,805.7872902918596,805.2376728226368,790.6524367928733,791.3846054629602
1731142902.8449938,782.3201909546384,805.2529753830778,787.6062051579008,783.4192018384983
1731142902.8477657,778.92407111522,805.2696318183954,790.1715084999638,788.1262319816454
1731142902.8516672,792.782213636552,805.2870992177567,797.1277273628174,803.6129335820091
1731142902.8555684,807.5808622184998,805.3042818419439,804.2608345152671,820.4866091007984
1731142902.8594697,807.6873156045677,805.3203511366129,807.602917940866,828.7932822123829
1731142902.8605857,791.5625869910759,805.3362647735597,806.186779191308,825.1653092445107
1731142902.8627295,773.3505324935927,805.3557037914833,802.2097862476196,814.6926485932985
1731142902.863371,771.1345250232023,805.3832938571845,798.8151324982647,806.2321091810109
1731142902.867272,791.3028364432105,805.4190946857809,797.558335870479,804.9664280379792
1731142902.8710682,821.9266762551032,805.4524210301377,797.5507288404299,808.158892193277
1731142902.8711736,841.137375459614,805.4631004314795,796.6417155957447,807.6729043545402
1731142902.8750749,834.4769015295869,805.4382335124883,793.3811197019926,797.5910401148432
1731142902.8761768,807.4731618686366,805.4007463458807,788.1401146850679,780.927268827826
1731142902.878976,782.6738532010469,805.4241454234188,782.7155258364558,769.4477560693991
1731142902.8816175,782.3861296763303,805.5945671125585,779.0389898712762,775.580356496738
1731142902.882877,810.309807132192,805.9079701117507,778.162565103961,801.9662817012943
1731142902.8867788,847.1984545293681,806.1738716615203,780.1578006247444,837.1070619709794
1731142902.89068,865.0601461936653,806.0751109959804,784.6081790897704,861.6902812808012
1731142902.8917682,849.1394179324217,805.4437420623261,790.9664779033568,861.8087129338444
1731142902.8945813,809.8245838741068,804.5302531452526,798.4718840285349,839.0863291220752
1731142902.8984826,774.4494084322057,803.9130101440942,805.9563706770975,809.4359930087404
1731142902.9005058,765.5908423282699,804.0174784799545,811.9974051366272,791.0995014674784
1731142902.9023838,783.6812507080507,804.67024376317,815.4748917632546,791.4410321926326
1731142902.9059887,807.9335039545311,805.1359412304823,816.1830918327398,802.9709836922934
1731142902.9062853,814.2377748417251,804.6423797378005,815.0747498213178,811.2628302971287
1731142902.9073598,794.9332012701564,802.9673349491125,813.9032825713731,807.5497496884302
1731142902.9101863,764.3801663384062,800.6329147226731,814.3372453368285,795.3320739981882
1731142902.9140878,746.3923075598568,798.5968372595325,816.9909383027577,786.0150783258745
1731142902.917989,754.5532106070015,797.7009207805906,821.0351267716891,788.1787217704299
1731142902.9193938,781.8641177662654,798.2353548422356,824.7763598951975,800.1494748239171
1731142902.9218905,807.7528707638986,799.8130762910922,826.8437027329609,811.9921772070026
1731142902.9229512,815.6767868613326,801.5596176687658,827.0357382798501,814.4840906789502
1731142902.9257915,806.1170164575221,802.5420024960974,826.127916391469,806.8251879556984
1731142902.929693,794.5315832193177,802.2846560235197,824.8925621213455,796.5890402897963
1731142902.9335942,797.0235721049595,801.0865636985723,823.3191752856171,792.6068219243983
1731142902.9374957,816.4444088202557,799.8493086667208,820.7891699155147,797.4560516231061
1731142902.9382818,840.3552359610634,799.4340066483184,817.0075013481298,805.9836273260534
1731142902.9385426,851.7970742192745,799.9937128722197,812.782012444184,810.6329630114184
1731142902.9409091,843.4884659589535,800.8290967705618,809.8928207959484,808.5592412744754
1731142902.9413967,823.8797541376132,800.90980836821,810.057598964798,804.361062194979
1731142902.9452982,810.3095116902882,799.6355817868323,813.6874470271449,806.1911695801557
1731142902.9491994,814.741319386553,797.2195103025075,819.2957261158745,818.5231405292697
1731142902.9531007,833.6032504229431,794.4495692203625,824.0514075993055,837.5738071127655
1731142902.9541342,850.3304661358544,792.14977010526,825.2887014876756,853.2626316379313
1731142902.957002,849.0174190192532,790.8468903810697,822.1313069980621,856.3356641327834
1731142902.95717,828.0860003348538,790.7969840196723,816.1543686992849,845.1199155659613
1731142902.9609034,802.3718764128073,792.0875094436957,810.4743826473793,826.6841523256813
1731142902.9648046,791.5228990190113,794.5327573077831,807.6966540470922,811.6433293736441
1731142902.968706,804.143017527287,797.483115224913,808.0907593269488,806.7389930214874
1731142902.9697256,830.6972442762874,799.9258322981883,809.3970988950371,810.7664702452921
1731142902.9726071,850.8567444123837,801.0043532550783,808.5761750702063,816.5366317533607
1731142902.9758296,849.23414183176,800.5936460073308,804.317773400221,816.9353658181288
1731142902.976058,827.0646926235632,799.4117884551315,798.3975444829226,810.3601108650591
1731142902.9765084,800.9211461053977,798.5325093837554,794.6813042737731,801.626728894376
1731142902.98041,789.6735039256616,798.7024492394544,796.3257188607477,797.9205061610537
1731142902.984311,799.8891005672003,800.0011629177649,803.2240150655816,802.989841923221
1731142902.985317,821.1383756487452,801.9890531048167,811.7479963687529,814.0774013939206
1731142902.9882123,835.0266173356948,804.0236653340123,817.1687865427413,824.045059632343
1731142902.9921136,830.6924006978151,805.4071207008473,817.0141475572335,827.095817738932
1731142902.994946,813.9032252682396,805.4229178632828,812.7701129172912,823.5000217973329
1731142902.9960148,801.9530331708278,803.5734821950666,808.5513555702806,819.3467884339235
1731142902.9999163,808.5620799323247,800.0609166197953,807.7564385488654,821.3149563356428
1731142903.0009086,831.6547893604011,796.0700675145348,810.3706074302304,830.6662350451844
1731142903.0038176,854.5359995682694,793.3642452556994,813.0841281627609,841.5494413729531
1731142903.0077188,859.5567819520631,793.2766617337493,812.10043812239,845.3013309669143
1731142903.01075,842.7742238014554,795.8216345807758,806.3069394455121,837.41449973158
1731142903.01162,817.3586161205023,799.6602223160734,798.2298221551374,821.4721090045186
1731142903.0138342,802.9612458610785,802.9732169771061,792.0760567774406,806.7593675053128
1731142903.0155215,809.8390890102295,804.5703909586883,790.5420351414444,801.4633722491978
1731142903.0165,830.7824140241353,804.4582110255915,792.9614744785554,806.9543570609192
1731142903.0194228,847.5000666263181,803.603762022294,796.1374088033956,817.621071170267
1731142903.023324,846.2184887333369,803.2187810911797,796.9800066121737,826.0416953157737
1731142903.0272253,829.4515359079032,804.0821173679226,794.7219264709987,828.8934937259502
1731142903.0311265,813.871367329791,806.2354961463711,791.0631453181943,828.6497770716466
1731142903.0320914,815.8908297564391,809.1040087941029,788.4782824044493,830.0340157609921
1731142903.0327222,837.152630672563,811.8850146253221,788.364915366687,834.8494079971058
1731142903.035028,862.3406989036556,813.9454177202372,790.5055222885402,839.9999413417404
1731142903.0389292,871.3101068672489,814.9973433208503,793.8810237940921,840.3665277399742
1731142903.0428305,855.4999698750282,815.0059909818559,797.7135644430256,833.7812800036422
1731142903.0456705,825.1269118573139,814.0025859751795,801.736622323526,823.5975725815398
1731142903.0467317,801.3637466058824,812.0267785164198,805.7182465735757,816.5381359989547
1731142903.047683,799.9112206108181,809.2495704075835,809.0366622707951,817.5064116439534
1731142903.050633,819.1140957772127,806.1096765074126,810.919839482108,825.5486511299256
1731142903.0516102,841.9366420237977,803.2604571491157,811.1499860519386,834.284146861838
1731142903.0545344,850.0298312293161,801.3053364120094,810.4848125765858,836.639990051667
1731142903.0584357,838.5331968291803,800.5136877496421,810.2724922745863,830.3128186240328
1731142903.0623367,819.6415036408231,800.7454601443643,811.4694394877886,819.6837756327799
1731142903.0632744,812.0010790208321,801.6316560843019,813.8273782871807,812.580604570983
1731142903.0662382,824.6664913425269,802.8275212465152,815.9379855789921,814.3118097874609
1731142903.0701396,849.0092415321927,804.1019943050699,816.1863228066974,823.5886840330087
1731142903.0704982,865.431068658269,805.2156313905396,813.9529980837916,833.5057964261025
1731142903.074041,859.3777354944716,805.7863185178037,810.1586211777055,836.815147360129
1731142903.077942,833.4880142605407,805.3805703988097,806.6851674994783,831.426727362275
1731142903.0788658,806.0547314174864,803.8338028295993,805.0386169536785,821.9371162733868
1731142903.080591,797.1306646152532,801.5274945970493,805.2008830096736,816.0540908035931
1731142903.0818434,813.2821850404235,799.3261882021576,805.5138950401649,818.6867110315277
1731142903.0857446,842.7950092126684,798.1434307886792,803.762300435593,828.2737598320215
1731142903.0893865,864.9122541775615,798.4199349649717,798.8562391578828,838.2130396544792
1731142903.089646,865.8393261918337,799.8851044376011,792.0623671520033,842.1995839291607
1731142903.093547,848.9465799702166,801.7682998674642,786.7972493050354,839.0210537942482
1731142903.0944574,831.0903741782071,803.2959933674372,786.7249882499335,832.7509350308194
1731142903.0974486,828.1197980445043,804.1115487563067,793.1429179927277,828.2989095396881
1731142903.1013498,841.5681473706254,804.338479117484,803.5586815929553,826.4976860173304
1731142903.1052513,857.585744099185,804.3027307383028,812.8683464733986,823.361540213647
1731142903.1082745,858.8820073826838,804.1918004681726,816.6084940924866,814.2706287396147
1731142903.1091526,839.5534679853943,803.9477591449916,813.9388306601999,799.2221691315818
1731142903.1100488,810.4379799406908,803.457376011605,808.0703944907517,784.2301989469413
1731142903.1130538,790.6729719726047,802.8144199297507,803.8358365386736,777.3168188108311
1731142903.1155114,792.4677831202011,802.3534576306131,804.2730768188566,782.2363937951422
1731142903.116955,811.4734159703793,802.3916959379993,808.7127816932731,795.103821591268
1731142903.1208563,830.4236369547888,802.942355395055,813.6202086973925,806.8417190060252
1731142903.1247578,832.821947857763,803.7078866614228,815.4009452171194,809.6529583872216
1731142903.1256402,815.244017432853,804.344292994327,812.9936113479207,802.3913115749723
1731142903.1271625,788.3338466848398,804.6809591594338,808.3057176579183,790.6207685649978
1731142903.128659,766.7778960398052,804.6695745431914,804.2865628263479,781.6914662202619
1731142903.1325605,758.1507557087273,804.207884539116,802.3806491651819,779.3176939102791
1731142903.1364615,760.0412441375449,803.1570153906266,801.6160386313451,782.0482441690676
1731142903.1403627,765.4180662897494,801.6167941732388,800.0927796072381,785.9412336485151
1731142903.1412318,769.0500989479089,800.1526826690911,797.4045252666051,788.1006472725064
1731142903.1442642,769.7240237498802,799.632645035847,795.6153750928579,788.0495188235545
1731142903.1460507,768.7486786696338,800.691125456755,797.7196956457833,786.8392501728073
1731142903.1481657,767.711234568383,803.2180611649645,804.8483290433509,785.607323449309
1731142903.150432,767.3306982552168,806.2956252342246,814.713605710313,784.8455019078264
1731142903.1520667,767.5049335463082,808.6622954753966,822.8115403291836,784.4698707650568
1731142903.155968,767.8430902118929,809.3913127265005,825.5754742008553,784.2045079281735
1731142903.1568232,768.0745746456935,808.3457259369555,822.9786448190945,783.8643731087905
1731142903.1598692,768.1496059780255,806.1642676592986,818.4511949747017,783.4194670101369
1731142903.163771,768.1444389723003,803.8443165027338,816.144900788999,782.925324203255
1731142903.1649387,768.1418678355053,802.2021067440356,817.7680043528624,782.4396256313337
1731142903.167672,768.1757767952389,801.5247911598085,821.5678486749384,781.9849944671234
1731142903.1715732,768.2378682753897,801.5888713093964,824.2086471443411,781.554904086436
1731142903.1724143,768.3069132696188,801.96062842711,823.805934416039,781.1344300805367
1731142903.1754744,768.3694060097371,802.307803804333,821.4165454352468,780.7144176758152
1731142903.179376,768.4236184218225,802.5178518263486,819.7651232946758,780.2939672096957
1731142903.1832771,768.4739861298374,802.6327516049246,820.6088480603361,779.8763456010261
1731142903.1838267,768.5248465860117,802.7313486790564,823.3511683725189,779.4646268657441
1731142903.1853523,768.5778114047447,802.8579945150678,826.0086108951664,779.0599401468095
1731142903.1871784,768.6323426796359,803.0141574679427,827.1238796568811,778.6619332208865
1731142903.1880062,768.6873463996369,803.1818490718432,826.6412221290982,778.2698986546312
1731142903.1910796,768.7422074180629,803.3459275449961,825.3812021145981,777.8834810921055
1731142903.1949809,768.7969376210386,803.5019306449585,824.1335128443694,777.5027625057902
1731142903.1988823,768.8518502284595,803.6527775323693,823.2153247669655,777.1280267661498
1731142903.2027147,768.9072339204062,803.8027415388808,822.553616761741,776.7595335131352
1731142903.2027836,768.9632307920227,803.954014117221,821.9568641532163,776.3974374688215
1731142903.2035975,769.0198787249503,804.1065289107933,821.3034217224969,776.041820852491
1731142903.2066848,769.0771983095407,804.2592968346108,820.5780387133306,775.6927540911585
1731142903.210586,769.1352439819398,804.4115563589656,819.8208167236198,775.3503301925971
1731142903.2144873,769.1941058136472,804.5631256038477,819.070600159549,775.0146653614818
1731142903.2183888,769.2538866178296,804.7141913365851,818.3414016850315,774.6858841841477
1731142903.2191887,769.3146829886587,804.8649877612846,817.6277754294154,774.3641085997482
1731142903.2202728,769.3765857533491,805.0156286269108,816.9192812757115,774.0494587452719
1731142903.221603,769.4396988789456,805.1661101408566,816.2098209334273,773.742061878959
1731142903.22229,769.5041602288986,805.3163855038257,815.498936967465,773.4420578702159
1731142903.2261913,769.5701366245614,805.4664236943082,814.788845857903,773.1495890518237
1731142903.2300923,769.6377722093616,805.6162247546096,814.081491328446,772.8647725890338
1731142903.2339938,769.7071078185805,805.7658067393949,813.3774475380483,772.5876754307584
1731142903.2347806,769.7780511578056,805.9151884596736,812.6763027136053,772.3183322739397
1731142903.2378953,769.850507308753,806.0643810672245,811.9774395427545,772.0568365135889
1731142903.240491,769.9246909643424,806.2133888561066,811.2804987842719,771.8034676191015
1731142903.2417965,770.001406714524,806.3622141292125,810.5854173148276,771.5587174372496
1731142903.2456975,770.0818474001031,806.5108615270153,809.8922593563194,771.3230429396006
1731142903.249599,770.1665644687695,806.6593394246482,809.2010634204054,771.0963419587797
1731142903.250372,770.2540087471401,806.8076574405216,808.5117904102035,770.8775464793761
1731142903.2535005,770.340192831788,806.9558205281214,807.8243473231826,770.6650804203728
1731142903.2551932,770.4214534092929,807.1038231862352,807.1386309778826,770.4586628899533
1731142903.2574017,770.5004097417461,807.2516510751145,806.4545581649073,770.2616200139912
1731142903.259379,770.590695996063,807.3992966988683,805.772075354199,770.0810189830431
1731142903.2613027,770.711961205486,807.5467849106498,805.0911495640241,769.9225402945139
1731142903.2652042,770.869494722864,807.694184457582,804.4117395789128,769.7805622553439
1731142903.2659633,771.027700256444,807.8415705199513,803.7337537026956,769.6315208862608
1731142903.2691054,771.1078183412573,807.9889277857151,803.0570252445517,769.4445439508581
1731142903.273007,771.0453730230141,808.136056042399,802.3813591212793,769.2168193974979
1731142903.2769082,770.903055471771,808.282618797473,801.7066768778644,769.0151080286355
1731142903.2782671,770.9484749718481,808.4284539386266,801.0331829683272,768.9712469675014
1731142903.2808094,771.5371154237671,808.5740424219367,800.3613410182726,769.177279969947
1731142903.2815547,772.7121461434114,808.7206632668658,799.6914430277136,769.499922166666
1731142903.2847106,773.7269453797097,808.8695933080926,799.0228572823746,769.4783198413913
1731142903.288612,773.081020888484,809.020247468034,798.3536214954529,768.5680861855952
1731142903.2901137,769.6953940610745,809.1685563600032,797.6814303768551,766.8480863420923
1731142903.2925134,765.0218635987081,809.3082507232689,797.0064318784089,765.8129219355482
1731142903.2964146,764.2326838605122,809.4370298448483,796.3341667031497,768.3412422345377
1731142903.2971463,773.769802108826,809.5650897917906,795.6745680540536,777.1343666235056
1731142903.2971551,795.2007999188893,809.7166337417966,795.033249230934,792.2816842571585
1731142903.300316,820.801081863064,809.91251894587,794.397512902091,810.0617845584791
1731142903.304217,837.4057265566847,810.1331961277314,793.7304155665082,824.7312169669786
1731142903.3081186,837.3567181904707,810.2864514868593,792.9921924016855,832.5758552284001
1731142903.3120198,826.5366734039422,810.2224465807107,792.1941648695808,835.0826962537482
1731142903.3127377,820.6828820832253,809.8152350352101,791.4497724128728,838.253582981838
1731142903.3159213,832.0623451563279,809.0742743537993,790.944473262104,848.0412677563575
1731142903.3160431,858.0660647857873,808.2191835324079,790.759860173145,865.2360437555743
1731142903.3198223,882.1254011793226,807.662240453395,790.6118650510231,883.9646051076137
1731142903.3237236,886.7745214548211,807.8684002527447,789.7622171368198,895.3834716743144
1731142903.325034,868.1984390956121,809.1202307077132,787.4388018637533,894.0509026562117
1731142903.327625,840.1500156912276,811.30513331217,783.7584978642307,882.1026179066322
1731142903.328329,823.7223724275673,813.8620912946607,780.4079515038843,867.8220672560594
1731142903.3315265,830.9861773288129,815.9213034249483,780.0572119120429,859.580157496543
1731142903.3349314,855.6425678777501,816.5634348237445,784.5353783899722,859.9654827962709
1731142903.3354275,878.3872568152351,815.1323136685579,793.2883188403811,864.8933004913739
1731142903.3393288,882.7712239577861,811.5671855894175,803.5924771199885,868.2877688755126
1731142903.34323,868.5376636745941,806.6294845359625,812.3007041296127,868.0187570348862
1731142903.3439207,851.2888289398115,801.7727904092527,817.5292211725258,867.6233566438348
1731142903.3471315,848.7955254686435,798.5196243660719,819.0448471766337,872.2739873053313
1731142903.3510327,865.6475726401234,797.6172196334969,817.5385903412849,882.9152447220064
1731142903.3538194,889.2454983111987,798.5748089305156,813.8738024845728,894.2318313635059
1731142903.354934,900.2846652087785,800.0143986669334,808.9877336904692,898.482466461957
1731142903.3588352,888.7264937018998,800.6459941096329,804.1150749772555,891.8497235286628
1731142903.359512,862.120204935937,800.1454301014319,800.6188359186496,877.8298363379979
1731142903.3599546,839.7989313347971,799.2639926611806,799.2898794715542,864.8561747889216
1731142903.3627367,837.8169123949975,799.1054251643175,799.7306035251924,860.0716950304834
1731142903.366638,856.5362443021553,800.159404205624,800.4991061012538,864.0578877324842
1731142903.3705392,880.5265409281186,801.8535681349941,800.0245314841218,870.5160592626362
1731142903.3727074,890.857624597472,802.9597734338384,797.6175053413381,871.2358404375368
1731142903.3744404,880.1402936184785,802.519702328371,793.8404203036974,862.7290629408687
1731142903.3751037,858.3048863237346,800.5675679449952,790.0638691790575,849.4131391685279
1731142903.3783417,844.3170535003342,798.1114720412269,787.6460219316914,840.5609739055202
1731142903.3822432,850.4330675171227,796.4280353348773,787.3008133260438,843.0772159668225
1731142903.3861444,871.9018456593606,796.2457070456667,788.8950521700876,855.8211798982285
1731142903.3900456,890.6859638473582,797.418643877403,791.6054827058906,870.2937136058847
1731142903.390695,890.196418032573,799.2264617988668,794.3349647125673,877.3100418036481
1731142903.3915956,868.9538855254269,800.92114843467,796.2594166417437,874.1466665994562
1731142903.393947,842.0467750786529,802.0483089788695,797.1885764887788,866.2136337618407
1731142903.394875,829.1965296517734,802.411820433465,797.4695847360184,861.9932204010944
1731142903.397848,838.9682078901012,801.9161216224445,797.5809363703696,865.6268913235568
1731142903.4017496,861.8099998440622,800.5560163630538,797.8091619087296,873.3221433117794
1731142903.4056509,877.7454123866025,798.580979789842,798.1956756386113,876.4204912125205
1731142903.4062865,872.7717378950431,796.6319611322884,798.6559932466928,868.49525739752
1731142903.409552,850.5718080864309,795.6224007970548,799.1060345102628,850.7148946737115
1731142903.4104836,829.5386310478196,796.3037176724347,799.5149872823652,831.2636691623976
1731142903.413453,827.2246587745009,798.7204390238603,799.8943658321625,819.3918013252028
1731142903.4173548,845.1836111301604,801.9634184440047,800.266737879991,818.8088625804596
1731142903.421256,867.189537825645,804.5530725717865,800.6453367135731,825.4948076128204
1731142903.421878,872.5876628964473,805.3398188983822,801.0311181587552,831.4419421324887
1731142903.4251573,853.6520038968829,804.2865468072712,801.4191634801318,831.1760549301101
1731142903.4290586,822.4425474790861,802.4462517694628,801.8051014565789,825.7739217326794
1731142903.4293716,801.4881525872182,801.0998047757389,802.1875268239235,821.1900002302959
1731142903.4297955,805.8923653987343,800.8269129903399,802.5671870062499,822.3908271502011
1731142903.4329598,831.210566742875,801.3235794194972,802.9452881556815,828.3190343717987
1731142903.4368613,856.7027876616905,801.9457354321598,803.3224814149892,832.1526316648237
1731142903.4374695,861.4557108867874,802.288214363198,803.6987752298134,826.969669667878
1731142903.4407623,840.7354585964592,802.3280616649339,804.0739002550415,812.2074935091779
1731142903.4446638,809.5518414240482,802.2366484033264,804.4476397501151,795.2497338370449
1731142903.4482598,790.4399739939422,802.1668961425753,804.8199372767776,786.317243203228
1731142903.448565,795.3086183943398,802.1699046837491,805.1908411214768,790.5667134939097
1731142903.4524662,816.2605926822241,802.2216187273509,805.5604160605919,803.9322846643727
1731142903.4530609,832.8612876540989,802.2808854265968,805.928702041272,816.2898683386969
1731142903.4563675,829.4861763112789,802.3249739264814,806.2957232168806,819.4278267876334
1731142903.460269,808.0882594227094,802.3532936242655,806.6615076009867,813.3302990608992
1731142903.4641702,786.0552716105615,802.3751461438553,807.026078734076,805.7592702417811
1731142903.464716,781.5712666106418,802.3982760221543,807.3894150532024,805.6406528320521
1731142903.4671478,798.8695893649157,802.4249213650165,807.7514201927017,815.6621297580851
1731142903.4680717,825.0863117775872,802.4535567646225,808.11197470668,829.9614297692665
1731142903.4686525,840.65985465074,802.4819941416323,808.4711007168229,838.6905306023948
1731142903.4719727,834.669843262172,802.5091297721573,808.8291433433772,835.8135287978204
1731142903.4758742,813.0222017731529,802.5350177171707,809.186722670577,823.855244320931
1731142903.4797754,793.1892012347041,802.5601779548036,809.5442206526321,811.6575870893793
1731142903.483677,789.8881750915245,802.5850080291196,809.9009331234499,806.9406232262243
1731142903.484244,803.409329056691,802.6096072727598,810.2546767642859,809.9179383410309
1731142903.4860358,820.1437572184689,802.6338886885075,810.603026488094,813.3591210206237
1731142903.487578,824.6445774121621,802.6577444193014,810.9465471699095,808.9312083967502
1731142903.4914794,812.8328664087843,802.6811294330431,811.2919671301134,794.34980636665
1731142903.4953806,795.1540413721725,802.7040554280454,811.6506031033302,775.450134677867
1731142903.499282,787.2435447527861,802.7265488963014,812.0280288350197,761.7715284610191
1731142903.4996364,796.2555015043087,802.7486234287869,812.4083955354124,759.4616959767013
1731142903.4998353,814.4101506167716,802.7702843595889,812.7491187538055,767.0077894869332
1731142903.5031831,825.0649775299848,802.7915530799058,813.00745522862,776.6989688939194
1731142903.5049238,816.3217956740191,802.8124801121821,813.2027874016401,780.386547588375
1731142903.5070844,791.1543049979815,802.8331165694277,813.4718993017752,775.239005512091
1731142903.510986,765.7401884292022,802.8534424370405,814.0290040836741,765.3992307067218
1731142903.514887,756.9741873560646,802.8733069085654,814.9666234848941,758.3946392169958
1731142903.5154269,768.9870103944854,802.8924849098987,815.9890237006549,759.0099632457633
1731142903.5187883,789.7558988898244,802.9109193514544,816.3790572572085,765.4549119467231
1731142903.5226896,800.9432630988598,802.9290407594947,815.4521940774121,771.0669665176185
1731142903.523812,793.0603944885071,802.9478012556032,813.2549217919887,770.2459819677505
1731142903.5265908,773.3248863394675,802.9679948276691,810.7863950078596,763.5214259489242
1731142903.5304923,759.554902381628,802.9889059118361,809.294626519618,757.2072268138503
1731142903.5310185,765.166828056801,803.0073602623457,809.1229851490087,757.8182855735444
1731142903.5343935,787.7571107979317,803.0190916943214,809.1852524457104,766.1273344910034
1731142903.5345569,810.6497895179375,803.0235102990911,807.7192886799834,776.1484278086102
1731142903.5382948,816.0543065685587,803.0294541543103,803.84305812006,780.0897876472633
1731142903.542196,799.1293358780102,803.0548725734183,798.6351736972814,775.1656051213218
1731142903.5427,771.7162986171849,803.1128657678286,794.7266405498359,766.4584287930852
1731142903.5460975,752.9064196719307,803.186320709083,794.532899696387,763.1592813914174
1731142903.5466096,754.0963902317917,803.2130239452331,798.3720831111598,770.9673289714771
1731142903.5499988,770.4663842348807,803.1172110381224,803.9397052029489,786.8185353715091
1731142903.5539,785.5338483658102,802.9045819765901,807.7179909576795,800.525343044824
1731142903.5578012,784.868918620881,802.7708261915916,807.4466261466074,802.3608480940943
1731142903.561588,767.7765368095384,803.0960509149949,803.8155569069904,790.5988478922241
1731142903.5617025,747.6406866215917,804.2194975394275,799.9389831466524,772.9097249747917
1731142903.5622013,740.955099740215,806.0962342889022,798.8663359220689,760.5776462953424
1731142903.565604,754.0589711718776,808.1663028100594,801.1202530895105,760.3724800539627
1731142903.569477,778.1249009362317,809.6655315691157,804.4256238784777,770.4998149146295
1731142903.5695052,796.1875814642036,810.1730992428035,805.975816355369,783.2451391348941
1731142903.5734065,796.506991921835,809.9175132016641,805.2242797974932,791.3598129850985
1731142903.5773077,781.627456612893,809.5770403829193,804.5348618264916,792.7125353222938
1731142903.5777926,765.874379038298,809.7602212648135,806.9248719726376,789.973485431817
1731142903.5804763,763.2564249236615,810.5948741551655,812.946042486646,786.6493815020285
1731142903.5812087,775.6629037203965,811.7194872004499,819.7269920212894,783.582493346773
1731142903.5851104,791.2803724181503,812.613856019326,823.2304420987185,778.9775929551322
1731142903.5890117,794.8109350511099,812.9308935900245,821.6422955411127,771.4736204291121
1731142903.592913,781.0301610935517,812.5370900504696,816.6608811145337,762.9894383156926
1731142903.593384,760.1076961589911,811.3111221780488,811.6634694430404,758.376397297942
1731142903.5968142,749.8971909319624,809.0580338679133,808.9202353970741,761.8810993275463
1731142903.5993645,761.3767966880685,805.801851820807,808.5031864082742,773.3715766663594
1731142903.6007156,789.1921148752308,802.2412991406308,809.1908913418249,787.6275291810757
1731142903.6043978,815.1026040533404,799.7866138369892,809.8333575659321,797.5073196489412
1731142903.6046169,821.7421106697392,799.8343040332667,809.9857121998342,798.6792584262257
1731142903.608518,805.894300068761,802.6783096177554,809.7697877320804,792.4070659196892
1731142903.6089756,780.7935547152114,806.985766861142,809.4702178225751,784.4017229452835
1731142903.6124194,765.5423292225624,810.4514136052951,809.2622543602463,780.6500063920763
1731142903.6163206,770.0256404235141,811.2593240047133,809.1641451139601,783.2415099557662
1731142903.6182525,787.5185021058641,809.2271615802241,809.1150981278446,789.1499596371049
1731142903.620222,801.0818164019526,805.7362897040693,809.0582871078398,792.8109917543574
1731142903.624123,798.4452911504916,802.5785953018933,808.9740860776658,790.6061665010003
1731142903.624567,782.8336437431343,800.7308546559831,808.8711214721328,783.8996039872768
1731142903.6280246,770.4747005677438,800.0157240802896,808.7647762924846,778.2586712662434
1731142903.6319258,776.7723455988564,799.7331538405358,808.6637297168115,779.3773569192714
1731142903.6358273,802.7508742709593,799.5002663205604,808.5683605513188,788.8240212789984
1731142903.6371405,833.1833552684366,799.4904698117302,808.475247822698,802.8926804394187
1731142903.6393182,848.1533309165685,799.9821556997892,808.3814799476854,815.3841958352256
1731142903.6397283,838.8457253686752,800.8465651946339,808.2861881488645,822.1080008401327
1731142903.6401584,814.8758280880562,801.6003821904353,808.189926698937,823.6506953282953
1731142903.6436298,797.0284487896947,801.965876793277,808.0935134564229,824.3261452333958
1731142903.647531,800.8731124924351,802.2737205993077,807.9973646851462,828.1309523744095
1731142903.6514325,824.3670629409203,803.1834160808554,807.9014647216771,834.9107497073339
1731142903.6553338,849.7365027067025,804.945077327842,807.805635969843,839.9815461830466
1731142903.65575,858.2618601145351,806.9588777020275,807.7097694617006,837.8454080014488
1731142903.6560285,845.655619929166,808.1070541587021,807.6138749673026,827.2031925111098
1731142903.659235,825.152293002572,807.5556196591415,807.5179854084006,813.0392926125014
1731142903.6631362,815.9196487146877,805.3016351108281,807.4220346397068,803.6197164165663
1731142903.6670375,826.775771877035,802.073879903021,807.325841373797,804.3797410353721
1731142903.6709387,848.8157763674479,798.8311880166734,807.2292812030171,813.4902453543904
1731142903.6713414,862.7446877352965,796.3536457491645,807.1325840985915,822.8580475657012
1731142903.6742387,854.5668295480793,795.132497559149,807.0364767425491,824.0669790665454
1731142903.6748402,826.8758097423444,795.3790815164996,806.9417718645556,814.7127220788997
1731142903.6749165,796.9228541916132,796.9460086252031,806.8482862899585,800.0928879404968
1731142903.6787417,783.1949825488539,799.2485697222256,806.7537783587642,788.8267382572304
1731142903.6826427,791.1559687586514,801.4459360770755,806.6544739140214,785.9257898646883
1731142903.686544,809.4345731605464,802.8868406954057,806.5485190016874,789.074797366166
1731142903.686933,819.5014896776861,803.4472348751526,806.4412193150034,791.2908314965989
1731142903.6904452,810.9747827369987,803.4525733622884,806.3468192551765,787.61394613432
1731142903.6938045,789.9636325457323,803.3241008154276,806.2796443851444,779.83068939245
1731142903.694347,773.552701906616,803.3054178252423,806.2333727708648,774.9168488597392
1731142903.698248,775.1191562747571,803.4259937307648,806.1628157315813,778.5631465560939
1731142903.7021492,792.8364923158308,803.6095417914364,805.9980048362295,789.6358725594195
1731142903.7025244,810.9225229657543,803.7835157264825,805.7129094900748,800.5810972702823
1731142903.7060504,812.477843270957,803.9228077289325,805.4211982431195,803.4555693704767
1731142903.7091591,793.3109014516883,804.0385552585077,805.3952129952932,796.3782037336019
1731142903.709952,765.6009224950142,804.1505739031452,805.877181778655,784.9998703708509
1731142903.7126927,748.5639622491545,804.2700505500493,806.6767964263051,777.9325781908949
1731142903.7138531,753.544547870607,804.3974843906558,806.8422705828083,780.0007075224496
1731142903.7177544,775.2666485997444,804.5284760675656,804.9359605693169,788.6795488640015
1731142903.7181158,796.180762531944,804.659275391921,800.2029155539499,796.313169164437
1731142903.7216556,800.530015663316,804.7887597174021,793.990301797398,796.138800058004
1731142903.7255569,786.87584064748,804.9176422949297,789.9076356641933,787.3620627437105
1731142903.7294583,768.9121048158023,805.0469848344919,791.7786482369354,775.510667836533
1731142903.7315807,763.9644419498843,805.1773404725845,800.5183233329587,768.1044908923732
1731142903.7333596,778.7602403988451,805.3087030745061,812.6282484915002,769.2517609690394
1731142903.7337074,804.1645681738979,805.4408344258043,822.0540389919023,777.3404289210631
1731142903.7372608,822.9031510754122,805.5735490315212,824.3070715442217,787.2700881229205
1731142903.741162,823.5646459797736,805.706802897803,819.67537163438,795.0137134623797
1731142903.7440796,809.348184490286,805.8406437562369,812.9555572427327,800.6343615175915
1731142903.7450633,794.6821924827997,805.9751346609262,809.8699559984243,807.3741871735572
1731142903.7489648,792.8004030907489,806.1103145772979,812.8821497988484,817.7492492260913
1731142903.7492988,804.5738771953568,806.2461965513521,819.5079136114027,830.0777628958016
1731142903.7504687,817.8157091407237,806.3827760353265,824.2750645492674,838.6056150040612
1731142903.752866,817.8127269919368,806.5200318536408,822.7883725186047,837.5367359584686
1731142903.7567673,800.5346905350102,806.6579277968483,814.8983479777867,825.9732190071064
1731142903.7606685,777.2770235989656,806.7964368962008,804.7341224439273,809.6577458423737
1731142903.76457,766.1339327148762,806.9355938912863,797.7033295020996,797.6435843637047
1731142903.7648902,776.829838785454,807.0755355262789,796.7473633452474,796.0850555742069
1731142903.7684712,801.6932186827919,807.216448145994,800.5812457273213,803.9233139538958
1731142903.769357,820.9714114585643,807.3583717710962,805.0632969965945,813.9623822357681
1731142903.7723725,818.6639530689463,807.5009543345618,806.4643048341217,818.5660009510289
1731142903.7762735,795.8881845957021,807.6434483637953,804.0524572091604,815.4883582087966
1731142903.779,770.505090216559,807.785277776269,800.0939580424531,809.2717145259003
1731142903.780175,762.97655592443,807.9271076134735,797.512094594996,807.2164223605546
1731142903.7804818,779.8082924384161,808.0715286484962,797.3050506638155,813.2152436125874
1731142903.7840765,808.0635154437731,808.2218503116093,797.8894325846545,824.3558951227085
1731142903.7879777,825.5674194508666,808.378246595232,796.8112703210096,832.95405403296
1731142903.788245,818.7163460855575,808.533344745975,793.2441246053886,832.4043042707776
1731142903.7918787,793.5327733302976,808.6729257756313,789.0703700958151,822.2608528848996
1731142903.7957802,770.9560817457703,808.7874854744682,787.58596090797,808.5777002481523
1731142903.7960732,770.1222782262723,808.8922133437349,790.8764159839226,799.2644056837752
1731142903.7996814,793.152145768459,809.0373797217194,797.9856905989416,798.1382702943029
1731142903.803583,823.6554004395853,809.2808979294249,805.310921677047,802.3829866207503
1731142903.807133,839.9011778817039,809.6115114105413,808.9002569654541,805.4165288736394
1731142903.807484,831.8221194198421,809.8648940294855,806.9942939008547,802.8327352869542
1731142903.8113854,808.3224133230477,809.7333015355289,801.1515212954198,796.5396750798167
1731142903.8116646,789.5275415135665,808.9421562023076,795.3628927729845,793.5503796655163
1731142903.8139205,790.6078675714263,807.4920703224795,793.783312523084,800.1597043701803
1731142903.8152866,810.0818393889475,805.6998615949891,798.4054089559604,816.1550611625865
1731142903.819188,831.5773043208692,803.9163171040442,807.9706186545397,834.0283088353088
1731142903.8230894,837.3278364887407,802.1905128998911,818.7202452590886,844.3034238224874
1731142903.8260212,822.484805724123,800.2830333074933,826.5184320418275,842.9326806208823
1731142903.8269906,798.7181294926955,798.0654355930407,829.0246931126271,834.6001296269018
1731142903.8272562,784.2344029112149,795.8958170476396,826.5842748453338,828.8958690934531
1731142903.8308918,788.5418887322887,794.5449963969212,821.418831378848,832.3642575243748
1731142903.834793,804.7441262825582,794.6756256696882,815.8871420901592,843.1473835502551
1731142903.8386946,815.7878065860751,796.3081621331042,811.1676456394753,852.841343739292
1731142903.8425958,809.1927084085672,798.7344204491948,807.2603299771291,853.9305918186029
1731142903.8428476,787.7034468840399,800.959071638393,804.0504498432215,846.3040400601841
1731142903.8449092,767.117858690502,802.3195784019296,802.2411413968191,837.217108118867
1731142903.8464973,763.6057001420015,802.8141362490676,803.0975154715856,834.7964773170933
1731142903.848841,781.3941800733752,802.9239197284035,807.134403908598,840.7127293470544
1731142903.8503983,810.7019893822155,803.1295485727649,813.0572873355142,848.3221238108895
1731142903.8542995,836.5183433938656,803.5565354846487,818.2072788479038,847.9862874019833
1731142903.858201,849.6282577929541,804.0159210224803,820.3637341192232,835.2580212516036
1731142903.858439,850.6904065406245,804.2917896857116,819.3385134471448,815.1061791805811
1731142903.8621025,846.1274725503952,804.3375150420247,816.8596208203564,798.4998301824706
1731142903.8637972,841.80757217174,804.2498741672241,814.8501451949321,794.0073843421816
1731142903.8660035,839.9895879547006,804.1453018067511,813.7603161186319,801.2983011463565
1731142903.8699048,840.0457372856291,804.0819373534823,812.4874962856542,811.8723071879866
1731142903.873806,840.5245232390666,804.0584862873936,809.7663962686113,816.2365836441788
1731142903.8740306,840.5354442151566,804.0495480835559,805.4948544143336,811.3822391259965
1731142903.8777075,839.988224606942,804.035434414208,800.7123684259476,802.4323437410538
1731142903.8816087,839.1938711347879,804.0112771293374,796.4590699040041,797.5582188320752
1731142903.8826852,838.4418887018621,803.9816375869426,792.8489195736324,800.9126216265335
1731142903.8837614,837.831804770212,803.9522829597504,789.3247501599952,809.5618133329144
1731142903.88551,837.3193964245006,803.9258932211903,785.7434930125028,816.5835617590691
1731142903.8894112,836.8263586768203,803.9021432919321,783.0535710754698,817.2704441672289
1731142903.889622,836.3087302493733,803.8796154570613,782.7168522100262,813.0638088133376
1731142903.8933127,835.764841315347,803.8573038398614,785.2931964936946,810.0074481371782
1731142903.897214,835.2123005039751,803.8350035275165,789.5428822061735,813.1684259419815
1731142903.9011152,834.6660532168318,803.8129771490868,793.0881474519606,821.8408959989655
1731142903.9015734,834.1306118188953,803.791519318017,794.3070349987728,829.6928221520064
1731142903.9050164,833.6032363401935,803.7707495929304,793.9070264181692,829.8333577366874
1731142903.9052134,833.0798392012227,803.7506333174074,794.6903313959912,820.571870903649
1731142903.9089177,832.5583700872509,803.7310873158219,799.4254778402326,807.0365956220814
1731142903.9128191,832.0389896087449,803.7120552126304,808.3523769711238,797.3461109359201
1731142903.9167204,831.5227324182441,803.6935212857906,818.3167367771323,796.5675123719195
1731142903.918682,831.0103461308978,803.6754886006297,824.4124770549387,803.3289942485746
1731142903.9204614,830.5019627061145,803.6579573823542,823.1440680820834,811.4942290941775
1731142903.9206216,829.9974156335708,803.6409221161437,814.9251795824564,815.1507590548844
1731142903.920805,829.4967181998927,803.6243835938269,804.0902500022746,812.8256314028971
1731142903.9245229,829.0002727992187,803.6083574894642,796.267269133297,807.8688965756198
1731142903.928424,828.5085700799114,803.5928598186314,794.8133535116924,805.1127312784861
1731142903.9323256,828.0214543292748,803.5778665935585,798.7533108707626,806.6935164090316
1731142903.9362268,827.5375213495263,803.5632787048487,803.663360596389,810.3953723439004
1731142903.9363964,827.0546235033286,803.5489523968873,804.8408442491559,811.8132354249985
1731142903.9393494,826.5721232612555,803.5348371232435,800.4731361886712,808.5772688540968
1731142903.940128,826.0938965537001,803.5211610577467,792.6276930947816,803.1370743692959
1731142903.944029,825.6287207282046,803.5084567763311,785.584551118354,801.590838545376
1731142903.9479308,825.1840368059746,803.4971776940976,782.933910185385,809.1042385458844
1731142903.951832,824.7533805885263,803.4869203622914,785.5346588216829,825.2686243237198
1731142903.9519875,824.3073585478553,803.4758607039581,791.5220163249257,843.1034205246505
1731142903.9536023,823.8059850740264,803.4615077491533,797.955047100435,852.9641807580308
1731142903.9557333,823.2427796807781,803.4434271783142,802.6921211159281,849.0571440961392
1731142903.9582376,822.6986534906277,803.4265895121289,805.2644580873052,834.0306062431906
1731142903.9596343,822.3402504766236,803.4213076949572,806.4655571219407,817.9143222330312
1731142903.9635358,822.2915150563408,803.4353410560296,807.2623376786461,811.4285771105558
1731142903.9674373,822.3971466543607,803.4592849353695,807.9343591012891,818.1059596322416
1731142903.9675794,822.0787840424737,803.4576779202748,808.0214296174281,831.2611215713837
1731142903.9713385,820.6172036610252,803.3866454331769,807.0047959669047,838.6438642017401
1731142903.9752398,818.0191504595873,803.2485764390386,805.1010927993592,831.6104145686094
1731142903.9771256,815.9956937418434,803.1563791138773,803.4624370130012,811.7590829707361
1731142903.979141,817.8130862397563,803.3355457470614,803.5059379730504,789.7557926320495
1731142903.9830422,825.8457567232797,804.0060029952134,805.7735750054812,777.2896933593661
1731142903.9831707,837.6741784251519,805.2032383567519,809.199755089205,778.6148596594254
1731142903.9869435,844.775609038315,806.7094946388239,811.5293640400437,788.3289739810047
1731142903.9885228,837.7689459594797,808.1781068571214,810.8229909007774,796.7771567138842
1731142903.990845,815.582451578416,809.3154542063222,807.0260297199774,798.2128854051318
1731142903.9947462,789.290309599134,809.9435912364028,802.3034584020764,794.8461343651442
1731142903.9960136,774.7584030080906,809.9571345105619,799.6631327244938,793.7231812815581
1731142903.9986477,779.5573732737838,809.3200337924188,800.7637472201599,799.6188239950565
1731142903.998762,796.1578919373168,808.1453962273176,804.5867512806254,810.4018053759105
1731142904.0025487,808.1446588095458,806.7340558486119,808.0964620560129,818.9045284072639
1731142904.0064502,804.385116677221,805.4621107115754,808.4791712020607,819.4158724845919
1731142904.0103514,788.7489305562502,804.5905898262628,805.2733107664781,812.8224031907537
1731142904.014253,776.7212333184685,804.1726599493627,800.7590382791007,805.8145824184103
1731142904.0143538,781.7584116330281,804.1179871513807,798.339864681765,805.0578402670466
1731142904.014902,803.2170567137782,804.301936318897,800.1914006873502,811.6383945846367
1731142904.018154,826.2595041937395,804.6041615624146,805.936013821816,820.5021526469146
1731142904.0220554,833.8300646754698,804.8993500376423,813.2137934688668,824.9681362775272
1731142904.0234432,820.6775621510191,805.0816979469872,819.5276091380829,822.1747440434248
1731142904.0259566,797.8365265143416,805.1161039877132,823.8153476854051,814.993262555404
1731142904.029858,783.906309491439,805.0449724906757,826.5471956498396,809.2354617987293
1731142904.0299451,790.2331675801283,804.9387899857051,828.4709510353524,808.8036815154506
1731142904.033759,812.0190325469644,804.845331862679,829.3293037399011,812.7977770577144
1731142904.03379,832.5324180573086,804.7757660858227,827.8899416092148,816.7489202441435
1731142904.0376604,836.9057223908912,804.7195205521426,823.3777221747048,816.7383685763532
1731142904.0415618,824.1676237827795,804.6635964319368,816.944865530764,812.8427720499526
1731142904.045463,807.6437206235548,804.6021709844119,811.5415686369173,808.9284018449125
1731142904.0455365,803.4888733546875,804.5361714144915,809.892317281956,808.9067987922558
1731142904.0493643,816.8990539589589,804.4688514482801,812.1470276345394,812.7062219377499
1731142904.052678,837.3794834668547,804.4024290080615,815.3765989418409,815.6959495235901
1731142904.0532656,846.9683425716471,804.3372858566499,815.6643052364852,812.4941997281553
1731142904.0571668,834.833066907503,804.2727701591258,811.2688513299562,802.2065780663644
1731142904.0583637,806.5650691161527,804.2081870758149,804.2677237139347,790.4978514202747
1731142904.0610683,780.6110730659875,804.1432513606921,799.2391751661391,786.1179200666294
1731142904.061128,774.3168437393551,804.078025921704,799.9293108998911,794.0399403082181
1731142904.0649695,790.3643475051509,804.0126778221588,806.4591517083467,810.5824849084416
1731142904.0688708,814.4643824890135,803.9473083664936,815.1782139098617,824.8861766428303
1731142904.071566,826.5374418844608,803.8819214173187,821.2011104144015,826.2812497239184
1731142904.072772,816.6856791858238,803.8164711319736,821.635843543254,812.1515199078183
1731142904.0766735,792.9457544302701,803.7509138931639,817.0901265958688,790.1040330634196
1731142904.0767195,774.2791485099011,803.6852289009254,810.5243907297092,772.5909214618538
1731142904.0805748,774.5882407535753,803.6194114014849,804.6871236021616,768.1392830433986
1731142904.084476,791.2030981176713,803.5534580809734,800.3941251575908,775.9481643651902
1731142904.0883772,807.4197264430613,803.4873600396897,796.9255589559804,787.6742622796443
1731142904.090454,806.6813117055807,803.4211075394393,793.7674442179222,794.438571718609
1731142904.0922785,786.4141583990588,803.3547003356739,791.757712213025,793.3235966811205
1731142904.092311,760.2662210508132,803.2881508990893,792.4515938872455,788.6037415479477
1731142904.093284,747.2390409714185,803.2214687285473,796.354647770973,787.3355449459498
1731142904.09618,756.6332481604331,803.1546275308607,801.7958176941205,793.1273889378834
1731142904.1000812,780.830910687281,803.0875425213009,805.6480575794493,803.0044435327515
1731142904.1039824,801.6410443536996,803.0201043571591,805.4585859122909,809.759292140146
1731142904.1078837,805.0803086840942,802.952294599457,801.3046492225454,807.8927402840776
1731142904.1079023,792.4983147699436,802.8843222459376,795.8730968599726,798.3329321494884
1731142904.109342,778.7841405833492,802.8166105885493,792.662831580083,787.9654157328583
1731142904.1117847,779.118730283224,802.7494551047844,793.6529333579145,784.2055913546252
1731142904.1156864,795.4882004986664,802.6824135487573,798.1381111428832,789.0405109714014
1731142904.1195877,814.4795624106915,802.6139597632455,803.4938425807156,797.5049100338623
1731142904.123489,818.3397845674182,802.5422544010157,807.1725495842293,801.855277488586
1731142904.123494,800.104808512539,802.4673940520602,808.3759198462076,797.9579498874209
1731142904.12739,770.3013322939312,802.3938313364571,808.2248995769751,788.6816806830717
1731142904.1282046,749.7246536577233,802.3296776957658,808.4957549789222,781.6608433854158
1731142904.12823,753.902248411411,802.279776511464,810.0558379387713,783.3136196135472
1731142904.1312916,781.2311534912533,802.2343808538716,812.2045288744123,793.8466181675174
1731142904.1351929,813.9820035312873,802.1641523370166,813.3018377866836,807.1536124878307
1731142904.1390853,831.6866174062862,802.0374070841295,812.1067642876687,815.7180061002722
1731142904.139094,826.7774960373458,801.864882807297,808.8149905490408,816.6072773350633
1731142904.1429954,810.0449023462913,801.7460190475302,805.0508433267729,813.5568822533463
1731142904.1468966,801.1454570204952,801.8593619257209,802.8006167313131,813.229957155645
1731142904.1471183,811.6755766074616,802.3611667327601,803.0236734499503,818.7725654817443
1731142904.150798,834.9306386613567,803.2595260559727,804.940924012023,826.3726952822897
1731142904.154677,851.1416201982437,804.4089630257588,806.5428967524014,828.0900422434252
1731142904.154699,843.936493161814,805.6596056187599,805.9942229499414,818.7429022926192
1731142904.1586006,814.3243651584711,806.9835667822739,802.9886500955253,801.0214097760428
1731142904.1625018,780.7143246692324,808.3924992856511,799.1442717353103,784.4387351128107
1731142904.163125,765.095889797633,809.7155747482018,797.1231291621989,778.8225616295742
1731142904.1660063,776.5098830855318,810.5203205396498,798.9395249060902,787.3391322994961
1731142904.1664033,804.6164281032965,810.3520589123667,804.5122397353684,804.2009517341335
1731142904.1702683,827.9559681814715,809.1276312650133,811.5370408785276,818.5782073052684
1731142904.1703043,830.2666584303627,807.3128882378109,816.9486637537287,821.8274974802536
1731142904.1742058,812.307292191085,805.687291672232,818.9650734266636,812.9817850655143
1731142904.178107,790.1950375990685,804.8825384644759,818.0597452741378,798.7756061734719
1731142904.1820085,781.7739268667476,805.0700903737647,816.0489060295522,788.3998018371734
1731142904.1848943,792.0830378223543,805.9865936390387,814.2220428139681,786.9917792700139
1731142904.1858597,809.7566423663503,807.1590248283117,812.3549051924872,792.6615731154435
1731142904.1859095,817.1348136996488,808.0749258343789,809.5062745298284,798.9280384598553
1731142904.189811,805.4491445784515,808.2194876987213,805.6498434349705,800.2063043449277
1731142904.1937122,782.3860246129731,807.1305618080389,802.3511300671416,795.9162954857727
1731142904.1976137,765.9313673181712,804.6270401752965,801.6927446806448,790.3123639953407
1731142904.1980455,769.7938181767184,801.1210770257987,804.4092923378862,788.6675502103955
1731142904.2014513,792.3210580097433,797.6879861650708,808.980018377173,793.0730315556812
1731142904.2015147,817.6732911600332,795.6343946969185,812.5804322034612,801.0616087001316
1731142904.2037826,828.1931848942164,795.7053025999959,813.1716019555669,807.9160463129282
1731142904.2054162,818.2032673504639,797.4838104932414,811.0159149116846,810.6961157640702
1731142904.2093174,798.2913292044656,799.5392802642442,808.3302372672753,810.6699434040528
1731142904.2132187,786.4667294799509,800.3508097410577,807.2931159486297,812.0203645979149
1731142904.2170427,793.1549973739142,799.3623890973703,808.0426840774101,817.7785970761369
1731142904.21712,812.4522834086174,797.3358260704375,808.4256778629403,826.5370211329362
1731142904.2210212,827.2266550844382,795.710130281322,805.8343349180443,833.1181663822684
1731142904.2226706,823.9444228423338,795.5059138991467,799.6256136276938,832.9479125187528
1731142904.224923,804.5610108197732,796.6688460172635,792.0216516982825,826.3658489006825
1731142904.228824,785.184358522944,798.3081369780492,786.6722777954665,818.8937641558033
1731142904.232634,782.5384922454587,799.4964689232662,786.0927206128193,816.9529279131076
1731142904.2327251,799.6298277736672,799.8953032976941,790.1088338606041,822.5475893030818
1731142904.232966,822.6437928510741,799.7604827631754,796.4482346786444,831.4034433002544
1731142904.2366264,831.7523610184088,799.5025465999446,802.7069222313355,836.1913817123097
1731142904.240528,817.129958647929,799.3164369521689,807.8639455497796,832.2921416217264
1731142904.2415586,787.2267288634667,799.2035123464474,812.1745712210385,821.487246765888
1731142904.244429,762.4938335870879,799.2593453073129,815.902755011041,810.5809844580649
1731142904.2482257,759.417581036603,799.8457776077937,818.3926630365997,805.9752569993154
1731142904.2483304,777.651477669162,801.3979211526585,818.4969368424868,808.5112519962693
1731142904.2522316,800.7056313853845,803.975049143033,815.9214728691135,812.8106532467707
1731142904.2561328,809.6569931017372,806.9471966760251,812.0856879699966,811.7996955348659
1731142904.2600343,798.6088584537409,809.1884768223105,809.5507525352868,802.8183199608462
1731142904.2604468,779.1982654795487,809.7802355139006,810.3846269325886,790.2357854118891
1731142904.2638173,770.5865934745412,808.7390742658712,814.6878316170821,782.2016168409835
1731142904.2639356,783.3170392131673,807.1145861953737,820.2632238285402,783.9709395852417
1731142904.2678368,810.259200537649,806.2329581089427,823.5878544421042,793.2136272222078
1731142904.2678864,831.9196544545258,806.627101398819,821.5955717335515,801.3224153654669
1731142904.271738,831.8016734730904,807.583831351769,813.4760186456973,799.9951755644003
1731142904.2756393,809.5345356934673,807.7797769452476,801.563691328575,788.0466490860756
1731142904.2793348,781.310742676132,806.4975251797626,790.5549569325115,772.9881609973794
1731142904.2794085,767.2495827570888,804.3243051416897,785.0868179907357,765.8254452671109
1731142904.2795408,775.7254220415832,802.6579585675937,786.9457243086042,772.8129986487926
1731142904.283442,797.1987402392289,802.4431115782567,793.858256701963,790.4900219988666
1731142904.2873433,812.503998279051,803.30547990218,800.9947463250043,808.0387931954637
1731142904.2912445,808.7940229199575,803.9066877993115,804.2801507221651,815.3551201439744
1731142904.295,790.0429478165648,803.2062018598563,803.0228500919843,810.5766268476748
1731142904.295146,773.5668258873144,801.4651333968608,799.8260414405019,801.1159706318965
1731142904.2982228,775.6403238317508,800.0628576185806,798.0177677772288,797.4694726571425
1731142904.2990472,798.1229623421752,800.2860999070942,798.9139975783538,804.9103821836414
1731142904.3028069,826.8707772215763,802.1777399865788,801.2281881548508,819.7291621766369
1731142904.3029485,842.9858903137016,804.4684910256124,802.9020578753082,832.7625767413726
1731142904.3068497,837.7285114096891,805.6330515607206,803.4341024178956,836.9720581760649
1731142904.3105917,819.1452502711454,805.1038853537394,804.4061284110438,832.7477522443177
1731142904.310751,805.1689499070674,803.5698795281813,807.683285458301,826.8115315966581
1731142904.3146524,808.8760750099298,802.1907362102593,813.0459577755621,826.0442863747165
1731142904.3171108,828.0161020074851,801.5859478430658,817.6369891835294,831.641159277648
1731142904.3185537,847.4067980259736,801.572021249483,817.9434898531711,838.3966638557117
1731142904.3224547,852.0143633113627,801.7394887099184,812.6546335087188,839.3779931333535
1731142904.3261828,839.5641401955722,802.0747937739907,803.902630607993,831.7594172871085
1731142904.3263562,822.0825868909398,802.9042461457502,795.8311993219736,818.9194196646656
1731142904.3302574,815.3320761056295,804.313584547125,791.7294488263755,807.3828533666765
1731142904.334159,825.2931210365323,805.822694223967,792.0493877667386,801.5878427578223
1731142904.335999,843.0028778903533,806.7642365896692,794.6991372461348,800.9503597753787
1731142904.3377273,851.8089056230264,806.9577153667526,797.0766908261843,801.2968913579019
1731142904.33806,840.95693846186,806.8959395492788,798.0575567314409,798.9064655430535
1731142904.3417745,814.5738523243865,807.1822475959113,798.4405074532903,793.5073629046092
1731142904.3419614,788.88553695343,807.7766842106568,799.7364186455372,787.8837423444018
1731142904.3458626,779.7532539289095,807.8439782129124,802.4910049018238,784.7921968498554
1731142904.349764,790.3545658549699,806.4256356359311,805.6147250808399,784.0926278612385
1731142904.3536654,809.0175693732227,803.3814210594504,807.2997159396423,782.7316534643827
1731142904.354887,819.2150810084908,799.7981164969723,806.7397430318272,777.7841694089137
1731142904.3573658,813.6384680617598,797.506851693923,805.1334070056538,770.0432415800385
1731142904.3575666,800.5742727338042,798.0298774813693,805.0001795027865,764.8290399432481
1731142904.3614678,797.013476177688,801.6516673829407,808.2722232530218,768.6848716989559
1731142904.365369,814.0313256937583,807.1907854385419,814.7237260497966,784.1366915957309
1731142904.3692706,846.5507927228605,812.5993528943444,822.0605833234678,806.7837869231147
1731142904.3726478,876.0506575270989,816.0250425075882,827.5809377970834,827.4941229055653
1731142904.3729572,884.2237652524817,816.7082320779153,829.987716446087,838.3208197385557
1731142904.3731718,866.86659303515,815.2089589657917,829.8851751260598,837.5303726454434
1731142904.373775,837.1939982822287,812.8909165861775,828.7208670663377,829.8342958897388
1731142904.377073,815.9868246043211,811.0472406135854,827.2802087947833,822.0494985566256
1731142904.3809743,816.0975586694831,810.2366729624714,825.1194477286526,818.2403627708194
1731142904.3848755,833.3013772915326,810.202790321199,821.3787359824526,818.2336993658985
1731142904.3885489,850.6888008548272,810.3186914036686,816.1505160724048,819.626542234982
1731142904.388777,853.0324427930019,810.1444520520132,811.0892114383311,820.4255332717313
1731142904.3926632,839.3103253389454,809.6742016252351,808.6086229103589,820.0967152768325
1731142904.3926785,822.973957345081,809.1777657166197,810.2105887248836,819.0993168502918
1731142904.3965795,819.8500901021408,808.8933303518503,815.2005941166695,818.0430070778466
1731142904.4004807,834.0927366265305,808.8738121354015,820.7368506653718,817.2245835732626
1731142904.4041402,854.2161530970856,809.0372772151627,823.1920489314872,816.6220209170546
1731142904.404382,862.5609700791996,809.2431891378097,820.0104937188688,816.0903756348586
1731142904.4075682,850.1611588278375,809.2626813801918,811.1002893152735,815.5225511554888
1731142904.4082837,824.5361813947877,808.7305385009084,799.1315108494797,814.8946717387943
1731142904.4115512,803.8533592814144,807.2601029526686,788.5385679312446,814.2335607885626
1731142904.4121847,802.0871715914549,804.7421684792545,783.4974523010226,813.5710756708959
1731142904.416086,817.2558502503733,801.6096476856039,785.761603944329,812.9213319058252
1731142904.4197316,832.6094607350069,798.7936890215395,793.6631613388055,812.2819988044837
1731142904.4199872,830.2607658133767,797.2995820494041,803.1430955199273,811.6451327818111
1731142904.4238887,806.3121981304753,797.6280536759826,810.275711857875,811.0053412861934
1731142904.42779,774.837563726829,799.4204129654602,813.4745134117708,810.3616977911611
1731142904.4304392,757.0797977653567,801.591655363572,813.7537037013725,809.7157734937441
1731142904.4316912,764.5697610470304,802.9037315739781,813.1012596664735,809.0692294727083
1731142904.4353232,789.9552732069887,802.6336843015242,812.6182671420455,808.4227258115983
1731142904.4355924,812.8551084283082,800.9238877808081,812.0342370087009,807.7760816269364
1731142904.4394937,815.7480588583969,798.620018161026,810.6792254894575,807.1288755710864
1731142904.442489,797.08872298486,796.7409786280069,808.624818459482,806.4808581679706
1731142904.4433951,771.5388214162708,795.9294131626858,806.7929631626682,805.8320148431818
1731142904.4472964,757.7249803109969,796.1813421364251,806.0532672192812,805.1824245252785
1731142904.4493277,763.6773783265397,796.9444842147232,806.322245926448,804.5321158981113
1731142904.4509146,781.530721743929,797.4833753726541,806.5527184452945,803.8810418284141
1731142904.4511976,795.3435759268069,797.3187900142743,805.5871901489913,803.2291821421868
1731142904.4550989,795.2362698560579,796.5343560955612,803.1073253201656,802.5766843391028
1731142904.459,785.9244016309231,795.7841075105986,799.9223821069753,801.9238774240533
1731142904.4629016,782.3756309263235,795.9630831175647,797.4198466734856,801.2710097213715
1731142904.466506,796.1686061002582,797.7089490503959,796.5956091769708,800.6177618289283
1731142904.4668028,824.1973723438591,801.0480522074839,797.3122900744952,799.9629566567015
1731142904.4682157,849.6416878220895,805.4188781829931,798.2815895618412,799.3051437774261
1731142904.470704,854.9069747843689,810.0185546637487,797.8706633323205,798.6443585536525
1731142904.474605,836.1403330024698,814.1703066847617,795.3255843234701,797.9840516909875
1731142904.4774091,807.3553267228883,817.4390961129802,791.5943596702318,797.3306101243298
1731142904.4785068,790.3648624363076,819.4960863614716,788.9832060518816,796.6879727663458
1731142904.4820976,798.0565350158241,819.9760826496233,789.6264897080443,796.0486632880373
1731142904.482408,824.1154712214998,818.5572202622293,793.8105876552428,795.3895234944673
1731142904.4863093,847.6104823868573,815.2492916141907,799.5952095625534,794.6845859887264
1731142904.4871037,849.2543106598765,810.6343985611512,804.2489968248607,793.939112293922
1731142904.4902103,826.5877715588076,805.7771931377836,806.3541033048838,793.2234035004814
1731142904.4941118,795.7622174885427,801.7622974200112,806.6549261316903,792.6569672281471
1731142904.497689,778.2914957660169,799.1598161814007,806.8335322097857,792.3003137221966
1731142904.4980133,783.6260014300664,797.8571243616627,807.4458004130502,791.9894829613295
1731142904.5019145,801.9894478747167,797.4241842177355,807.1348764692189,791.2789252116374
1731142904.5058155,813.2429852496058,797.6890360642343,803.9668372536095,789.7227181460039
1731142904.5059917,804.043205839945,798.975894054838,797.6074532978274,787.5440208818446
1731142904.509717,778.9159882561249,801.7640614022305,790.2377062741299,786.2650148493171
1731142904.5123296,756.4042468968023,806.0668370711521,785.299388877088,788.4227603684108
1731142904.5132804,753.878849776872,811.0750987927696,785.0899213433386,795.8058470312367
1731142904.5136182,773.4997023652337,815.371201194606,789.1414426003403,807.0915735782027
1731142904.5175197,800.502452517824,817.5740321014077,794.6166110022433,817.1972224499783
1731142904.521421,815.0163208310418,817.0067443514449,798.3650977556807,819.9620539515499
1731142904.5248797,807.8405415357644,814.023325814989,799.0553788052483,812.7746124398683
1731142904.5253222,787.4109234466296,809.8639456533267,797.8014108699646,799.3644150940528
1731142904.528872,772.3159474329071,806.1340474639135,796.913822494281,787.958100012734
1731142904.5292234,775.6225414214023,804.1248462084371,797.8712584423928,785.7130609805077
1731142904.5331247,794.0728279515456,804.2443879475679,800.153081915752,793.5380325566772
1731142904.5370262,811.0724005251393,805.8324933768806,801.7943797036784,805.3887848752581
1731142904.5409274,810.8295098448191,807.5184581232887,801.1311209672384,812.8280459151915
1731142904.5437677,791.8734054163314,808.0023580820106,798.3387302923179,811.5240305714415
1731142904.5444634,768.9386553624847,806.8428957990743,795.6064353459539,804.6244304569138
1731142904.544829,761.7425033685296,804.7641215020476,795.8079183058181,800.163691438658
1731142904.54725,779.5208538396572,803.2448094570556,800.5555050619943,804.383503888576
1731142904.54873,813.4189929201115,803.5804782376607,808.9415872736047,816.3676477189493
1731142904.5526314,842.7993135330674,805.9573572592442,817.8572755530865,828.603581006081
1731142904.5565326,850.7595358861482,809.1376115047833,823.7391000417582,833.2499957533796
1731142904.5600548,836.7151945626447,811.0381135093352,824.5712298925469,828.8867090174812
1731142904.560434,815.8980956992372,809.9292456850072,820.7766457309849,821.8186802676579
1731142904.5626557,806.1155919579029,805.5454363897676,814.5327677067182,820.5866282692376
1731142904.564335,812.7899849633159,799.4107419650343,808.2826460040005,828.3719623467231
1731142904.5682364,824.9015725742582,794.1414735004413,803.6175510548079,840.0173619742457
1731142904.5721378,825.2016044970223,792.0869048300234,801.0239228060736,846.3959630380384
1731142904.5756464,805.8202710074565,794.0631197121329,800.1799951011774,842.3326446741833
1731142904.5760393,775.8795014982729,798.9250254541582,800.381262379008,831.1060767203708
1731142904.5799403,754.7324424991449,804.2753806109363,800.9338164678162,821.6083802749237
1731142904.581544,756.5926017804513,807.9034211853235,801.4180001724869,820.701985256511
1731142904.5821705,779.1726624104632,809.0068308300686,801.7279547187912,827.3899443832939
1731142904.5838416,805.3270313842091,808.3457598634594,801.937303155745,833.664836309814
1731142904.587743,816.1868102489225,807.2650347191229,802.143820603931,831.1168146124336
1731142904.5912378,805.3482108695346,806.4370935154553,802.3923081465467,817.6550927271057
1731142904.5916443,783.0058317991899,805.4212136480915,802.676079431471,798.9106742049172
1731142904.5955455,766.9623034185468,803.4043072268191,802.9702704206693,783.5895173887941
1731142904.5994468,768.0350170736618,800.3835567748782,803.257677197829,777.0292434828564
1731142904.600432,781.9213073735368,797.6052726781801,803.5351282261353,778.2380776551532
1731142904.603348,794.0243355498721,796.7516643982801,803.8074726208644,782.2193748551425
1731142904.6068292,792.6981410945891,798.545627894176,804.0799902187778,784.8479980920637
1731142904.6072495,779.435414964498,802.0106756167197,804.3548619288301,785.936097815602
1731142904.6111507,767.5407891381498,805.0672901701373,804.6315894329064,788.3139238018003
1731142904.615052,770.759044557824,806.0009308888964,804.9088497067796,794.332786682763
1731142904.6170907,791.4943588657935,804.6187538678222,805.1858073931753,803.0883205440986
1731142904.6189532,818.2158455983845,802.2069643521253,805.4623742728846,810.6973352653891
1731142904.61932,834.0746128214427,800.4046165585825,805.7388542960178,813.3177226440558
1731142904.6224208,829.945055985407,799.9524540717582,806.0155463558262,810.4219250472227
1731142904.6228545,811.6431905930885,800.2896162695384,806.2925765673352,805.6189470524553
1731142904.626756,795.4368051854568,800.2214370873738,806.5699328577217,804.1492776143022
1731142904.6306572,795.1068861260769,799.0274622238687,806.8475639967529,808.80436044584
1731142904.6345584,810.8948523645089,797.0843282191757,807.1254453684363,817.5193196560206
1731142904.6380122,829.6064464416638,795.5216369272654,807.4035931628754,824.848996955043
1731142904.6382082,836.0596695071653,795.2333231987615,807.6820525091022,826.4276653504883
1731142904.6384597,826.3264553723626,796.0981698570562,807.9608822600545,822.7976528234427
1731142904.6423607,811.4429651198058,797.085542599315,808.2401370646727,819.2247720719963
1731142904.6462624,808.279620393051,797.1589171407087,808.5198382489008,821.4153668096911
1731142904.6501637,825.1590285477271,796.190996384599,808.799943390851,830.6203490851844
1731142904.6520114,854.1924284505428,795.109516425982,809.0803562013724,842.2209145801547
1731142904.6536036,876.6697282455546,795.190906073784,809.3610226492852,848.9678634204391
1731142904.654065,877.2277501574963,797.127372568385,809.6420938687896,846.2148587258213
1731142904.657096,855.609121001742,800.5764714814642,809.9240093904424,835.0166474133435
1731142904.657966,826.7629161989103,804.4091316183898,810.2072728981693,820.9111208456139
1731142904.6618676,809.126536949951,807.3570391029938,810.4918369486361,809.77634474483
1731142904.6657689,810.3086420569701,808.6215930180192,810.7764714782518,804.2882312699113
1731142904.6691952,821.7480669607072,808.1737746350742,811.059012585717,803.4261432929204
1731142904.66967,826.8597851438535,806.6716914318437,811.3382980145985,804.495993107843
1731142904.673571,815.9392624058385,805.0526313128508,811.6172134799968,805.362607605991
1731142904.675984,795.1278439476062,804.0131085789894,811.9038950268788,805.3098773906213
1731142904.6774726,781.5707438210586,803.7131505565754,812.2068933205029,804.628608276271
1731142904.681374,788.6711324531612,803.8846563104063,812.5233194811867,803.8442887849193
1731142904.6847866,813.908237843758,804.1661084028473,812.8278938194557,803.2496043237181
1731142904.6852753,839.6558888180471,804.3488908160792,813.0800128464778,802.8525636734227
1731142904.6869318,846.6270666239652,804.4097863232987,813.2624566164437,802.5332479116745
1731142904.6891766,829.114197501666,804.4163056927625,813.4374196392475,802.1914986317557
1731142904.6930778,799.6456357033421,804.4316481397044,813.7613319184965,801.7981745528097
1731142904.694872,779.178118564643,804.4773065123951,814.3820678388379,801.3728492373126
1731142904.696979,780.6247554598591,804.543301267258,815.2113663710045,800.9437994274015
1731142904.700378,799.0050657825327,804.6123249087775,815.7359523431512,800.5253732224614
1731142904.7008803,816.2409095125014,804.6747249704372,815.1605538325995,800.1169669209969
1731142904.7047818,816.6308117546106,804.7301696888019,812.9811683165503,799.7119284838133
1731142904.708683,800.0756041840253,804.7825430757586,809.5775800013217,799.3051644663412
1731142904.7125845,781.9030944195295,804.8351176692814,806.1992537023491,798.8954362213384
1731142904.7137604,779.4686336425578,804.8888622262643,804.2335541545409,798.4839375496585
1731142904.7159696,796.973547055687,804.943154077871,804.3424235926433,798.072161390919
1731142904.7164855,821.3886232792146,804.9970799133356,806.1334638821403,797.6607939163107
1731142904.720387,832.8900495867273,805.0501767628269,808.5196810246872,797.2497444590499
1731142904.7218523,821.1138204408265,805.1024694646894,810.4196918796347,796.8386509368697
1731142904.7242882,793.8935906920738,805.154182344711,811.3086125364019,796.4272775474984
1731142904.7281897,771.4140910650757,805.2054908100245,811.3128781143379,796.0156106811903
1731142904.7315607,770.4951889645943,805.2564448932831,810.897299581732,795.6037435035819
1731142904.7320907,791.54953034389,805.3070141685319,810.4708651253411,795.1917174602765
1731142904.7326484,818.5439183164741,805.35715716148,810.1992495035329,794.7794491309119
1731142904.7359922,831.9165524614306,805.4068593651815,810.051803780145,794.3668051947277
1731142904.7398934,824.0954774714008,805.4561358057531,809.9364731362995,793.9538060562444
1731142904.743795,805.1868383169882,805.5050167654043,809.7935719961904,793.540814084055
1731142904.7471523,794.2718944255033,805.5535309978684,809.6150252011581,793.1284433076398
1731142904.747696,803.3680366874252,805.6016905115574,809.4201170655322,792.7169852506715
1731142904.7515364,827.1123908611355,805.649480591509,809.2278835161331,792.3055568895871
1731142904.7515972,846.6604506190572,805.6968672932219,809.0453715528085,791.8918371893905
1731142904.7554986,844.7868137845564,805.7438360911792,808.8700742589759,791.4735474366297
1731142904.7567728,820.0504530470616,805.7904519157869,808.6969437112735,791.0518312473314
1731142904.7594,788.5496125184188,805.8368851701956,808.5229917122778,790.6341400565676
1731142904.762744,771.7385519165882,805.8833214023803,808.3479795169552,790.2317752199649
1731142904.7633011,780.0055144962139,805.9297306059779,808.172995521043,789.848573268231
1731142904.7672024,805.1386415054657,805.9756442312358,807.9990138788922,789.4654342658384
1731142904.7704246,827.6045943524083,806.0202738434054,807.8263460747996,789.0376701655027
1731142904.771104,832.523028133307,806.0632522105146,807.6548200454548,788.5260348456798
1731142904.775005,821.1816080081795,806.1057453194743,807.4841609110822,787.961011477766
1731142904.778335,808.7763839427159,806.1508105882299,807.3142195407086,787.4910330548663
1731142904.7789063,810.6328111596436,806.2014793032404,807.1449892853074,787.3232652068612
1731142904.7828076,828.7027890992462,806.2563278266126,806.9765166128694,787.5006387250785
1731142904.7867088,849.6014765669358,806.3056319140339,806.8088217944149,787.6224179260753
1731142904.7893126,855.5664484725058,806.3344296903468,806.6418838197333,786.8407807291778
1731142904.7906103,839.1251884200749,806.3370871194495,806.4756821720334,784.5081193601852
1731142904.7916932,809.6127458711012,806.3370873416279,806.3102500000995,781.408358414664
1731142904.7939267,786.4999226081435,806.3890880528928,806.1456773115852,780.5911064155418
1731142904.7945116,784.8504685356133,806.5332952201434,805.9820197617146,786.2788759104321
1731142904.7984128,804.1813515591344,806.694646718234,805.8191414129983,800.5591398515882
1731142904.802314,829.3044686606241,806.5775108086201,805.6566379872801,820.342933293752
1731142904.8062153,842.4132941785338,805.6754420233842,805.494054388343,838.0480405603412
1731142904.8082006,836.7739311824728,803.5140377409317,805.3314646044807,846.3713551581438
1731142904.8095183,821.0432955592262,800.0797883292674,805.1700488149517,843.3747737757768
1731142904.8101168,810.8940495892161,796.1314741100375,805.011825344949,833.6028684385494
1731142904.814018,815.1657218929224,793.0302261494728,804.8578074968631,824.44713230647
1731142904.8179193,828.3223969843807,792.0440529476575,804.7051763222364,820.8708454764324
1731142904.8218205,835.6007096858607,793.5554333133673,804.5462742181534,822.5981046377865
1731142904.8251095,826.4073729505901,796.7639593717369,804.373297793991,825.5306652015776
1731142904.825722,804.4843786996402,800.1293526384686,804.1894289568153,825.7178823949934
1731142904.8266137,786.0020960034432,802.2419544063223,804.018766378542,822.4771397031836
1731142904.8270888,786.7295901489889,802.5264734787775,803.8990378184117,818.3789978237261
1731142904.8296232,808.5548785566197,801.3741264049937,803.8448735639123,816.5615647703411
1731142904.8335245,836.616935991929,799.7387244643576,803.7960643572105,817.9339578528404
1731142904.8374257,850.1789674030931,798.5596005602717,803.606366369564,820.7176256963127
1731142904.840701,839.108315257612,798.377868745789,803.1437266313696,822.6150546228487
1731142904.841327,812.4734780088344,799.2568997485487,802.5065336076372,823.4307557184538
1731142904.8452284,791.5352721007508,800.8702973792545,802.2031289743264,825.3900418068641
1731142904.8459768,792.3709606904861,802.6063727006787,803.0085370434394,830.5000500191281
1731142904.8491297,812.5628625360359,803.7066425422245,805.3512462458042,837.3567648727615
1731142904.8530307,833.3105698837687,803.541687639295,808.6093376504057,840.8331356674523
1731142904.8562927,835.2691625411585,801.9801480952982,811.1142331680821,835.732189409263
1731142904.8569322,814.7813307871098,799.5911192837848,811.1844753289624,821.6671391750189
1731142904.8608334,787.0530100890206,797.4297740722029,808.3914402958573,804.7454796568296
1731142904.861534,773.9439774109275,796.4559752131094,803.8563935479117,793.9618558355734
1731142904.864735,786.5656676168785,796.9620781422824,799.2954490394344,794.7226610029957
1731142904.8648648,816.5562633647398,798.417556497587,795.7454234437602,804.6364374791966
1731142904.868636,842.539235841297,799.8339431925076,793.1354157552812,815.1072218938796
1731142904.871884,846.3747456000355,800.3855593435678,790.9676072504944,817.6507437728899
1731142904.8725374,826.5545883223178,799.884091549704,789.2895481961637,810.0798774301664
1731142904.8764386,798.5765253312069,798.8498156888348,788.9107570864476,797.8428277885118
1731142904.88034,782.3220222633356,798.18312316968,790.6040214867694,789.6570794005489
1731142904.8837528,786.6372125416253,798.6419040615064,794.0662584681231,791.0116624045478
1731142904.884241,803.4318422923208,800.4066574828707,797.7329276981487,800.5756769446556
1731142904.8874755,815.7157668195412,802.9638723540903,799.8188942404748,811.9816810819786
1731142904.8881426,812.4716105648571,805.3709810505424,799.7861112842091,819.0888009092657
1731142904.8920438,797.7907284739464,806.7478887897909,798.8793272188929,820.2941159525403
1731142904.8959453,786.8333993560863,806.7113649035979,799.0842206625993,818.6743695767983
1731142904.8964546,792.3614621685961,805.5333651544601,801.3715188285705,818.4113782667993
1731142904.8998466,813.3141820156219,803.9938258018109,804.9138044914147,820.8946264356325
1731142904.9026413,834.9622463606051,803.0347916073262,807.9948789689855,823.8218144553372
1731142904.903067,840.5840668239175,803.3422338357092,809.5211890223725,823.879162503756
1731142904.9037478,825.2451935771426,804.9937265970527,809.6149781172716,820.5240576180162
1731142904.907649,800.4001693480405,807.3713309831977,809.0746843216009,817.3872669826998
1731142904.9115503,785.1668685232817,809.4928433719258,808.5911889105563,819.6588202504693
1731142904.9154515,790.9384706832091,810.6188914227131,808.4101798902996,829.2418540963668
1731142904.9186585,811.8693396788274,810.676347727889,808.4431054428048,841.7761773449758
1731142904.919353,829.3716139095476,810.1476979768952,808.516526449382,848.6387454974915
1731142904.9215293,827.2153221101486,809.5950258647479,808.5300000431612,843.0667321259954
1731142904.9232545,804.8273654224708,809.2949963484514,808.4775725617986,825.7675564935034
1731142904.9271555,777.7895010770632,809.2198576477626,808.3977312479657,805.23681661285
1731142904.9310567,765.2183968427784,809.2211283602902,808.3240440623816,792.0327174690713
1731142904.931375,774.5540762586044,809.1888661735701,808.2669911952864,791.2553711563801
1731142904.93425,796.2060123794034,809.0976310212147,808.2205733748206,799.1647849235549
1731142904.934958,812.1452377980127,808.9739568570045,808.1754465254866,806.6529980121535
1731142904.9388597,811.0280031935392,808.8500625824983,808.126656575315,806.7311607104446
1731142904.9404173,797.2192939372487,808.7404579833839,808.0742209088494,799.8921690885043
1731142904.9427607,786.2738320691665,808.6429710611475,808.0202718292616,792.9819754506179
1731142904.946662,790.7709937386163,808.5496183881003,807.9665068763676,792.7178268263222
1731142904.9498415,808.6082258930062,808.4549101851466,807.9133639985466,799.6113574873169
1731142904.9505632,823.9648036419561,808.3578622289837,807.8604539160215,807.6581950163928
1731142904.954465,820.4588459304766,808.2600452793005,807.8072639119698,809.9373798904015
1731142904.958366,795.5033203580405,808.1631499750864,807.7535398128725,804.9313522499946
1731142904.9593053,763.6329137679213,808.0678649470166,807.6992905371266,797.8561152947036
1731142904.9622672,745.7613343766856,807.9740203509667,807.644623783833,795.9443584241307
1731142904.965433,753.0355863097441,807.8811856136857,807.5896057207524,802.0037108250971
1731142904.9661684,778.3271900845858,807.7890889110091,807.534216064685,811.8878442658013
1731142904.9662957,802.0924334810569,807.6976979126122,807.4783815285141,817.9761631252702
1731142904.9700696,807.7866256528439,807.607104473659,807.4220454956319,815.6914645852275
1731142904.9739711,794.5064993664655,807.5173971017626,807.3652319975179,807.6448028342261
1731142904.9778724,776.8563900214338,807.4286078521045,807.3080544240258,801.9110465582553
1731142904.9781933,772.2879338295961,807.3407243916656,807.2506191728885,805.5902396145904
1731142904.9810245,786.2450162539639,807.2537225336176,807.1928321403469,818.6282152267617
1731142904.9817736,807.2596085944836,807.1675872393325,807.1342507141842,832.8972731806846
1731142904.9856749,816.110186739287,807.0823155388846,807.0742458304061,837.608271311007
1731142904.989576,801.7035034447825,806.9979098535013,807.012645192951,827.1660403233
1731142904.9934776,770.8055500754829,806.9143713640302,806.9505618691956,805.5353139878313
1731142904.996616,743.6576057560742,806.8316975424118,806.8904524172808,783.8106726027805
1731142904.9970813,738.7941992715266,806.7498830150378,806.8342997986496,772.8713238120595
1731142904.9973788,758.8878150419783,806.6689213193532,806.7800752762098,776.5306257388031
1731142905.001216,788.6263690387806,806.5888059478428,806.7193390224841,789.8695623206562
1731142905.00128,806.3838842073078,806.509530434866,806.6409772727029,803.4488719272354
1731142905.0051813,800.7980233759927,806.4310879797225,806.5437831337335,809.9755879739841
1731142905.0090828,779.2969549881823,806.3534711082063,806.4513228718997,808.527199425787
1731142905.0122073,761.6282837744936,806.2766715648802,806.4105054356551,803.5029620709365
1731142905.012984,763.4703799747621,806.2006803749184,806.4543069168725,799.6668638226962
1731142905.0159695,783.6436993223328,806.1254879436482,806.5352577895544,797.8033499951482
1731142905.0168853,805.7056848313581,806.0510841139161,806.4875066019728,794.838720116319
1731142905.0207863,812.5467361024389,805.977458173669,806.1102347264588,788.0954240474765
1731142905.0246878,801.3882753848122,805.9045988419521,805.4112753286545,779.3648464031826
1731142905.027799,786.2489157931539,805.8324942592787,804.8666487163836,774.5566539474587
1731142905.0285892,785.8210904271541,805.7611319910762,805.3602162516089,778.8720523096789
1731142905.0324905,807.1698537344275,805.6904990399698,807.5900519113844,791.7705835375476
1731142905.0348575,839.010408974686,805.6205818597265,811.2886769168598,806.3686848528782
1731142905.0361364,860.1601791580692,805.5513663670366,815.0448651144756,814.1118029123094
