timestamps,eeg_1,eeg_2,eeg_3,eeg_4
1731142169.3150437,795.8025072521099,800.7777668801214,815.1443245840868,819.5201947561018
1731142169.3306663,798.4425327522331,800.3469702426181,815.2967680317914,820.4949875690605
1731142169.3444488,799.8981739687584,799.9675072430972,815.5493411605,820.95852702836
1731142169.3462896,799.4949032734665,799.8100519549358,815.8858036588813,820.6224315326559
1731142169.3619125,797.8524998669251,800.0455459948292,816.1726254998026,819.7235000001783
1731142169.3633332,797.3150279496521,800.5239709530006,816.2999372447961,819.1855454593826
1731142169.3775356,800.9297000217158,800.5808580446366,816.36750436704,820.3265266140795
1731142169.3822176,809.8050476370713,799.3041616152941,816.7222348321023,823.9810953802853
1731142169.3931584,820.74518302792,796.2200501691016,817.7451670169957,829.58768166705
1731142169.3943677,827.1060442983978,791.9021934378108,819.5269952403986,835.3037577538321
1731142169.3982658,823.7995519745501,787.9332070908656,821.7224979449848,839.6336339266537
1731142169.4011018,813.1054007798946,786.1138941993655,823.7419561608108,843.4367945915611
1731142169.402164,805.5173253127007,787.4497883772787,825.1249046236779,850.1206795303578
1731142169.4060624,812.8745740383395,791.6405145881635,825.7743792954665,862.964751985895
1731142169.4087815,838.0360349416511,797.358928685333,825.895544822381,881.357096213908
1731142169.4099605,869.9221727962167,802.9778946948777,825.7951660937636,899.4855778210647
1731142169.413859,889.6099606864834,807.1776459775951,825.7978064472134,909.506903982567
1731142169.4161034,884.0964550070545,809.16554891174,826.3089425660696,907.395935941118
1731142169.417757,857.1454198594546,808.6628617786806,827.7845854929428,896.9606231859476
1731142169.4199862,827.9581127010382,805.9266179265185,830.4079128611188,888.4173339786186
1731142169.4216554,817.6962938093244,801.8340982108796,833.6398461347762,891.8603726142184
1731142169.4244044,833.8001496023584,797.7882703394014,836.1223772874012,909.966577634864
1731142169.4255536,864.4611990044154,795.2454721798601,836.2709953824918,935.3709282843788
1731142169.429452,888.0426467860366,795.0255599796719,833.3069853302045,955.2244825885174
1731142169.43335,890.2001101693812,796.8795489986906,827.9493733485074,960.1263401460394
1731142169.4372485,874.7839274162038,799.688759642736,822.0868563859394,950.796602588795
1731142169.438871,859.4807254975915,802.1801144486445,817.5378264866761,937.0945822976043
1731142169.4400277,859.9990876089499,803.6109039103501,814.8261906209128,929.97206471412
1731142169.4411466,876.4111079669559,803.9286703879822,812.9580146057874,932.8486406516283
1731142169.445045,893.3475435768421,803.4074350286907,810.3745588523103,939.4582775975316
1731142169.4489431,893.7448510657523,802.2243426487713,806.3028242661508,939.8107151596678
1731142169.451,874.1982205735486,800.4306846668726,801.4387166748321,929.1695250568671
1731142169.4528415,848.6694232286591,798.311745976436,797.4409812003796,912.561668234187
1731142169.4556503,837.3214979796065,796.6807744973593,795.597434649203,901.1661095910166
1731142169.45674,849.9418697677822,796.6623055825854,795.6368428429272,903.6345311556122
1731142169.457755,877.9857846390349,798.9908145065544,795.6455847604728,919.4045458087649
1731142169.460638,901.9468152845463,803.3386842052863,793.3689606969281,939.2370479582087
1731142169.4645364,907.768492639312,808.2397541236887,788.1362820437362,952.249696151855
1731142169.4684346,898.2940834225691,811.7511153833107,781.9343847085863,953.5761910255796
1731142169.4712734,889.9370643705803,812.4640800859944,778.5122173577902,946.5943558358288
1731142169.472333,897.4660112549873,810.2414127504455,780.8673654899909,938.4573116384307
1731142169.476231,920.1373506273127,806.2472982560876,788.9486445764378,933.3114040850631
1731142169.4766395,941.2886151032368,802.2812208999774,799.4633784679492,929.2644641671442
1731142169.4801297,941.8964888658251,799.8379229661916,808.0265146264852,921.5321962428023
1731142169.4840276,916.7346499860548,799.4438585283244,811.9480087216881,908.5765498255471
1731142169.4858963,879.7541107547759,800.5923140847777,811.5090828309513,895.4331944007761
1731142169.4868965,854.3241163547343,802.1991970292122,808.9684948264824,890.9349007987781
1731142169.487926,856.0472081421275,803.2393205659107,806.405568643265,900.7922206360385
1731142169.4918242,881.4081107815676,803.2295258196588,804.2382621696771,922.0585163663582
1731142169.495524,910.8389419217431,802.3616716310102,801.4433857433352,943.6878842938344
1731142169.4957223,923.839726762294,801.2223374293586,797.0317536400588,953.4387585735537
1731142169.499621,914.628226100714,800.2321068453411,791.4000495538633,946.485421640564
1731142169.5025194,896.1347435658914,799.2096803774866,786.402336755235,929.292959506618
1731142169.5035193,888.9364702993547,797.5167064389775,784.0753342327728,915.2903434520514
1731142169.5074172,903.7411457320795,794.7863638662362,785.040933630795,915.0060468680352
1731142169.5113156,931.7120644710092,791.5902500510435,787.8728510173612,928.0470851106868
1731142169.514408,950.972435907202,789.3006006207894,789.9743116554354,943.3867041623942
1731142169.5152135,944.3716264546255,789.12606308936,789.3594010222268,948.0327616413877
1731142169.5181422,914.0742319640506,791.1487994752146,786.0370785660477,937.3521465198864
1731142169.519112,880.9064467674505,794.2474585926045,781.9620141988692,918.868797572142
1731142169.520793,868.7249357279956,796.9735804209784,779.5528724058947,906.5329784844376
1731142169.5230105,886.1851906671136,798.5984677168238,779.8754620616653,910.048621099127
1731142169.5269086,920.4114071096398,799.4778328052499,781.9329646387807,927.7008412338745
1731142169.530807,947.5515977454306,800.5636315914547,783.7045676998235,948.1541263515411
1731142169.5332923,951.6083575647596,802.6009945647172,784.0888724945723,959.3422884584783
1731142169.5337653,936.2206999455705,805.6617760890757,783.9616163053865,956.9654066873661
1731142169.5347052,919.9170926669337,809.2272454489142,785.1944543557341,945.9476372655541
1731142169.5386035,919.1770983203987,812.5667646850824,788.3997133186663,934.5860525492562
1731142169.5425017,933.8699707790349,815.0654665133512,791.6277087695386,927.2621949916706
1731142169.5464,947.4580485613366,816.3615917086374,791.6153418641823,922.125043745708
1731142169.5493882,941.6023507202349,816.3533493155464,786.772674319495,914.9939411832861
1731142169.5502982,912.5838331621271,815.1757986237201,779.1706538044931,904.9447195601305
1731142169.552177,875.6680753965132,813.1996020451321,773.4177042262866,895.9556519749842
1731142169.5541966,853.7973784411986,811.0423072165471,773.108017255596,893.2180951400663
1731142169.5556896,859.7899681659544,809.521019368742,777.8809660497247,897.9126749145557
1731142169.5580947,886.2783647467029,809.4616046751593,783.7411200166109,905.5519301696431
1731142169.5619931,911.4150153561336,811.3721170285393,786.422885846446,909.5271482758968
1731142169.5650113,915.9615076742593,815.1165622542791,784.8687743745193,906.7380691002311
1731142169.5658913,898.2474930859418,819.7583774024903,781.8328613763853,900.3670739500346
1731142169.5697896,874.8656144821024,823.6930538911107,781.2410279210104,897.2958652039414
1731142169.5710614,866.2932329493352,825.1416497283666,784.7659772008201,902.0743531452453
1731142169.5736878,879.143690677708,822.9472117671435,790.5387587833899,912.1737087449978
1731142169.5775862,899.9339727656045,817.2967291413433,794.7936761295495,918.4522616101294
1731142169.580634,905.8837077576352,809.7670258504604,794.7066746476755,911.0043214391587
1731142169.5814846,883.9153539096053,802.4549014509028,790.0367700056008,886.4843687557363
1731142169.5853827,841.9743843377921,796.7827041670923,782.6637991381072,851.488727112959
1731142169.589281,803.1873450109819,792.9785086599203,775.015204698904,818.9754155692718
1731142169.5899458,787.7132575319343,790.6061907363185,768.9428964618356,799.6805142246666
1731142169.5905862,797.1933031946271,789.4598862815899,765.673375657768,794.5425552106431
1731142169.5931792,814.2858950893716,789.8273637644451,766.2283303458216,793.9803074775978
1731142169.5962572,817.3243971708055,791.9161477399987,771.4044637442324,785.0847315324972
1731142169.5970776,797.9014065220829,795.2128295602463,781.1077816570765,761.5890092104394
1731142169.6009758,766.8243097229824,798.609391112545,793.682081654275,728.691615221649
1731142169.604874,743.4103119013399,801.2391373499997,806.0141029221511,698.3214069197982
1731142169.6087725,737.2095945110011,803.1512953673702,814.6127736547485,678.2983893735376
1731142169.6088302,738.2494954687668,805.1298527046666,817.154488668049,664.6859671398767
1731142169.61188,725.0355696152254,807.8850150453309,813.6651256229784,644.6365659453063
1731142169.612671,683.9569872718428,811.4419778733965,806.63711368798,607.962522045136
1731142169.6165688,623.1390257911836,815.2107616051263,799.8569566906026,557.4027623869376
1731142169.6204672,568.1517404614965,818.4582551350214,796.4551027066332,508.12778342834525
1731142169.624365,542.6999936751706,820.6298276336765,797.3283379813821,476.41305809056274
1731142169.6254826,550.3005321882829,821.3757234900579,800.9951163059419,467.0229859867356
1731142169.6275032,571.7873800507781,820.5871973994339,804.9373546511757,469.86675221745395
1731142169.6277144,580.2099820966727,818.6464743221155,807.3274719198328,468.39476782466704
1731142169.6282637,561.15657483649,816.6083374445992,807.8457854819472,452.5855213656477
1731142169.632162,523.0748633406291,815.8393570710688,807.2576001096548,426.20759958881865
1731142169.6360602,490.17863566636356,817.106877370167,806.4805274172485,403.0993984720943
1731142169.6399586,483.54397303441243,819.8044782742099,805.9915522125549,395.85288037456803
1731142169.643126,504.8056963859123,822.1209105656981,805.8020865843785,405.87546306964515
1731142169.6438568,535.0505980157492,822.2331605680182,805.7233932650274,422.45278232421214
1731142169.6465988,549.8952893404601,819.6656393822315,805.6009340415005,431.38058016658385
1731142169.6477551,538.859178915013,815.7200926695771,805.3921714196406,426.30651659279005
1731142169.6516533,513.4247461011068,812.5995934243307,805.1295224583832,413.8047995115813
1731142169.6555517,497.2414344544297,811.8904249718332,804.8574380718742,408.18654360455935
1731142169.6587489,506.62082870073306,813.5390624725533,804.5977869302244,420.25995862426856
1731142169.6594498,537.3633296460325,816.0198231470096,804.3490707476377,448.9556496069502
1731142169.6603792,568.366870999634,817.4614859155862,804.1006831627952,482.0973474589131
1731142169.6633482,578.5391583403518,816.8481163171455,803.8447291147006,505.19315489997456
1731142169.6654832,563.1819175421963,814.4670144672997,803.5794117613617,511.3002848964799
1731142169.6672463,537.1830281331027,811.3966603524565,803.3066790581006,505.02619068643975
1731142169.6711447,523.1522124038324,808.5231107007303,803.0288736112622,498.63789031933203
1731142169.674372,534.21593244304,805.8891991068714,802.7470474315237,503.79678747813136
1731142169.6750429,564.8999905862726,802.9023067404654,802.4610453129565,524.7890103184145
1731142169.6789412,596.8191759774619,799.2033657951449,802.1702963158494,557.2291243725709
1731142169.6828394,613.9988582640703,795.3724636642045,801.8744150441839,591.9589248482937
1731142169.6843677,615.0426767095631,792.7140238271155,801.573345412808,620.5568994875689
1731142169.6867378,612.3829709018422,792.1845959529487,801.2672178629058,638.8115831906239
1731142169.6899948,620.0127012343788,793.4011138141899,800.9561726112919,647.0942659564626
1731142169.690636,640.7637404998801,794.7262669929602,800.6402788636568,648.970700170154
1731142169.6945343,664.0864927913096,794.4985939961027,800.3195460071888,649.5707648595663
1731142169.6952758,675.8726999446842,792.356161804931,799.9939675163796,653.9823264746093
1731142169.6984324,671.5591866624502,789.4255646751374,799.6635512028051,665.4353117794868
1731142169.7023308,661.1547732717962,787.2480096246974,799.3283237495338,683.852691503819
1731142169.703252,661.6713128536918,786.5730582140224,798.9883202341439,705.9066145698089
1731142169.705618,682.9055511433692,787.0974922599967,798.6435738217989,726.834364898147
1731142169.7062292,718.297190839206,788.0629734077406,798.2941147163955,742.8415128722135
1731142169.7101274,749.0127705513697,788.9073924807103,797.939978695352,752.6098364962261
1731142169.7140255,758.8405835168861,789.4775519041286,797.5812172980387,757.4345843582232
1731142169.717924,748.1014768088394,789.8830654730173,797.2178961991157,760.5274716972422
1731142169.7212408,734.7015053922943,790.27519422166,796.8500712968074,766.0278288723621
1731142169.7218225,740.5884751295968,790.727662660828,796.4777503488609,777.669440719873
1731142169.7221365,774.0805409729401,791.2344958384531,796.1008776376009,796.9577128532153
1731142169.7257204,822.3232896858551,791.7590893199932,795.7193940662044,821.515921708199
1731142169.7296188,860.1638508995991,792.2745043077325,795.3333846350008,845.0967245546857
1731142169.7301724,868.6843930107157,792.7747693895888,794.9432143892841,860.3132152045802
1731142169.7335167,849.0991746823693,793.2666442120374,794.5494398713976,863.1447752782707
1731142169.736864,821.4315113862665,793.7581268621591,794.1523271252652,856.2054258028559
1731142169.7374153,809.2072941686234,794.2527410875431,793.7511551079256,847.8237493368798
1731142169.741021,822.1728236896737,794.7498770073329,793.3440324776831,846.8680552221667
1731142169.7413137,850.4804474141093,795.247520949827,792.9291750563947,856.9120224768657
1731142169.7452118,874.5865272866159,795.7443065985556,792.5077245367121,874.3790599121072
1731142169.74911,882.3272999010189,796.2399925311593,792.0860555192158,892.2272596052093
1731142169.7524867,878.7530922274326,796.7349642131275,791.6735388857998,905.9418933383158
1731142169.7530084,880.5942875549844,797.229626986943,791.2729871262085,916.5623398839626
1731142169.7569065,900.5198641164217,797.7241317234116,790.8679684602748,928.3002382334714
1731142169.759905,935.0082331715969,798.2184173455863,790.4212926935902,943.370285835546
1731142169.760805,966.2106565509937,798.7123670694216,789.9017364970098,959.1147065415917
1731142169.7647033,976.096046202762,799.2059178380324,789.3377627230326,970.1448536999916
1731142169.7650688,961.0480351539245,799.6990753989454,788.8563952485674,973.4375318397484
1731142169.7681098,935.0247282146476,800.1918639311825,788.6324127444387,971.5515707762374
1731142169.7686014,918.7756262217686,800.6842636865708,788.7069590924784,970.7805991455987
1731142169.7724998,923.7102725993292,801.176189746428,788.7789712400703,975.6121138913769
1731142169.776398,943.284424009161,801.6675510769404,788.245930482537,984.3452248451715
1731142169.7787895,958.9090276402044,802.15838264935,786.6975760030173,990.0347806869322
1731142169.7802963,955.738827772285,802.6489529086622,784.5820027451905,986.4556128572153
1731142169.783733,935.4239082632373,803.139667593422,783.3064612164927,974.2098465619346
1731142169.7841945,915.0702116295668,803.6306486871398,784.3334142246989,961.4937840777683
1731142169.7880929,913.0045407692553,804.1211727033132,787.8337570980855,958.2833880437881
1731142169.791991,933.1441152325091,804.6095968332746,792.1270300029153,968.3792563556941
1731142169.7958894,961.0971483296522,805.0945250087051,794.6170360605785,985.8760867680812
1731142169.797674,975.2833837416435,805.5771621836225,793.6018084457301,999.1302355856283
1731142169.7993555,963.915506402789,806.0630105349105,789.4868035293017,999.1542715131824
1731142169.7997875,934.1468278529031,806.5595691697075,784.4060477321812,985.8624842875533
1731142169.7999654,906.2946767478799,807.0680794499183,780.6005388514257,967.5108420220133
1731142169.803686,897.895958937812,807.5734146749064,778.8943673904703,954.138892330539
1731142169.807584,910.1884390679884,808.044342130639,778.4639365336541,950.3587069813326
1731142169.8114824,927.7434419298863,808.4575122312987,778.0305399074491,953.0507180443135
1731142169.8149786,931.7297986575406,808.8417042988201,777.4693603085307,955.397305149801
1731142169.8153806,916.2240249641679,809.3046577574477,778.4431628265909,953.4833642543128
1731142169.8165584,893.9767504968119,809.9796987075276,783.3585333990321,949.6502599842589
1731142169.819279,886.263901762417,810.861249922665,793.2838325355958,949.7159753339652
1731142169.823177,904.7204539602267,811.6144623470034,806.4478603984488,956.6632493586205
1731142169.8270755,940.2231336564384,811.5814422292667,818.6708612208378,966.6639889571786
1731142169.8306017,968.4746262235899,810.1744874703604,825.6520382539404,971.4001276785981
1731142169.830974,968.2665912672787,807.4888730769783,825.5784654343356,965.1417093117765
1731142169.834862,937.9655873506761,804.5550056602503,820.2264904413693,950.6747942970578
1731142169.834872,897.1396529539093,802.8143967516949,813.7931600969088,938.6806786574062
1731142169.8354423,871.9976938580329,803.1741418814682,810.2443432331179,940.257573633721
1731142169.8387704,875.9094208481821,805.4389290260863,810.9037208009606,957.9669352961373
1731142169.8426683,900.0113315086339,808.4574918093604,813.8093861351477,982.5170331431434
1731142169.8462243,921.0407174604372,810.633602227821,815.2297949995243,998.2865660047787
1731142169.846567,920.0460782220042,810.4113913379377,812.3416671769229,994.0561648189546
1731142169.8504653,896.9706243578014,806.7691187724697,805.2853866445087,970.9206808271949
1731142169.854327,869.4612926731202,799.8358558991212,797.2059456986868,941.2109427051325
1731142169.8543634,857.2760151145186,791.2943745184778,792.2650874675209,919.1895598646634
1731142169.8582616,865.6092198152996,783.9614341360948,793.0040204282062,910.7825407126885
1731142169.8618476,881.2892899944798,780.4512658418075,798.832365726344,910.3234724851658
1731142169.86216,884.6191601594383,781.7275542979692,806.5832538638975,906.5836831039685
1731142169.866058,866.4604347080683,786.6282131307482,812.6593402922921,892.8961717165971
1731142169.8697586,836.2162222754719,792.7115248011887,815.2632539094311,873.0460927004597
1731142169.8699565,814.4017445579472,797.7258428320322,815.2040287084294,858.2655114182447
1731142169.8732114,816.1663744196703,800.6391461642095,814.7982393829625,857.9801889997785
1731142169.8738546,839.088974720514,801.6982463282233,815.7680716363462,871.8978650141028
1731142169.8774705,864.8553380447825,801.7838231848857,817.7799562345676,889.7592243477543
1731142169.877753,873.4280234647782,801.6931236721811,818.7523122221414,898.8410713477998
1731142169.8816512,858.5035485227426,801.7955528257567,816.6427547563944,893.1454145932333
1731142169.8855495,831.9202441048452,802.1052769264923,811.2459441453898,876.9710955140799
1731142169.889448,813.430227236846,802.5405672775929,804.5764730130064,860.2364304852858
1731142169.8920958,814.245688467005,803.1074920261048,799.6062888039786,849.7522061778978
1731142169.8930936,828.0837082958652,803.8947224266215,798.4080663869584,843.9348142723052
1731142169.893346,837.2158198597734,804.9521919628952,801.0669343261195,835.3264690388485
1731142169.8972445,828.3181780585186,806.198283758633,805.9465020216437,818.4290896409271
1731142169.9011426,804.5770343568348,807.4188534859504,810.826007589903,795.7808397748295
1731142169.904655,783.6823620510606,808.3172202374715,813.9562084586026,776.8894192550699
1731142169.905041,783.2856050206477,808.5942477092912,814.4635596962025,770.9629544114945
1731142169.9087164,806.0698542510779,808.1169976333788,812.2663336440655,779.696606945672
1731142169.9089391,836.959193145857,807.1533786176823,807.9977152926855,796.1363766817984
1731142169.9109802,854.9368757235069,806.4084567283072,803.0606942766995,810.3189316260865
1731142169.9128375,849.7688546665789,806.5740188788452,799.3689390776422,816.747357112575
1731142169.9167356,829.7033780250201,807.578466976445,798.3895443194853,817.5525748557027
1731142169.920634,813.6516589962058,808.2881660007389,799.968992372465,819.1515498818678
1731142169.9243395,814.4912646195685,807.2378870616407,802.1539929359074,825.7045250101369
1731142169.9245322,827.7981481359298,803.9344909921978,802.6696048398878,835.0088093619931
1731142169.9284306,835.660388959915,799.4609435227807,801.0635839496426,840.0051833392049
1731142169.9298646,822.2247983307097,795.6331586973347,799.4804075969242,834.3474266370715
1731142169.9323287,787.7035735659703,793.4537414557158,801.0168082410898,817.5051036425568
1731142169.936227,749.1541876357306,792.4071256360496,806.8977152085679,795.594695837084
1731142169.9395516,727.5566488336312,791.2771677975065,814.9796315368735,777.4668836253139
1731142169.9399624,731.7875603783831,789.5766907207202,820.9929037093195,768.936949466584
1731142169.9401252,752.2213093909495,788.1010098832415,821.5550281712895,769.2908703921586
1731142169.9440236,768.7943673909002,788.10512880221,816.5530635681287,772.600169775321
1731142169.947922,766.9841330396611,790.0163235002252,809.1280671742212,772.8759991174047
1731142169.9487488,749.0085660160989,792.9664241449831,803.440672619668,769.0381903656338
1731142169.95182,731.324739115784,795.5067106223757,802.000547823145,765.5596050382868
1731142169.9555852,730.4547370877525,796.717921854651,804.4494795324214,768.0350307361794
1731142169.9557185,748.7621737967626,796.7001912674791,808.3915843614426,777.3529957067765
1731142169.959617,772.0425170841123,796.188778695989,811.3132031170015,787.7316748345727
1731142169.963515,781.0757583975396,795.8628415740566,812.0630980403378,790.813390606618
1731142169.9674132,767.619426935686,795.9953371773142,811.045930519982,782.6709109520763
1731142169.9676332,741.6441221183716,796.5624821047883,809.3959106645353,767.7079864246401
1731142169.9712083,723.9320310385706,797.4936190258279,807.9563160412494,755.7934541089521
1731142169.9713116,730.0168249757205,798.779365496708,806.6955090291983,754.6454974151472
1731142169.9744482,758.1083867898577,800.4365384649819,804.7553552355253,763.6074319868446
1731142169.9752097,790.3213774783976,802.4668563441219,801.070370118456,774.0061635626472
1731142169.979108,806.2470279608636,804.854280500092,795.3219370627404,775.9894773793402
1731142169.9830062,798.4359460048529,807.5132238990522,788.7064917732514,766.3930958355986
1731142169.9865177,777.7261257374123,810.1314045090019,783.8175645070773,751.2183160920099
1731142169.9868312,764.0839942539147,812.0555392172914,783.3297953935777,740.646329967653
1731142169.9869046,770.1455489697846,812.5014171355931,788.1333958861558,740.6636748359703
1731142169.9908028,790.8144982314783,811.1467037095289,796.3237661719015,748.1768867596373
1731142169.9947011,807.6196258927325,808.6740519816442,804.0828676244137,753.5889917618003
1731142169.9985993,804.3968221025627,806.6302355246414,808.0236557843394,748.6810097055532
1731142170.0024543,781.3075983498811,806.4765075558159,807.2573895415352,733.4294843707047
1731142170.0024977,755.5005378093235,808.5424438182156,803.6067093756791,716.4404896463008
1731142170.005402,747.7974672722384,811.8350795534697,799.9443783350264,708.8374686020693
1731142170.0063958,766.1639161648271,814.9027656803488,798.1088548231537,716.3821436282767
1731142170.0093448,799.1095128423837,816.9204432053856,797.9393369040811,735.6346022510313
1731142170.0102942,824.1427517064326,817.9614477410202,797.8490621207247,756.682508866391
1731142170.0141926,824.6412098753669,818.3209818537534,796.2008602588811,770.081134567558
1731142170.0180771,801.973054924396,817.8032825857902,792.43210427745,772.7256262787702
1731142170.0180907,773.3677524617208,815.8874784972497,787.3344540348197,768.4915104916589
1731142170.021989,757.3879578878281,812.5996701126685,782.5554533306191,763.7420851117809
1731142170.0242865,759.1368994788073,808.9990624005688,779.7877665528405,761.8232113119983
1731142170.0258873,767.7294698684913,806.5579737853218,780.1139356680316,761.1262727435955
1731142170.0297856,767.9904246263194,805.9762335269738,783.7196517017454,757.8811504436759
1731142170.0336838,755.6727666886794,806.6434882071413,789.9295939172786,750.6699036190076
1731142170.0337002,742.2294716504855,807.2866673371736,797.422265140345,742.440133382891
1731142170.0375822,744.5968320768675,807.1254919191097,804.5212011635484,738.3667612814695
1731142170.0414803,769.032009384719,806.4309808950007,809.5274397983345,741.6276326286078
1731142170.0431707,803.4638088951604,806.0732632444724,811.0914576121307,750.7158829687489
1731142170.0442412,825.4864692651729,806.620548080024,808.6140144355045,760.3676790831281
1731142170.0453787,819.8140431259551,807.8652537256982,802.599847671455,765.2626951357207
1731142170.0492768,791.0216329713427,809.1485498019013,794.7777691003846,763.7039393517141
1731142170.049323,761.0155307900279,810.1028411889009,787.7522015991574,758.6443454377601
1731142170.0531752,752.828450241547,811.0933774435596,784.1050460354284,755.3519212160822
1731142170.0570734,773.3818293001295,812.9403549804284,785.2229852386071,757.4088913350918
1731142170.0609715,808.8598057542561,816.1395588197248,790.45845631382,764.0266939155958
1731142170.062055,836.2171747172945,820.2317123445769,797.2288016578143,770.7669909129313
1731142170.06487,841.2873316205512,823.8561223539832,802.1914330636338,773.1257630518653
1731142170.0649462,828.8510278147328,825.483410007367,802.9466312439672,770.0584458150165
1731142170.0687685,817.0299132759427,824.3128002367549,799.3052415291261,764.4882171199005
1731142170.0726666,821.3514736929167,820.7376619506172,793.3659458693179,760.3833654560864
1731142170.0765648,841.9119303692249,816.1413850708163,788.3632066108485,759.0115141844464
1731142170.0791378,863.8994628400565,812.2355984604566,786.9696572215131,757.76931553727
1731142170.0804632,870.4525458089864,810.3301105088518,789.9878280967572,752.7198511155856
1731142170.080569,856.8828275632262,810.8010205951628,796.0564150074247,742.5871183675168
1731142170.0809395,834.5477816143838,812.8773204992183,802.4119430208333,730.51317056126
1731142170.0843613,821.3301836669435,814.8688850494215,806.2435622133468,721.8022449228258
1731142170.0882597,826.6421382567358,814.9235440550618,805.9559071957609,719.5574264683564
1731142170.0921578,843.3631755691542,812.0886219875927,801.768813152039,722.2014058575772
1731142170.0960562,853.4647956698984,807.0404525057266,795.4780116513916,725.2528205672168
1731142170.096192,842.7304329097517,801.8435235940946,789.6343529979282,725.7113400586364
1731142170.099824,812.3518715333704,798.7277919126617,786.5436578786389,724.7992972895947
1731142170.0999544,777.8460117682756,798.6822119742496,787.3271914199347,726.326140919833
1731142170.1038527,756.4836636265966,800.9114826387259,791.2114690728132,732.2799099166963
1731142170.107751,753.9652038231827,803.5723537879256,795.4659723431156,740.1151444350025
1731142170.1116493,761.2723040060238,805.1606724204335,796.5244158420425,744.6303327530507
1731142170.111815,763.6620857548731,805.3726887362722,792.1877797480563,742.8284542292671
1731142170.1140344,753.6794468660682,804.7666710608008,783.6603667871098,737.212309237371
1731142170.1155474,737.2580066606532,803.7006378201289,775.6799538591356,734.3746046606886
1731142170.1187084,728.1445311518979,801.7323366823616,774.039362993464,739.93738057071
1731142170.1194458,735.4747048953263,798.1944310751397,781.8257447598029,753.9373662040733
1731142170.123344,754.8171615108221,793.4012011003467,797.0497799757865,770.2686000277781
1731142170.1272423,770.3923814702993,789.145241787011,813.6217579874068,780.6340707631621
1731142170.127438,767.3493012946162,787.68389583524,825.1515860751957,780.2377972921431
1731142170.1311407,744.5266346474245,789.8754492666314,828.7915731980355,771.2879271811237
1731142170.1350389,716.9772478056086,794.1113748250807,826.3185916460881,761.8287380082018
1731142170.1375928,705.3443881350463,797.1780663005372,821.9493178774604,760.516185913822
1731142170.1389372,720.0017309557727,796.5455865353543,818.9606219866706,770.7802402034198
1731142170.1428354,752.5962113101747,792.2901645903862,817.83030345279,788.4559415839888
1731142170.1430607,782.0024034994192,787.1049924114847,816.9916536416636,804.7402488407465
1731142170.1467338,790.2321176909155,784.4262910289644,815.0571883642768,812.5466297440086
1731142170.148931,775.8912655408145,786.1772699652921,812.4102433423819,811.6421161525196
1731142170.150632,754.6537367472849,791.7512864215266,810.9108884698489,808.559572152734
1731142170.1545303,746.3957715199153,798.6841660042794,812.1439280349421,811.0993359346286
1731142170.1564772,759.2005044500431,804.1922762360595,815.7627042414241,821.5762872646512
1731142170.1584284,783.1107055147819,806.433443589221,819.3244824419055,834.3295537292947
1731142170.158684,798.8388658617308,804.9717122879089,819.8352858991593,839.9158615927823
1731142170.1623268,794.343769397183,800.6502912594625,815.9246114250122,832.9692484908383
1731142170.166225,775.2882721064726,795.2100015146465,809.0617564460497,817.347879194211
1731142170.170123,760.217505368342,790.6757402303638,802.8666262628144,804.0549600338557
1731142170.1740215,764.3135610252316,788.4485815546826,800.9222086168103,803.3045026707379
1731142170.1743069,785.5982738553797,788.4751002167387,804.575206216358,816.9986311058346
1731142170.1753614,805.5128448259244,789.2533147331736,812.1939249276944,837.4733572266043
1731142170.17792,803.6174389567104,789.0146380450466,820.2675507124314,853.1739852269345
1731142170.181818,774.393627837923,787.3196698302795,825.449262652283,856.6040546916681
1731142170.1838274,732.5460400175377,785.6475131766016,826.1401470441754,848.6648810856793
1731142170.1857164,702.5669493267924,786.2595493436414,822.7724359089269,836.725992644553
1731142170.1896143,700.7601900598868,790.1962298215836,817.0097884694846,828.5032425308966
1731142170.18993,723.6809355405522,796.167599552973,810.7252069836582,826.6001481893886
1731142170.193513,751.8099112290006,801.3446235230433,805.3924035175758,827.6788950690185
1731142170.1942458,765.3800494658816,803.3620224238886,801.8576002194604,826.5266705778146
1731142170.1974113,759.8158406993468,801.8714337668137,800.1682299817484,821.5083034328811
1731142170.2013094,748.5849551480461,798.5688771729132,799.4850159727773,816.8373532157816
1731142170.2052078,751.2909940729738,795.981097876982,798.4740279311554,819.6040901661461
1731142170.2055528,776.7593806413964,796.0725275839623,796.2659800119,833.7228989106884
1731142170.209106,815.0079897718289,799.468918833457,793.2950615165055,855.6233372764721
1731142170.2130044,844.7541808538438,805.4217028299496,791.0868925433383,875.4299514121437
1731142170.2131302,850.3837099507241,812.2742999517783,790.9103850386351,883.2682983378945
1731142170.2169025,834.6298416595016,818.1811459712641,792.4121564465117,876.2843172413982
1731142170.218724,816.7363456911773,821.837754239934,793.586196715078,861.0708111990634
1731142170.2208009,817.4841049416407,822.9153735433354,792.2840644214244,849.3100875984405
1731142170.221176,842.8593591138571,821.9624541034153,788.0151709638061,849.5190251120323
1731142170.224699,879.3348629846796,819.8410340326047,782.4795307548129,861.0825469701803
1731142170.2285974,904.7263592571167,817.1092228803186,778.4065027738734,875.3738853954299
1731142170.232015,906.0722577534159,813.82511667672,777.70316167434,883.1823473081315
1731142170.2324955,889.8857850363652,809.905397497833,780.3368551404981,882.238502367751
1731142170.236394,876.0607225489442,805.6560144797153,784.6002197969603,878.3222825575068
1731142170.2367988,880.469275485335,801.883620179875,788.3160688953832,879.0740186448422
1731142170.240292,901.2022845084734,799.3844974817006,790.0359973402631,886.3222515463697
1731142170.2441905,920.374472848772,798.2793458469595,789.5557800455214,894.1632615321444
1731142170.2480886,919.8126555504314,797.9064372483626,787.6975655231834,894.6471419282599
1731142170.2508993,896.8964123636614,797.4662720065365,785.7529466141202,885.7556887730138
1731142170.251987,866.956919929226,796.821173363209,784.9598349062124,874.1404624637562
1731142170.252422,850.3936213683982,796.6314081817467,786.0779243163483,869.8304948633529
1731142170.2536206,855.5116984779002,797.634081536075,789.0070276791577,877.4054854453141
1731142170.2558854,871.4057214572617,799.74621778034,792.6510844644147,891.4454103309224
1731142170.2597835,876.8468750195966,801.9143725722295,795.4189762778275,900.5436324547072
1731142170.263682,858.0527705694678,802.946996055662,796.3209975568561,896.7958042077266
1731142170.26758,820.7880922006643,802.5845813379011,795.8290045797611,882.7284022122335
1731142170.2680447,786.5689130622281,801.7687710667592,795.5311933008451,869.5313133046133
1731142170.2697835,775.7280641731817,801.8039239078892,796.626668590254,867.8509670438865
1731142170.2714784,791.1776385856485,803.1660736847207,798.5706073035267,878.9302118918125
1731142170.2753766,816.3419242647476,805.0617631144501,799.2619701611101,893.6915538278398
1731142170.2792747,828.950273454143,806.1390247060822,796.7937757295306,900.5086009897874
1731142170.283173,819.1459822546009,805.6891875040141,791.2838147262238,894.9386902626028
1731142170.2836676,796.9866650982462,804.2562051176992,785.1638550418096,883.1609794311202
1731142170.2870717,783.5560711749431,803.1494600977137,781.6157771141919,876.4556670103852
1731142170.2885172,793.4599477378578,803.3407028711208,782.3380086204608,881.6743384363671
1731142170.2886677,823.0848499863482,804.6881040267324,786.2891164952574,895.7435493510367
1731142170.2909696,853.8341828683886,806.0322569631425,790.3304411826049,908.5692178841948
1731142170.294868,867.3965448445049,805.9638081152103,791.4178201975806,911.7128842717094
1731142170.298766,860.5569340561465,803.6862646851716,788.9134400954631,905.6064515931082
1731142170.299291,847.3813243945747,799.5355944078627,785.3105200149519,899.3193061569731
1731142170.3026645,846.7708317745557,794.9702050250945,784.5781125877401,902.9077416358324
1731142170.306563,865.6547105304833,791.96826517383,789.1231837691315,918.4537022082275
1731142170.307552,892.2249646992718,791.986223695266,797.710842993087,937.1652444053831
1731142170.310461,905.4497060391184,795.055468492718,806.167243804873,945.2073080135059
1731142170.3143592,893.1644836155806,799.7481701282247,810.4112026425124,933.979471319066
1731142170.3149135,863.4453774735243,804.1551068638088,809.2858085217974,906.9685669312543
1731142170.3182576,839.4843758477059,807.1023063737248,804.8383998445878,877.8923564851505
1731142170.322156,841.9899592511725,808.5937722306146,800.0551373503883,861.4533593323724
1731142170.3234136,873.3009759095513,809.2375058628227,796.331238568224,863.4979731152993
1731142170.326054,915.6165954794808,809.3737495462029,792.982262696377,877.6803885686294
1731142170.3264363,944.1180579159609,808.7803777943578,788.975853537753,890.7695901965993
1731142170.3299525,944.1932432015028,807.1214919310484,784.9266646340402,892.2577314922786
1731142170.3305366,919.6021560111564,804.5520976398096,783.2366801083865,880.8538285224988
1731142170.3338506,886.6459701091297,801.8315554671625,786.1034605937521,863.3514334219344
1731142170.337749,860.9979165140811,799.8771623910771,793.1869805248566,847.9958089631139
1731142170.3416471,848.5610105498905,799.234646629334,801.1471203573852,838.7223125888466
1731142170.3453207,845.8517782199815,799.9155213490837,805.6851794481346,834.4167738613223
1731142170.3455455,846.2305848376424,801.5861321264372,804.5523716770605,831.8812234778248
1731142170.3461597,845.2338271043201,803.7721563755056,799.1249728756104,828.75943296046
1731142170.3494437,841.9049249960657,805.8884539872043,793.314696711987,824.4443727484611
1731142170.353342,837.321742846497,807.2474292796495,790.7463749838704,819.4324960666909
1731142170.3572402,832.740118589869,807.2759298007063,792.4541475571942,814.3752957246203
1731142170.3583102,828.7001998133568,805.8883043634544,796.769955641762,809.5808120943944
1731142170.3611386,825.0945499511276,803.6651441856445,801.1806853320608,805.0159362152018
1731142170.3617826,821.6036921911253,801.5595123378723,804.3686642133256,800.5212019874193
1731142170.3642054,818.0163402288874,800.300058516107,806.7210151887001,795.9822714652514
1731142170.3650367,814.2996151534473,800.0033491312709,809.130358892163,791.3755164159593
1731142170.368935,810.517810004179,800.2933746533572,811.4745179032863,786.7309573096729
1731142170.3728333,806.7367772112269,800.7083513909047,812.3602075466649,782.0828229669756
1731142170.3767316,802.981866059106,800.9931387023861,810.4336281057264,777.4456768096238
1731142170.3774054,799.2451554500359,801.1262002358358,806.0224282552203,772.8164482613872
1731142170.38063,795.5093545563889,801.1951079068302,801.4890882247958,768.1863293099797
1731142170.3830895,791.7639334454342,801.2780674076156,799.784002344379,763.5494776345234
1731142170.3845282,788.007834810198,801.3998911695912,802.2959748661887,758.9049083787027
1731142170.3884263,784.2447235099821,801.5467755800076,807.7786463107941,754.2542757156348
1731142170.3923247,780.4779972999069,801.6968913704084,813.2600338663334,749.5992749892225
1731142170.3930285,776.7088133339468,801.8385825798421,816.1732458223086,744.940508490961
1731142170.3932068,772.936645138536,801.9718438896197,815.9714155623054,740.2776933770818
1731142170.3962233,769.1605792749424,802.1016796482415,814.0560583553547,735.6103168724911
1731142170.4001212,765.3801174385563,802.2321203884395,812.3502924739986,730.9380651591644
1731142170.401974,761.5952605828539,802.3642597895094,811.8711404057822,726.2608693867478
1731142170.4040196,757.8062295188239,802.4972460203982,812.3741571277362,721.5787470098675
1731142170.4079175,754.0132094355711,802.6299234340519,813.0200064583545,716.89167429023
1731142170.4086514,750.2162804761725,802.76172798496,813.2055651069714,712.1996159917346
1731142170.411816,746.4154890474082,802.8927023822428,812.8681707977191,707.5026779053729
1731142170.4157145,742.6109302270081,803.023123409864,812.2713812418998,702.8012061325132
1731142170.4196126,738.8027340947491,803.1531954042492,811.6780336453197,698.0956098042542
1731142170.4208584,734.9909382630027,803.2829636889556,811.1941286993796,693.3858419336642
1731142170.4235108,731.1753543061413,803.4123766402073,810.7945109516801,688.670878644098
1731142170.4242744,727.3556347085969,803.5413728611173,810.4141627200903,683.9489643899982
1731142170.4274092,723.5316941065822,803.6699246849316,810.0118008212734,679.2192763789317
1731142170.4281034,719.7043217091625,803.7980357234169,809.5822029548606,674.4844606950143
1731142170.4313073,715.875338005291,803.9257201740577,809.1389158226631,669.751504047972
1731142170.4352057,712.0464641637101,804.0529871787538,808.6950764269318,665.0274660616813
1731142170.439104,708.216845029902,804.1798371012936,808.2554186134292,660.3094608737388
1731142170.4397428,704.381044208366,804.3062652899346,807.8180860252304,655.5758253441578
1731142170.4398973,700.5310528455835,804.4322668308142,807.3795286487908,650.7928876133025
1731142170.4430022,696.6647153117536,804.5578389034565,806.9376656878584,645.9481919534429
1731142170.4469006,692.7968344640516,804.6829806154803,806.4923271539243,641.0969802340559
1731142170.4507987,688.9603667381481,804.8076914800484,806.0442499320066,636.3719593320263
1731142170.4546971,685.1828233451413,804.9319695956519,805.5940798559124,631.8934969283646
1731142170.4555204,681.4392926099671,805.0558104640478,805.1419999200359,627.5788434143739
1731142170.4585953,677.6193600640157,805.1792076728705,804.6878599104992,622.9941834158064
1731142170.4586272,673.5744450164087,805.3021564109716,804.2314405200041,617.5226838560225
1731142170.4624937,669.2834004535363,805.4246586252807,803.7726102204895,611.0273678131045
1731142170.4629998,665.052478190032,805.5467248502174,803.3113381032538,604.7137221872179
1731142170.4663918,661.504414332129,805.6683658486631,802.8476370086389,601.2403119884655
1731142170.4702902,659.0923213270715,805.789572721586,802.3815124751247,603.0337618030059
1731142170.4711432,657.213322305857,805.9102990305794,801.9129460637655,609.2285047862848
1731142170.4741883,653.6753058756271,806.030473525056,801.4419032806811,614.2848863999366
1731142170.4775116,645.7475752387863,806.1500655505454,800.9683460878606,611.5996563966592
1731142170.4780867,633.329700258043,806.2691779526739,800.4922390477426,600.4530680682291
1731142170.4819849,622.3205131853553,806.3880689206528,800.013550350318,589.3168217568398
1731142170.4858832,623.721285051856,806.5069767687293,799.5322539710369,590.8486189858883
1731142170.4867663,645.9130741489997,806.625740967215,799.0483350419727,612.2577677176805
1731142170.4897814,685.2507509970467,806.7435000490353,798.5617916685062,649.4677200194033
1731142170.4936798,725.1035238003639,806.8590075246983,798.0726216721332,689.8296912243912
1731142170.4963958,746.8847348135257,806.9719263749186,797.5807915979304,720.5913287659919
1731142170.497578,744.3170792696541,807.0845184366318,797.0862097727756,736.2148140003538
1731142170.4978964,728.2280215390344,807.2017966314636,796.5887490228564,739.7774387491701
1731142170.5014763,717.5447438716768,807.3278794956399,796.0883526793872,738.909131314147
1731142170.5023892,724.082674625553,807.4588091214613,795.5851804521271,740.1781451218237
1731142170.505375,743.6885721888372,807.5775800202243,795.0796348509052,745.6755936165575
1731142170.5092728,760.8380067729238,807.6615333392755,794.5720711110563,753.2753618882792
1731142170.5131712,762.7008880723104,807.7077553474973,794.0621924062001,759.7156696051785
1731142170.5152802,750.8440376252377,807.7633949795471,793.5485921042247,764.1490411865868
1731142170.517069,740.5495954871318,807.9232090701163,793.0293036340628,769.5129147517938
1731142170.5180123,748.0468713358155,808.2539863320605,792.5038953172532,780.4636252835874
1731142170.5209675,776.3679236153243,808.6573511598142,791.9761143741688,799.3077208058608
1731142170.524866,812.0082450261665,808.784446639066,791.4539649392741,823.3585964039897
1731142170.5287642,835.5154800149154,808.1824188289477,790.9437024753261,846.3361369475851
1731142170.5326624,837.2866367539758,806.727498661804,790.4384037268245,863.0540751329171
1731142170.532793,825.4811464880868,805.0375265569644,789.9105290338374,873.560222936516
1731142170.5336351,819.5347108926551,804.3105473337997,789.3245751380226,882.9785698632735
1731142170.534165,834.3746644324058,805.4245575281425,788.6780451369004,896.7211060784832
1731142170.5365608,867.7196204525424,807.974758017984,788.0486468047989,914.8033906782799
1731142170.540459,900.6019241390695,810.2485874266802,787.5870781792588,930.3221146828193
1731142170.5443573,911.3448140509428,810.4025105164485,787.3928112550361,934.2193577575176
1731142170.5482554,892.7045162215035,807.9521907853853,787.2954816991675,923.1088188963842
1731142170.5492582,858.6944635578467,804.2585595247441,786.7259771437701,903.5998307613017
1731142170.5521538,835.026416448683,801.4805668614255,784.9575143315781,888.753685784158
1731142170.553049,840.0513804424289,800.8295594308438,781.776776303419,888.8588640653488
1731142170.556052,871.0679126964051,801.6494546584709,778.0796940117181,903.9206014289985
1731142170.5599504,906.8310875996503,802.1528409034983,775.6277016965275,924.1001842293824
1731142170.5638487,924.1074963454296,801.1396621379279,775.9259405449627,937.6149744764622
1731142170.564881,914.9967881363717,799.1131335164332,779.1859838766372,939.3966242677443
1731142170.5676897,891.6119142326545,797.785386016609,784.258702742385,933.5852767439259
1731142170.5677469,875.2536942786421,798.4959751692871,789.420279105373,928.5295635385298
1731142170.5716453,879.4125313907261,801.0608118512433,793.2466172282636,929.1542475033839
1731142170.5719335,900.1034387726191,804.0713077662305,795.0118517929966,933.2110554785194
1731142170.5755434,920.5565052975186,806.2135055035632,794.6104355236514,934.2262345079819
1731142170.5794418,925.781662188554,807.2476336367126,792.3642351737739,928.3305498585039
1731142170.580504,914.9584063482883,807.7732592881965,789.0027262671899,919.0400006041575
1731142170.58334,901.6201765290953,808.2158903337579,785.7264850599763,915.687314967117
1731142170.5872383,901.5879428471844,808.2036779306725,783.9892675545715,926.3234931061673
1731142170.590818,918.708362834241,806.9602387963881,784.8298552576038,950.6038490778955
1731142170.5911365,940.4330338816917,804.2184013959543,788.148105452671,978.5851395466614
1731142170.5950348,947.2836410256614,800.6755638869603,792.6325706681149,996.8612433830684
1731142170.596127,928.7322429591088,797.560694576506,796.6063097659802,997.5889941409496
1731142170.598933,892.5319242669095,795.7656524029051,799.1717543205365,983.5866630415468
1731142170.602586,859.6620556626358,795.3184311490818,800.6363841016708,965.7744258307177
1731142170.6028314,848.6448913023909,795.5638583669397,801.8129675400824,955.1496648298672
1731142170.6067295,861.6490722834196,795.7902069486572,802.8709076833045,955.4851017237701
1731142170.609702,883.5078065016992,795.7596706645429,802.9026326198131,962.0278054337899
1731142170.610628,894.4612169698343,795.7795233537927,800.7553968504048,966.5825458222488
1731142170.61175,886.2732568994088,796.3260967223046,796.4772269457706,964.399016178737
1731142170.614526,868.4891026859747,797.5211501334695,791.9953235007713,957.1788154231187
1731142170.6184244,859.6390591904808,798.8461897313348,790.1252150829807,950.127343843312
1731142170.6223228,870.7589657995652,799.3542423052713,792.4533458800911,946.1901576636982
1731142170.6262207,895.1583000880654,798.3162960840457,797.8307566682835,942.8812265111085
1731142170.627373,913.2204012861754,795.8559076595749,802.9389154221946,934.5283007600281
1731142170.6285863,908.4444894801774,793.0023148730913,804.6796596687285,917.8199525645683
1731142170.630119,881.5325455623786,790.990664422408,802.4892789660073,895.6716322125214
1731142170.6340177,850.8198790593241,790.3438667432582,798.6516144057024,875.9262125654192
1731142170.6374826,838.3711929151461,790.5957647403472,796.3656953317387,865.7338619977775
1731142170.6379158,852.6931231732009,790.9674507856084,797.2032223598779,866.0050670373257
1731142170.641814,881.9692329022287,791.299919102027,800.0163022687689,870.4065261838684
1731142170.6429958,903.4829552802095,792.1684176601946,802.0347940926756,869.9931240643723
1731142170.6457124,901.7964454274816,793.939520288228,801.0785747757292,860.2231116160638
1731142170.647471,880.8607168467286,795.8010730608986,797.0751577961069,844.9897876898328
1731142170.6496103,859.9634555977135,796.0452086839374,791.8909225459724,834.2078691348713
1731142170.653509,856.8548618820389,793.6516939555225,787.9382433566782,836.3559294385598
1731142170.657407,872.3774763401653,789.7222498480212,786.8020043894612,851.5908461257407
1731142170.6586187,889.7661688351552,787.2125146906649,788.7544342867943,870.9851777569858
1731142170.6613054,889.1485630477682,788.9324078505632,793.106598236773,882.734569824961
1731142170.6652036,864.7004122821546,795.4318178041576,798.7842001523545,880.5906136754504
1731142170.6663554,829.8665093703008,804.5217692200308,804.6383783182077,868.0085031617322
1731142170.669102,806.4477004296225,812.7388272461451,809.4704270475679,854.9505584998958
1731142170.6723793,806.8038145919027,817.4865755547027,812.0842037830017,849.9727384488533
1731142170.673,823.7820753536666,818.2602461800942,811.6414691705836,853.6837669524411
1731142170.6742418,836.5368213499269,816.3354337952625,808.2205089860772,858.5334555740912
1731142170.6768985,827.6995141874683,813.5316720464475,803.0682332710504,855.1417853835748
1731142170.6807966,798.2126541823187,811.1306836021175,798.0599958560632,840.361184000668
1731142170.684695,767.6453837532596,809.5709994386028,794.5401208871077,820.6417109885738
1731142170.6852398,759.1910617546785,808.7620556216757,792.4910428846205,807.6471068451589
1731142170.6885934,781.0688688596686,808.4747207535113,790.943815611631,809.2679680336969
1731142170.6898649,819.3587668509921,808.4754156557593,789.4291024311948,823.2282226620789
1731142170.6924915,848.2547585210373,808.4946914106441,789.0692232968296,838.6575377734101
1731142170.69639,849.6369365791908,808.2637865289269,792.0085709035664,844.5009583163801
1731142170.700288,826.4137613604896,807.6349423354682,799.4280515841133,837.9225264934238
1731142170.7041242,799.2939030291474,806.5861174415156,809.9028283204188,825.8774225505963
1731142170.7041864,789.9669761098985,805.0316986736407,819.7250583538439,818.7578673283572
1731142170.7054875,804.2033542713551,802.6970417120284,825.087697036908,821.5482209959742
1731142170.707276,828.0274102467343,799.399148640914,824.4074276147751,829.8252346485309
1731142170.7080846,839.6483354852087,795.6549435584678,819.0440252639302,833.8079610468552
1731142170.711983,827.5197682460052,792.9821148212615,812.0892294274792,826.9953231058283
1731142170.715881,800.0637814296308,793.2665692348385,806.3592557371965,812.1223730955953
1731142170.7197795,779.0677949358251,797.3640267468932,803.0710863326758,799.3103001449608
1731142170.7211108,781.8921546586479,803.9987261220754,801.864731371136,797.742035860228
1731142170.7230084,807.029740142259,810.0511999470364,801.6958623694725,807.7162779435434
1731142170.7236776,835.1120926127886,812.2988810043331,801.6169401516487,819.8354542410481
1731142170.727576,844.6937645820119,809.4560732114812,800.914977263569,822.2742359929807
1731142170.7314742,829.72291681747,803.0399711072346,798.9322071496387,810.3192067821857
1731142170.7353723,804.2276385904875,796.4433640241292,795.2389541854435,790.3653359610937
1731142170.7367337,790.5691736313065,792.8920729218337,790.2821518835943,775.0664526217117
1731142170.7392707,801.173685090051,793.6747036285929,785.8095096653404,773.5684107275562
1731142170.7418928,828.5325198841924,797.7001324342307,784.2531286130271,784.6102557457491
1731142170.7421722,851.0869842098707,802.4649814578485,787.1405957524399,797.7356358015717
1731142170.7431693,849.9753990015373,805.6702297895322,793.7019894109316,801.3579457291994
1731142170.7470677,823.46276453997,806.482434657503,801.0020017741437,791.3063463909547
1731142170.7509656,787.8760824913563,805.7590984040698,805.7690624790994,773.4584922793543
1731142170.7523568,764.3340466005593,805.1864287038843,806.5516779521552,758.7777687750824
1731142170.754864,761.8415222241199,805.9349806400301,804.4209845018335,754.8340643699979
1731142170.758762,770.6050467528362,807.788277712465,801.7142155814665,760.4292238068243
1731142170.7607772,771.3692584802693,809.401077262296,800.0971367128617,767.3854116742646
1731142170.7626605,753.1166291393088,809.4557658543406,799.7096796838533,767.8154420972793
1731142170.7665586,723.9533487618928,807.7092062153047,799.8876342832998,760.7714957306122
1731142170.7679796,705.4095229971999,805.0475271970863,800.3431989088768,752.7339696084093
1731142170.770457,714.5198862883497,802.6293018675536,801.4389226007216,751.6607374382951
1731142170.7743552,748.7390418098821,801.0110270511346,803.4223854927707,759.8740481292743
1731142170.7770689,786.6099370044019,800.0003607983026,805.7271135403428,772.0158910390621
1731142170.7782536,803.96324143966,799.1579809567322,807.3291268581714,779.7345770324473
1731142170.7796617,792.5018750464807,798.316687312975,807.8768305353254,778.7857055380375
1731142170.7821517,765.6712284111139,797.6725622241453,808.3259759439155,772.2416231649245
1731142170.7836027,747.160370397005,797.5278807448186,810.2095407154854,767.1854646558008
1731142170.78605,751.5859670182754,798.0207308468445,814.0699765341914,768.1308364586099
1731142170.7899482,773.2862356501004,799.0384902377199,818.5402069613713,773.1544917051743
1731142170.7938466,792.3577249262839,800.2963716044267,821.0797305845598,776.0621538152701
1731142170.7977448,792.555760170898,801.5078939103663,819.8920880207477,772.4172396463326
1731142170.798546,775.6466804641957,802.5918526364891,815.461654476471,763.8947272828403
1731142170.7992256,759.9250857834604,803.7893592519623,810.4121217526845,757.0305510000953
1731142170.8016431,764.2234020862205,805.4999786138279,807.7233060104734,757.4266944743482
1731142170.8055413,791.0625977813365,807.8218928156742,808.6377223171835,764.4488472386593
1731142170.8094397,823.2061573267547,810.1453235510464,811.8645392419401,771.0985894311281
1731142170.8119657,836.6249523983265,811.2789448632951,814.713668374914,769.4536816726841
1731142170.813338,819.4214479074847,810.1907173502804,815.215997594685,757.4062108062267
1731142170.814849,781.5474171760776,806.8228372234554,813.4078178204566,741.1536125576488
1731142170.8172362,747.5952007676126,802.2585092138825,810.7908309566054,731.069254757904
1731142170.8174305,738.3246453088749,798.043670779823,808.8061487143661,733.7953877718986
1731142170.8211346,755.404773475678,795.2199190366454,807.8907511025005,746.624670298631
1731142170.8250327,781.314468747213,793.8734800085531,807.6532922983515,758.8194835578208
1731142170.828931,794.3346904133182,793.5181047234774,807.5314647571774,759.3023794948919
1731142170.8304715,786.4145615915943,793.8663243336753,807.22150238422,745.0575291227075
1731142170.8328292,769.2969830811231,795.1901671691892,806.7142906817096,723.7211523648955
1731142170.836315,763.947449140964,797.8609951867791,806.1310198189412,708.1561516504017
1731142170.8367276,782.2181185898376,801.4933694417513,805.5725036412392,707.0708021279685
1731142170.8406258,816.1314001376269,804.6468241079605,805.0675926016692,718.956124659113
1731142170.844524,843.7576930520875,805.6506184269573,804.5961104781826,734.0514817457453
1731142170.8460946,846.8829855947465,804.0205517006211,804.1293933096865,742.6168367876445
1731142170.846862,826.0029541614336,801.1738933590694,803.6530322083697,742.6887007318659
1731142170.8484223,800.366172036001,799.6075504886518,803.1677461257118,740.9752194317068
1731142170.852321,792.7893196469719,801.076350306354,802.6803056006399,746.2778807045225
1731142170.855199,811.1733104356562,805.2700683052201,802.1958502014236,761.096758098697
1731142170.8562188,841.5168907526983,810.0708263783845,801.7156050388256,778.6695700574779
1731142170.8601172,858.3543768994958,813.091017463101,801.2383448047048,788.1868251628001
1731142170.8617177,844.6162185769487,813.1801152849466,800.7625539755352,783.9337575824696
1731142170.864015,805.0475635723336,810.8147671241361,800.2875364128879,770.5254956365948
1731142170.8679135,762.3536245321204,807.3677683995297,799.813379510193,759.5201156875981
1731142170.871812,739.4032502664569,804.0970297506854,799.340447490693,760.0879902119981
1731142170.8740835,742.209564175734,801.6457639183956,798.868988553794,771.6583079573219
1731142170.8757102,757.2843760544749,800.181830623555,798.3990378529551,784.7960192420538
1731142170.8773406,764.5958473623244,799.7578395445788,797.9305118149189,789.4124429471392
1731142170.8796086,754.6398047299722,800.448759592791,797.4633291358527,783.1742686114659
1731142170.8817585,735.5490531532204,802.1750833751942,796.997465677391,773.0713852544709
1731142170.8835068,725.0515946145327,804.4808426888935,796.5329351564307,769.1513287403927
1731142170.8874052,734.5768751938474,806.614994998871,796.0697330672795,775.9593386799933
1731142170.8913033,758.8976776764645,807.9509076897193,795.6077948779299,788.7831271086728
1731142170.8929634,779.916557188572,808.3587113597948,795.1470166143422,797.5089741880319
1731142170.892968,781.5630624034799,808.1677250045442,794.6873573929381,794.6860103234309
1731142170.8952017,763.5048400490712,807.8192101847859,794.2289703662666,781.3073651658156
1731142170.8990998,742.0103047901339,807.5775262400231,793.772213118701,765.9426474083119
1731142170.9029982,736.7158072909024,807.4822969302624,793.3173711510696,758.1798929368873
1731142170.9068964,754.0139887947437,807.457150167822,792.86412122463,761.6617926403711
1731142170.9085865,781.0996583076901,807.4253191815947,792.4111702479108,772.0861135967159
1731142170.9107947,796.0521565423297,807.3584017131192,791.9568257212976,781.428724571224
1731142170.9118524,785.8491830469002,807.2667158256269,791.5009025224407,784.6857419821896
1731142170.9146929,757.4807843956232,807.1708363781769,791.046966258014,783.6067279839708
1731142170.9166553,732.9783524643329,807.0829112325696,790.602098761164,784.5314982772975
1731142170.9185913,732.2318313726328,807.0038824927798,790.1712401225373,792.2600329549069
1731142170.9224894,757.2522794625905,806.9292892139065,789.7471379919627,805.04947576314
1731142170.9242094,790.4362927484251,806.8551357905606,789.3046874665179,814.9752649184868
1731142170.9263878,808.3526625566485,806.7801227669671,788.8137130842406,813.6973449332422
1731142170.9302862,800.1600260477037,806.7049205738372,788.2760736369587,799.2902382436654
1731142170.9307363,775.8454160903054,806.630626144274,787.7654090944009,778.6416115861197
1731142170.9341843,757.5533099560324,806.5578326599684,787.4152340186137,763.1363258049666
1731142170.9380827,761.1230376186528,806.4865440022048,787.3041023430958,760.6492757939651
1731142170.9398322,783.125029966849,806.4165056451718,787.268044938931,770.0391715034152
1731142170.9419808,804.115503361052,806.3475078506552,786.8158619084983,782.5435779188521
1731142170.9458792,805.2327439920144,806.2794878248552,785.4049995886081,788.9420653022303
1731142170.949621,784.1494957265287,806.2124820904327,783.1496105853581,786.6380973508867
1731142170.9497774,757.0984779108971,806.1465443662881,781.4872990550214,780.959437211536
1731142170.9515517,745.4031383005783,806.0816991152071,782.8321920825787,779.8923625242603
1731142170.9536755,757.770738472244,806.0179376183739,788.7598326058376,786.930192091801
1731142170.9554553,783.039709892866,805.9552332636498,797.988382358754,798.1158896111928
1731142170.957574,799.4533099209558,805.893556956989,806.402107201403,805.642683222753
1731142170.9614725,792.8803956940377,805.8328891492113,809.7341247748902,804.801336406776
1731142170.9653704,768.8388511339647,805.7732311993179,806.7566779364909,798.303422624324
1731142170.9685054,748.1179254355347,805.7146105099207,800.1611900749061,794.2726222553536
1731142170.9692688,749.4550932350576,805.6570626284514,794.4807714873238,799.5052830772211
1731142170.9710782,773.7224280283175,805.6005798308652,792.9971010944943,813.5372619392408
1731142170.9731667,802.9255953817036,805.545052155386,796.0712592987421,828.4169147871095
1731142170.977065,814.8446790688685,805.4902756834031,801.6788762446218,834.4678067363652
1731142170.9809637,801.0382388650978,805.4361063703151,807.0848390725561,827.5550184546183
1731142170.984862,773.3995234771737,805.3827301945031,810.2130057432771,812.2966057840902
1731142170.9864483,754.3260098367632,805.3308117907342,810.16802298742,798.9485883359523
1731142170.9867013,758.975346239563,805.2811442150604,807.2357779270246,796.4295773433022
1731142170.9873898,783.8649097368105,805.2336468824712,802.729107720282,806.4708086755303
1731142170.98876,810.3742786596281,805.1863034328387,798.619608798722,822.7950032528881
1731142170.9926584,819.9136076068654,805.1355036301767,796.7869394605759,835.7719623174941
1731142170.9965568,808.6889149569779,805.079154211352,798.1215854945814,839.3470924030574
1731142171.000455,790.3688873469509,805.0217076497577,802.0866275929124,835.2477272477256
1731142171.002324,784.3821350768555,804.9763365931345,807.1104228258689,831.0633584089655
1731142171.0043533,799.2475090256331,804.9572876168961,811.4951723690203,833.4265781864949
1731142171.0062742,824.86997952489,804.9604435187291,814.1233336424511,841.8951800071457
1731142171.0082514,840.6663425871576,804.9445285637648,814.573646835967,849.0652002493961
1731142171.0121498,833.0467097708481,804.8405767650181,812.9218717581608,847.2104156127525
1731142171.016048,807.5250943740845,804.6116848753444,809.7144999356726,835.7439129281623
1731142171.0179472,784.9857661402252,804.3376430010796,806.1349269350139,822.7215154521284
1731142171.0199463,784.9501093424566,804.218269413598,803.8441477600371,818.738731741882
1731142171.021345,809.6545992866097,804.3720654198114,804.1311297739949,828.3208627309621
1731142171.0238445,842.0971235870439,804.5214169609184,806.8357032729839,846.1739522801394
1731142171.0251586,859.6997222888355,803.988228294633,810.1103385682384,861.5041852746327
1731142171.0277429,852.4794834092447,802.2967830544682,811.6075461128487,866.728673303103
1731142171.031641,830.8894701656797,799.9222423288301,810.349500588251,863.1876358092561
1731142171.03357,816.8043677202246,798.2601597241775,807.6515629654812,859.0649733147698
1731142171.0355394,824.9881020762363,798.563092889886,806.0976077419624,861.4646482210069
1731142171.0394375,850.4913828443395,800.7570418780149,807.2890961345621,869.6972134186171
1731142171.043336,872.6607250300914,803.3281754622105,810.2905809319342,875.7750048148205
1731142171.0440428,872.4402664256621,804.4786160279431,812.1682423349257,871.7276286267484
1731142171.047234,848.3661223656944,803.5278275993251,810.2168218376662,857.2546388221141
1731142171.0491931,817.871002825009,801.3196876109681,804.0457144925733,840.8354099102751
1731142171.0511324,803.012585780403,799.3347626921242,795.8920565165427,833.0872600675531
1731142171.0550308,812.6358526091935,798.3533054824765,789.06797950137,837.948636542148
1731142171.0562413,835.5709941022411,797.8401527296455,785.8991960949489,849.2240573380722
1731142171.058929,850.122357583098,796.5300724963686,786.6701038106647,855.4294180916936
1731142171.062827,841.8863958966139,793.6610253707653,790.0237995338736,848.780355669476
1731142171.0629272,815.4778074539375,789.8112416859578,794.0936852023582,830.8225774693526
1731142171.064816,790.8314496567189,786.6791309441087,797.3814810560002,810.4160409904216
1731142171.0667255,787.1033947745738,786.0050873047817,799.031490323474,796.4979581158428
1731142171.070624,807.111578165439,788.4613565467763,798.824451567988,792.1608822432341
1731142171.074522,834.9266046344707,793.2865060240512,797.2313056529606,794.4401651827025
1731142171.0784204,848.699341139379,798.8239543640976,795.4072995292058,798.3936878730593
1731142171.080439,838.3775756201677,803.4684222215581,794.7834937719555,800.8893943349179
1731142171.0818117,813.8451379239062,806.3431454399451,796.2629374605489,801.4796411726019
1731142171.0823183,796.7881531406404,807.3927128337806,799.5473831976976,801.1575383878444
1731142171.0862167,802.8691198870722,807.0742318831813,803.1899342058883,800.9173922438264
1731142171.0901153,828.623644137782,806.0116771944435,805.4528667355053,801.1336486376987
1731142171.091138,853.6309692873955,804.7915949802945,805.3951676736658,801.6807506072023
1731142171.0940137,856.2961364643294,803.846411071075,803.3964406452906,802.2969079580471
1731142171.096062,830.8406430747795,803.3639502809896,800.743009539903,802.8255218295315
1731142171.0979116,792.163865752469,803.2786590693015,798.6286837069424,803.2532085328887
1731142171.100696,764.6898826966335,803.3883374087709,797.3717236101876,803.6366500195045
1731142171.10181,763.8469513187886,803.5121903550572,796.4568392865019,804.0273693380816
1731142171.105708,784.7631337514193,803.5727225051488,795.3231444076588,804.4426182236307
1731142171.1096065,807.2030879424111,803.5791181152345,794.1757968678176,804.8742757184951
1731142171.111685,812.6890044414894,803.5700747073384,794.0301786502498,805.3085249494051
1731142171.113505,799.6447482481258,803.5721357855396,795.8199647365043,805.7378678036391
1731142171.117403,784.002185562321,803.5898127771559,799.2648874578118,806.1623385017922
1731142171.1195805,784.9768840609992,803.6152478079596,802.5486945134442,806.5853155698138
1731142171.1213014,808.1666808108589,803.6401420768502,803.2825955609127,807.0096288789927
1731142171.1251996,840.1136057690256,803.6611736399013,800.136397942844,807.4362276790889
1731142171.1260345,858.6862633345731,803.6792214459788,793.8822432989742,807.8647848932362
1731142171.127308,850.6694104726303,803.6964086803346,787.0169020041687,808.2947581165915
1731142171.129098,822.3198486084091,803.7140550960407,782.2327892998414,808.7259802530026
1731142171.132996,794.4379527973107,803.7322991308012,780.8469276474447,809.1586672171474
1731142171.1368945,785.9278191839085,803.7506737987485,782.2493739557569,809.5931569637829
1731142171.1384647,799.153923192141,803.7687328288347,784.6345965125361,810.0296984224601
1731142171.1407926,819.082467235796,803.7863073247681,786.3682848961058,810.4684290474582
1731142171.142931,826.8629565024452,803.8034431768758,786.9637573245707,810.9095081255766
1731142171.144691,816.3125574710142,803.8202398520182,787.05288371088,811.3532652377396
1731142171.1485891,799.2195497546134,803.8367467244487,787.5965364699775,811.800180326694
1731142171.1524875,794.9688220916357,803.8529486041189,789.1407068139941,812.2505766973028
1731142171.1563857,813.4461643682404,803.8687999240792,791.6829415195174,812.7041481487729
1731142171.157349,845.7590939096629,803.884261600348,794.9745065221861,813.1597999057592
1731142171.1585538,870.4771878088007,803.8993188819957,798.6863985393301,813.6164367846621
1731142171.160284,870.1948783547971,803.9139780045437,802.231544811895,814.0747927664914
1731142171.1609309,845.1101110572182,803.9282456370075,804.6477819550646,814.5390164598166
1731142171.1641822,812.989943157999,803.9420990580996,804.9876774651667,815.0153850783746
1731142171.1680806,795.634858999786,803.9554671229868,803.0414343208165,815.5062114096268
1731142171.1719787,802.3842824027901,803.9682547771251,799.708227894557,816.0014272505312
1731142171.1741767,823.4951636420876,803.9804305519316,796.5894672433145,816.476996458435
1731142171.175877,838.5346975858796,803.9921351977273,795.1122556604805,816.9115228927088
1731142171.1762335,833.0548845515593,804.0036841868732,795.8526095392307,817.3210439666146
1731142171.1797757,810.1671639417648,804.015320997985,798.4013185651244,817.785548902735
1731142171.1836736,787.7409223513739,804.0267491891245,801.6247706254948,818.4176787748474
1731142171.187572,783.6219781796437,804.0368294336862,804.0713134320586,819.2423615916186
1731142171.1897998,800.9625395542549,804.0441002996437,804.4628816459352,820.0440556825954
1731142171.19147,825.518393546044,804.0484583254278,802.26414962919,820.3602237640654
1731142171.195118,836.9583668659365,804.053093009583,798.1320025484251,819.8230578235602
1731142171.1953683,825.0190463699207,804.0642020302265,793.8897811316982,818.8102083000558
1731142171.1958275,797.6538766444216,804.0859558376524,791.8046277826448,818.8547723062024
1731142171.199267,774.7798440301125,804.1117287279653,793.3848280227453,821.9407618266121
1731142171.2031653,772.6103449415152,804.1193880983584,798.4003011047552,828.5214874110656
1731142171.2054229,791.0655539008696,804.0828640447147,804.9067001506819,835.8013760320442
1731142171.2070632,814.3990335753409,804.0047490354262,810.4162886799226,838.5337454996798
1731142171.2109616,824.4947373539425,803.9503485584463,813.3763038843681,832.6206309349327
1731142171.2140024,815.7379096909541,804.0353428151907,813.7534568098116,818.8086113618217
1731142171.2148595,798.9295375153574,804.3226422455633,812.3349942192505,803.1246331428999
1731142171.218758,791.0332163316921,804.6554070602535,809.6272169406,793.2530653320066
1731142171.2210455,799.7770190372077,804.5765584536745,805.5806473019185,793.3982505081132
1731142171.2226562,816.5337338056188,803.5427415341513,800.3577346882837,801.4144848413621
1731142171.2265546,823.5951196753778,801.4391486885346,795.1174503919203,810.3101332106999
1731142171.2304528,809.5293836742911,798.9514792768333,791.7393897952556,813.1038488756067
1731142171.230724,779.5969293557006,797.221931559409,791.5741121008288,807.6622088656322
1731142171.2328868,752.5084706524381,796.9054740384935,794.3519675820551,798.0960594720739
1731142171.2343512,746.0078602211487,797.5206051433437,798.2364754827885,791.6267592325146
1731142171.2366686,762.7244818629794,797.7511666202078,800.9750125865214,793.1401016341019
1731142171.2382495,787.7258871783995,796.4416319556117,801.2632960687774,801.5908748350648
1731142171.2421477,800.2071980056248,793.5346639731151,799.410059626955,811.211745196994
1731142171.246046,790.3317351769755,790.3318882677515,796.9400024666519,816.6008545400787
1731142171.2499442,767.415212100691,788.8399116067925,795.4199190302323,817.2742307009858
1731142171.251771,752.1714925674921,790.4773360021267,795.246185537728,817.5077315289866
1731142171.2522917,759.0479458576664,794.9543080114539,795.2229884348599,821.5105600782492
1731142171.2538426,783.5221829320031,800.233749698038,793.3491107767783,828.4862051444327
1731142171.2577407,805.4404403813431,803.7959439534593,788.4336557180177,832.5528657780172
1731142171.261639,805.8723939736693,804.362855909095,781.4797053575016,828.0840391649245
1731142171.2655373,783.2706753259226,802.7516830445352,775.7460188909401,815.7377061732664
1731142171.2656207,755.1939968377052,801.1563052496223,775.1292074588425,803.3196209811807
1731142171.2679143,744.0789778388023,801.4086511031223,781.6235604197778,800.015254010857
1731142171.2694356,758.9546591895331,803.5857049226711,793.4826173522891,808.6296353162103
1731142171.2706554,788.292137113924,806.0461998146341,805.6516322430213,822.7227812103717
1731142171.2733338,809.873678956033,806.8486072512051,812.6993038993406,831.6151093566373
1731142171.2772322,809.4683715835955,805.3943039444713,812.4481657917336,829.3298404937292
1731142171.2811303,792.7375525006829,802.9376174672375,807.4665921221673,819.7438921411465
1731142171.2835376,780.3269951423949,801.5500934839488,802.9482830589266,813.2384832897523
1731142171.2850287,790.1848164090022,802.4767790468369,802.5346004881683,817.5893501250777
1731142171.2889268,821.9550270590033,805.3278445712269,805.5774290474391,831.0035337463488
1731142171.2895398,856.5100662353938,808.6762647574325,808.1271843855617,843.3020073861311
1731142171.2928252,870.9279076775315,811.2674196569533,806.5899797746843,844.07983367837
1731142171.2967234,856.5854208391232,812.6191491374158,800.7424382290665,830.8475610925144
1731142171.2991605,825.9498151766694,812.6724239833802,793.6691995228329,810.6424556523058
1731142171.300517,803.0710354490741,811.2559326538242,789.0909841102077,794.3855326663171
1731142171.3006215,805.506011199964,808.207935696607,788.6327026132005,788.9799513777044
1731142171.30452,831.5923576294181,804.0636429974285,791.1716530347823,793.2648985382363
1731142171.3084185,862.5219353109978,800.4108944637776,794.3048994299088,800.2876824344193
1731142171.3084242,877.3185944562645,799.2518831761255,796.2800547833014,803.4119388534242
1731142171.312317,869.0650503312262,801.6930830717646,796.8097636845447,801.3240397531283
1731142171.3147836,849.7967970247403,806.9733010707982,796.5758292243852,798.3635200943285
1731142171.3162148,840.2588466553652,812.6077088067893,796.32745433773,800.2969669523102
1731142171.3201132,852.6838494828658,815.6012270757009,796.3921916793149,808.9410663448554
1731142171.324011,880.4716511971974,814.007753355268,796.7144420667562,819.8154593397974
1731142171.327309,903.2152108910569,807.9733188858933,797.1095641264573,824.8424541467575
1731142171.3279097,903.061489496242,799.7079198034793,797.4531270001629,818.3846627282234
1731142171.3304064,879.1548337324363,792.362661516434,797.7244392161243,802.1601043620597
1731142171.331808,848.5624738012066,788.3840406953884,797.9603751771064,785.004744849812
1731142171.3354137,833.1193806202662,788.3143138728302,798.1995388271946,777.1524721181946
1731142171.3357062,842.8680452899882,790.8278963798174,798.4571762195743,783.0696154793459
1731142171.3396044,869.2096312706446,793.9566129496773,798.7289846444949,798.3409997216739
1731142171.3435028,892.8328151457046,796.531228863459,799.0049635990039,813.1321197830554
1731142171.3460295,899.5543730867573,798.705125967547,799.2789279248772,819.541676108195
1731142171.3461933,890.9974485968213,801.2690001009829,799.5502124463386,817.0320576385175
1731142171.347401,881.5698825926127,804.5525322324011,799.8209551824688,811.7640499651775
1731142171.3512993,884.7379467126607,807.9823115312764,800.0931775908371,810.6688477891865
1731142171.3551974,900.4884283746079,810.5857906087808,800.367601945532,815.2702082293001
1731142171.3590958,914.6775854146118,811.7624577324756,800.643954526062,820.3035168555041
1731142171.3616524,910.8182172685141,811.5148849904725,800.9217183423535,818.2308499485024
1731142171.3629942,884.4244611136515,810.0845929292811,801.2006088926912,806.0247660247512
1731142171.3650773,847.9115811536952,807.6117923511342,801.4806330540913,788.699812124782
1731142171.3668923,821.6721438302598,804.2595915178011,801.7619306241356,776.4399999922451
1731142171.3703103,818.0555258826727,800.5411398969655,802.0446201471333,777.1394468216033
1731142171.3707907,830.9627443151537,797.3012402878313,802.328743648507,790.0697094337318
1731142171.3746889,839.9357748926825,795.2612875428364,802.6142928055458,805.9871142612365
1731142171.3772757,826.3853101090631,794.5966133711864,802.9012602702504,814.0907019408723
1731142171.3785872,789.3054850637233,794.9614191556988,803.1896716782063,810.4466596371972
1731142171.3824854,747.1796449619098,795.8373115305354,803.4795778552635,800.8209290806893
1731142171.3839617,723.546774284333,796.7898027327046,803.7710087124417,795.2975730573958
1731142171.3863838,727.6664941228311,797.4924600447682,804.0639173931512,799.1557111380343
1731142171.390282,746.635583775178,797.738445937083,804.3581744096001,807.9551425608006
1731142171.3928983,756.0093654132322,797.5643453789921,804.6536744163753,811.2745837672426
1731142171.3941803,740.1210632604999,797.2578649457616,804.9505436647676,801.9699863615723
1731142171.3980784,704.9381531896054,797.0384605318748,805.2492803920343,782.9024457996387
1731142171.4019768,672.8832486446065,796.6809361814738,805.5505379563488,765.246315893144
1731142171.402846,664.4754255900922,795.632633305095,805.8543942383195,759.7823034081073
1731142171.405207,682.2821498462719,793.7323453072452,806.1594884057573,768.5335850066789
1731142171.405875,709.939650005609,791.8791561818698,806.4631034437123,783.644205778368
1731142171.4085214,726.190582446216,791.8337982690218,806.7633283984198,794.1941791518387
1731142171.409773,721.9634477342709,795.0750378323521,807.0629155447319,795.095477890836
1731142171.4136715,706.6668870820897,801.5755661945698,807.3714735507509,790.686922130785
1731142171.41757,699.0342663908448,809.5404692040065,807.700600637851,790.2465380770035
1731142171.4214685,710.5657237390036,816.3728406741449,808.0496655079552,799.460533880087
1731142171.4217305,735.5649326498125,820.1469753820405,808.3904943379564,815.174982251882
1731142171.4241445,755.989899621458,820.5535779457153,808.6717551197402,827.7824541019712
1731142171.4253664,756.7691375822434,818.7842208609417,808.862739745905,829.0783273938538
1731142171.4292648,738.6395532304205,816.5985310553187,809.0249904719684,818.9851862595219
1731142171.4331627,717.9858565511205,815.278822650871,809.3440610964886,805.6971355669843
1731142171.4370613,714.0172177991728,815.1095658005602,810.020749400362,799.2394461996984
1731142171.4397674,733.6074520176307,815.5464476602692,810.9885470521281,803.6277361544861
1731142171.4401033,765.5385801122576,815.7166615535783,811.6222848173592,813.7774175719888
1731142171.4406147,788.4615828902263,814.7659728257692,810.8029666128888,819.5591098563591
1731142171.4409597,786.7411688914177,811.9722300434643,807.6029112698883,813.9139428516975
1731142171.4448578,762.568768507486,806.9939600494696,802.2821385792887,798.7916919654788
1731142171.448756,735.0335975498992,800.4592265313682,796.676595239857,784.1555223669702
1731142171.4526544,726.0745196071334,794.3829204718767,793.2556542744888,780.4800226110691
1731142171.4553902,743.4908354679945,791.5515825887891,793.2889197570354,790.3545382081024
1731142171.4565525,774.502661476914,793.7681806715536,795.6383388834399,805.8990351397176
1731142171.4594994,795.7735576832083,800.1600588407196,797.452913396579,814.4291297189999
1731142171.460451,792.3555836609457,807.1645019676317,796.4586662613082,808.223406563223
1731142171.464349,769.958337059773,810.6017355444994,792.9665670926016,790.6806558914823
1731142171.4682474,750.0101113160162,808.4419000606654,789.7555531202433,773.8305079222911
1731142171.4710133,751.4970804103874,802.2097501221897,789.8248842605599,769.1402998903069
1731142171.4721456,774.9428170053912,796.0330236191553,793.9779525410765,779.0291869302355
1731142171.475,802.0124773753253,794.0626891052061,800.3225713826481,795.770728847337
1731142171.476044,810.8531132424878,797.9659999418408,805.9236315474886,808.2428708391175
1731142171.4783835,794.1484309124368,805.9697038620324,808.9372706920865,810.6689709885669
1731142171.479942,764.9172788791577,813.9524697040894,809.4373613194618,806.2686882937102
1731142171.4838405,745.48321597715,817.9233636197189,808.658411169392,803.285995730588
1731142171.4866362,749.0147681151186,816.3681465986658,807.777544191624,807.2198206816894
1731142171.4877388,769.170634778713,810.955578266975,807.3489784434477,816.051688592467
1731142171.491637,786.5477670673079,805.1998828633115,807.4758839796136,822.4867237065998
1731142171.4955354,786.3336929455955,802.1534532602816,808.0678780904291,821.0666608640983
1731142171.497268,771.9018582128753,802.7868953510507,808.7655570475005,813.7370535053682
1731142171.4994335,762.5059361204654,805.9290284508503,808.8114702084794,808.7859807283
1731142171.5022593,776.8578541407298,809.3793943059076,807.3984140257419,813.8817439248836
1731142171.503332,816.440387408458,811.2383286182038,804.5126295738299,829.1392677715661
1731142171.50723,862.6682584937132,810.7730819390348,801.5447097580867,846.2009648926315
1731142171.5098965,890.4878023204784,808.573950925165,800.81267759564,854.2271392517126
1731142171.5111284,887.4812621550832,805.9917424648028,803.9588813546923,847.9177370367909
1731142171.5150266,863.0968024907454,804.1456808717107,810.3145222118044,831.1588207871678
1731142171.5161524,840.659762945741,803.2040658364922,816.6654245473085,813.6825603417991
1731142171.517882,838.6627452496876,802.6064277628249,818.914615604061,803.7505440492962
1731142171.518925,856.3708421734076,802.0663510880227,814.6363785515359,802.6293638849446
1731142171.522823,875.2810997746668,802.2742150454529,804.7375356965347,804.7227248175448
1731142171.5267217,875.2073374721234,804.3541032829473,793.0533738759369,802.7198818831143
1731142171.5306196,851.8530931529806,808.417473575533,784.1985730650408,793.6080453840628
1731142171.533505,821.3991059027848,812.68500962002,781.1691490007912,781.1359487939416
1731142171.534518,808.1959055834064,814.3084319815139,784.178661499859,773.0828260340529
1731142171.5350368,825.4703741686686,811.4398927718194,791.1512358429803,775.3952281538648
1731142171.538416,864.532777576796,804.8264461753256,799.1374640869,787.4312038478558
1731142171.5423143,900.9238049923943,797.5029069253637,805.5583063286315,801.8166451848166
1731142171.5447931,912.4675560854256,792.7491744589105,808.7212213009076,809.2531583600997
1731142171.546213,895.2214469701177,791.9352851048247,807.8425294444057,805.0679248703786
1731142171.549128,865.4197609238554,793.9482806795826,803.0991872879979,792.7963994550043
1731142171.5501113,846.4530083815152,796.541179665452,795.834374581628,781.9195093650673
1731142171.5539212,851.2007224684539,798.3190535539605,788.4799346605959,781.070420401823
1731142171.5540094,873.3225058079926,799.5885075146851,783.7530418795974,791.6444044419989
1731142171.5579076,893.9932933885059,801.4252487018468,783.3596822155458,806.8263021075209
1731142171.561806,898.3035848509016,804.0615493959964,787.091390443695,817.0707183282101
1731142171.564751,887.706142289808,806.3405452569037,793.039786287128,817.858509239462
1731142171.565704,878.1580772212016,806.7988025457915,798.7526964585638,813.3971329241532
1731142171.5696025,885.6781463872143,805.1544392921282,802.434836427768,812.9900918297452
1731142171.5728056,911.7511409524948,802.5758241661702,803.4493402836904,822.8701619170446
1731142171.5735006,941.0825564039936,800.5150750222571,802.1141341167923,840.3087559088392
1731142171.577399,953.6827561685711,799.442288798774,799.2902177789583,855.15392577057
1731142171.5796895,941.2771458510258,798.77467364165,796.1331737417694,857.7713950933344
1731142171.580374,914.4969024971734,797.8852445428902,793.9402819347665,846.858017003148
1731142171.5812972,894.7491271629625,796.9947421411283,793.812848690707,830.5828071085731
1731142171.5851955,896.9706535478808,797.0497668755124,796.0872377031044,820.1360729295812
1731142171.5890937,917.0043745074781,798.7900665046639,799.9229462616717,821.1894666011273
1731142171.5916898,934.095975654368,801.9021601132474,803.5802261170044,830.3335404105404
1731142171.592992,927.1248331329703,804.9697778131912,805.4737023424992,838.9399689838344
1731142171.5959969,891.8183272690392,806.2749571784441,805.3302667360834,840.4317389119498
1731142171.5968902,844.8188568982715,804.9337725585572,804.4548681945694,834.5827631118323
1731142171.6007886,810.8904935402752,801.6184472225345,804.7109271124045,826.0167745700038
1731142171.604687,803.5232685564941,798.3039346820564,806.937993109256,819.5453213600705
1731142171.6085851,814.8188728877184,797.0779423519797,810.1048789424894,816.9367658684188
1731142171.6105742,822.7751644945259,798.7611264237169,811.9217216232597,817.0637322000974
1731142171.61162,809.592415426092,802.3167674825281,810.428392724295,817.9285102448451
1731142171.6124835,775.8100164021886,805.4852427108997,805.3412900403127,818.273799105935
1731142171.614586,739.0271189649523,806.1689073879708,798.23540982571,817.902636986012
1731142171.6163816,718.8563074822971,803.597892358058,791.5614783813417,817.1827098749359
1731142171.62028,720.9020655337115,798.6016662189335,787.2527941713415,816.490015387284
1731142171.6241782,733.0690388474544,793.0360711025644,785.8034562247229,815.9676419991342
1731142171.6272428,737.0108006751851,788.905909652456,786.2773806509388,815.5686232595776
1731142171.6280766,724.602302026818,787.670204580741,787.1056179598868,815.1934376613937
1731142171.629459,704.9391775006209,789.8749160528022,787.1003134193627,814.7820541326276
1731142171.6319747,695.6050401123412,795.0514813070682,786.044508943444,814.3288552286724
1731142171.6358733,705.8854985553807,801.8598360331906,784.5314271625828,813.8550633103554
1731142171.6397712,726.9844135192758,808.510979570254,783.2779063999399,813.380121868148
1731142171.642866,738.3844667127527,813.3895221919462,782.5584727929271,812.9105074875222
1731142171.6436696,725.3514499731979,815.6202146706364,782.2839078449712,812.4430245398489
1731142171.6475675,692.6690888291392,815.3088386276835,782.5806907104654,811.9722667058817
1731142171.648343,662.6285083738862,813.3687613077556,784.131378536855,811.4952067670205
1731142171.6494827,658.3375965839923,811.0489552230491,787.6863259604173,811.0116817524741
1731142171.651466,685.4682851226665,809.3752033365753,793.0033146478522,810.5228072207137
1731142171.6553645,727.000130448199,808.7274320683881,798.2110298625437,810.0294914817615
1731142171.6584888,755.4983145497091,808.7493506346872,800.4629399165322,809.5319277900153
1731142171.659263,753.749854167918,808.6712144034882,797.7502342037697,809.0298384566688
1731142171.6631608,727.6825791004064,807.8861251412985,790.6506812955646,808.5229009252324
1731142171.6670592,701.1626262741393,806.4015379531671,782.5596173017369,808.0109738461983
1731142171.6672275,696.6416085750802,804.8286364843768,777.9371798419162,807.4940472409185
1731142171.6709576,717.2308533722413,803.9053440334009,779.6397643873324,806.972041969537
1731142171.6741118,744.6849282317058,803.9067492126875,787.2062434959084,806.4446646064857
1731142171.6748557,754.6251496181693,804.377985253145,797.2895610313601,805.9115144104397
1731142171.678754,736.260275016781,804.3835131346855,805.8071753420961,805.3725014763913
1731142171.6826522,700.6920202255218,803.1092477135848,810.1962877049973,804.8283223235094
1731142171.684379,671.8018988507011,800.4241243366823,810.3197109985144,804.280382070941
1731142171.686112,667.8489383631695,797.0257995876087,807.776065155649,803.7295709620668
1731142171.6865506,688.637793278206,794.0449237540106,804.5147912135973,803.1741753832487
1731142171.6897347,717.786828644503,792.3529867967477,801.8720965976249,802.6088168548902
1731142171.6904488,737.3288117244724,792.0789077835851,800.4676192981291,802.0273197999974
1731142171.6943471,742.4017105612063,792.6948411292175,800.5790607936773,801.4305446213311
1731142171.6982453,744.1764448485086,793.5193018475217,802.3539692963863,800.8343830013916
1731142171.7021437,758.9482629640745,794.1498372210337,805.6212673570012,800.2665080901575
1731142171.704996,792.7390768243341,794.5385002046821,809.6280903979051,799.7416873858632
1731142171.7053578,834.4811566488679,794.8172052211087,813.1618607624546,799.2231064282198
1731142171.7060418,863.7015485669339,795.111955863486,815.1021530266755,798.6073600735787
1731142171.7099402,866.571000893737,795.4672339824372,814.9425243079901,797.7862947994065
1731142171.7138383,847.2618645798699,795.8646149318869,812.8090470649533,796.7976545189881
1731142171.7177367,825.3560872692715,796.2701324616274,809.0419885425326,795.9630517613425
1731142171.7192757,821.2389099893468,796.6643669152696,803.9087953855053,795.7950028994904
1731142171.7209806,840.8571176486475,797.0462947863163,797.850508455722,796.499117312496
1731142171.7216349,871.5742824795848,797.4234508460132,791.9313746918224,797.2497317627126
1731142171.7238803,892.225757384908,797.8023527674032,787.7090553478855,795.965834229246
1731142171.7255332,889.6444712010656,798.1850211393223,786.2485334035943,790.4978249338543
1731142171.7294316,868.9016094997144,798.570293690234,787.0735428967766,781.1289115274875
1731142171.7333298,849.1106096626911,798.9563789770708,788.2622803866628,772.2034359146226
1731142171.7366035,847.8954272907055,799.3423472125561,787.9468554689107,770.040254133146
1731142171.7372282,867.0317850747468,799.7282327481877,785.9829536788457,777.6042385658809
1731142171.7411263,891.2301712300407,800.1144757486375,784.1484538978667,790.8440940314763
1731142171.7427647,901.1751283415686,800.5014285902283,784.5362998797542,801.0446943476604
1731142171.7450247,889.727438408672,800.8891983666415,787.6015409653269,801.6857157106854
1731142171.7489228,867.4601963954326,801.2777322620227,791.7365323741668,793.6642297066079
1731142171.7522266,853.0231837451306,801.666954256695,794.7776353034938,784.23778532759
1731142171.7528212,856.9377298770069,802.0568390257994,795.954924907872,780.8930008393414
1731142171.7541723,872.807364691851,802.4474130204378,796.415169559729,785.7546623591371
1731142171.7567194,883.2143502588045,802.8387229561157,797.9321253042365,795.0920485243762
1731142171.7606175,874.934699829073,803.2308079958705,801.1750402280138,803.3722156769115
1731142171.7616494,850.3653877641632,803.6236886154841,805.1543621376236,807.4962954057646
1731142171.764516,825.480213329936,804.0173699259394,808.137917327531,807.8553262030316
1731142171.7678497,816.1241823328452,804.4118550642359,808.9765221966885,806.589551696172
1731142171.7684145,824.3677159011456,804.8071648773143,807.6971779349448,805.4993357978894
1731142171.7723124,836.6264750608098,805.2033535586611,805.1667516277329,805.2022463160856
1731142171.7762108,835.2321843752063,805.6004991174663,802.4203003591164,805.4502620876347
1731142171.7801087,813.6429554113969,805.9986504950552,800.2332453872772,805.7876120396173
1731142171.7805338,782.4289338062971,806.3977487726149,799.0416958445393,805.9570495112699
1731142171.7834723,761.0529576850429,806.7976005084261,798.9969824846231,805.94839089866
1731142171.7840073,762.2534035124405,807.1980102199664,799.9610078534815,805.8643426529258
1731142171.7879057,781.6256752229159,807.599090724274,801.421518164226,805.7920786948704
1731142171.7890687,800.5814592029899,808.001536665738,802.4522701161061,805.757677986025
1731142171.7918038,800.3415405633527,808.4064151157336,801.8910026860219,805.7446938511196
1731142171.7957022,776.2128234128011,808.8141370675498,798.812984317628,805.7287015038786
1731142171.7990956,741.198091625997,809.223018258343,793.1530580811025,805.6971317754228
1731142171.799418,716.0185239997655,809.6289765110008,786.1135059139095,805.6503886194317
1731142171.7996004,713.0701423545217,810.0283130138882,779.9743586520322,805.5942232710989
1731142171.8034987,726.9024192317522,810.4236249268967,777.183954742007,805.5331153240058
1731142171.807397,739.18085611683,810.8284066590135,779.073301954706,805.468224492025
1731142171.8112953,734.6103866733451,811.2619072130486,784.9579351174625,805.3985907760648
1731142171.8147185,714.8131897990955,811.7287806825759,792.3862096146361,805.3229834992417
1731142171.8151934,698.0224393202991,812.1928991075143,798.6147910860192,805.240869313521
1731142171.8183024,703.927219237433,812.5755278673915,802.3567131086095,805.152382174149
1731142171.8190918,735.8694590680207,812.8124520944816,804.3773680641804,805.0578665865972
1731142171.82299,775.6382554526508,812.9640361949794,806.3305148763903,804.9575256189916
1731142171.8239655,796.1530009640185,813.2781200800264,808.8399885657412,804.8513774798583
1731142171.8268883,782.4196279340662,814.024591872203,810.6882854304521,804.7394469905327
1731142171.8303416,743.8272708686752,815.042710272981,810.0100342723298,804.6219776208976
1731142171.8307865,707.4884974598344,815.3496451265056,806.3907727290275,804.499418524114
1731142171.8346848,697.6483634877806,813.4160734648364,801.765764433826,804.3720418170009
1731142171.8371868,717.595243978745,808.2355295983067,799.1307980938742,804.2393492893993
1731142171.838583,748.4970444250932,800.3977780581263,800.2315236043285,804.0998687852576
1731142171.8424814,765.7207627209003,792.1305981188007,804.3761634165537,803.9521267898668
1731142171.8459644,758.9463158715109,786.1578594208241,809.3466761297958,803.7969150281839
1731142171.8463795,739.6279604689098,784.3074853058903,813.346747015678,803.6392609371778
1731142171.850278,730.2793513380087,786.8818108172535,816.1046925384687,803.4868475425988
1731142171.8541763,745.2245049897455,792.8842690456247,818.3202788156467,803.3424770682923
1731142171.8560712,779.0086097368784,800.4602223453863,820.3366073719162,803.1936373995935
1731142171.8580744,811.5442436256249,807.176844451663,821.5229979679834,803.0104962949158
1731142171.858862,824.9932091599762,810.4843209331624,820.9376235449487,802.7664183704568
1731142171.8615873,818.2299325680156,808.7403829151831,818.4563422574523,802.4810585838096
1731142171.8619728,807.3229904732347,802.3589653077803,815.108876708707,802.2533460413988
1731142171.865871,811.9678512497557,794.0037735125776,812.2856859198987,802.2230318636236
1731142171.869769,838.9973316003818,787.2697249045001,810.7128655252725,802.4220376581212
1731142171.8736677,876.4244049074875,784.6319113026394,810.1865448204887,802.5858254428929
1731142171.8749557,903.0337603152279,786.2134090693335,810.068688196959,802.1469206790124
1731142171.8772104,905.8047819908315,790.2639538652122,809.8630836296055,800.6645720592782
1731142171.877566,890.7690092873733,794.7764447856558,809.421700796194,798.6535366847556
1731142171.881464,878.1142115008726,798.8107482329999,808.8312418326509,798.1644299334788
1731142171.8853624,885.4066972726705,802.5648174233878,808.2227184189722,802.0279077585886
1731142171.8892603,912.8034796447976,806.4487051475046,807.6635455668309,811.3518883881967
1731142171.8928332,942.5297448213803,810.2053831141473,807.1514274456158,822.9795859888284
1731142171.893159,953.036250774865,812.8630768141381,806.655458999734,830.0933684320086
1731142171.8937583,936.2095141470459,813.4126027671456,806.1517243232333,826.9265788340646
1731142171.89384,903.7399301044504,811.5044350317429,805.6342488338972,813.8696781053455
1731142171.8970573,877.7294773900594,807.6329100262303,805.108502325582,797.804476367955
1731142171.9009554,873.2920134795868,802.856709991575,804.581457437044,786.747250967946
1731142171.9048536,887.244213327213,798.4189106277303,804.0563780960582,783.5083263407952
1731142171.9084563,902.0551490894472,795.4611089299731,803.5328971528163,784.266944342558
1731142171.908752,901.7109302857298,794.752653427597,803.0093190724566,783.4196103876833
1731142171.9126503,886.0204866026497,796.3824248607373,802.484440231489,779.9788951603273
1731142171.9127245,870.8839374719129,799.6113495610591,801.9580239400298,779.0680063170579
1731142171.9165485,873.9636771259698,803.1495578992483,801.4303992884122,786.6633997121007
1731142171.9204469,898.0474899513133,805.8092570920952,800.9019331842344,802.4417794733738
1731142171.9240792,926.7352221346924,807.090773465304,800.3727788050348,817.8156791552143
1731142171.924345,936.6101401974009,807.2623557575762,799.8429039880433,821.6739744126077
1731142171.9282434,915.9855865340643,806.9505753319205,799.3122272172174,809.2901704561556
1731142171.9286551,874.8421272350502,806.6603283259047,798.7807150972402,786.8941700397321
1731142171.931609,837.8895225745566,806.5741827045825,798.2483911129126,767.9913683836791
1731142171.9321415,826.1436662221286,806.6368563989506,797.7152792351782,764.175263654444
1731142171.93604,841.1884991582351,806.7301719851944,797.1813406059023,777.2999803566508
1731142171.9397025,864.1337044904359,806.7843135165855,796.6464704514232,798.6035295848109
1731142171.939938,870.173912256903,806.7943754912033,796.1106000353369,815.1744510257739
1731142171.9438365,847.7574740443647,806.7865749724916,795.57386969361,818.9506268912559
1731142171.9477346,807.5545791426763,806.7841706599678,795.0367125345006,811.7642263954405
1731142171.950493,774.0528420188235,806.794626006067,794.4996168682754,802.9172976870975
1731142171.951633,766.2722374083822,806.8139488537312,793.9624945589852,801.3501604861484
1731142171.9553251,782.9192146947005,806.8357103411537,793.4240536826027,808.5409108348507
1731142171.9555311,803.8139005841359,806.8564423348726,792.8820920818271,817.6009859288519
1731142171.9594295,806.270422490471,806.8761066083713,792.3355045547362,819.0502458516207
1731142171.9633276,783.1080571184721,806.8961528630522,791.7873577753235,808.5040912049167
1731142171.9635518,747.9372609431209,806.9177539107804,791.2459791694951,790.2322532912942
1731142171.967226,723.8841200440634,806.9412197911952,790.7198424766675,774.07322374797
1731142171.9693775,725.1636799957869,806.9662847087337,790.205455409108,768.4042293081923
1731142171.9709482,746.2827013549507,806.992589739528,789.6765713716628,774.6251245937839
1731142171.9711242,767.2377307685397,807.0199478857994,789.0921556795292,787.087012449601
1731142171.9750226,770.1758996327967,807.0483498543497,788.4363772721082,798.0938280619611
1731142171.9789207,753.7384052984004,807.0778550198111,787.7748902359007,803.8453749789454
1731142171.9828193,733.1894211797456,807.1085018719275,787.2669431674944,806.6943926673114
1731142171.9865713,726.3440251236367,807.1402835631906,787.0563331173456,812.178871994255
1731142171.9867177,737.5437122390085,807.1731665255508,787.0365946957344,823.548029389869
1731142171.988262,753.7414246106139,807.207113823451,786.657515483256,838.4633987985834
1731142171.9906156,756.1879352188794,807.2420923890527,785.0862379475876,850.591130314689
1731142171.994514,737.4988830798351,807.2780671334796,781.8889009184807,854.6203100780119
1731142171.998412,709.1738125349425,807.3149982552054,777.8337881813866,850.4153241562267
1731142171.998448,692.8909417207254,807.352855174117,774.9543577890664,842.8523175861503
1731142172.0021942,702.6887378580959,807.3916423287577,775.4608639272793,837.5867246739621
1731142172.0023105,732.755153019621,807.4314075360292,780.2053696140256,836.4214019295158
1731142172.006209,761.0174939107612,807.4721943963294,787.902102031632,836.2529112793102
1731142172.0071464,766.0421431269798,807.5139343579327,795.671770371663,832.4899393074774
1731142172.010107,743.9732890992639,807.5563572308689,800.5196924414149,823.8981534675414
1731142172.0140052,711.8226512714776,807.5990759982868,800.8860172142786,814.4149964290543
1731142172.017817,694.0537053212214,807.6419540704652,797.4831234333823,810.0190931578842
1731142172.0179036,702.9957290143514,807.6855954133202,792.9857628938752,813.2209579608011
1731142172.0218017,729.0049208386765,807.7314076595206,790.636453692209,820.1708111087844
1731142172.0257,748.5187308675191,807.7805797923553,792.4312713249731,823.3505215217383
1731142172.0260303,743.4758529636883,807.8320204739351,797.9631429285687,817.9510880634413
1731142172.0295982,716.3691937640947,807.880874569411,804.7375014949267,806.6338889768288
1731142172.0333447,688.9718489055601,807.9205387595828,809.7923305930575,798.4405854365829
1731142172.03344,685.9192250711928,807.9498794854461,811.477380184279,802.2485414650278
1731142172.0334966,716.055123952273,807.9820358571559,810.1574602424423,819.6045722722247
1731142172.037395,765.935712246236,808.0440340198255,807.507440593382,842.5732617163176
1731142172.0412931,810.3951719046901,808.1553407059185,805.1600983093874,858.7074653191734
1731142172.044915,831.8071016558495,808.2878441127987,803.8208931931442,859.8190800940569
1731142172.0451915,832.7357074575264,808.3384913829245,803.3463879837963,847.967714386128
1731142172.049063,831.8590415531171,808.1640456131818,803.3350115257487,833.8474040773159
1731142172.0490897,846.7428858987508,807.6879882883237,803.4252287995843,828.5962754755573
1731142172.052988,878.1268367506129,806.9856736536528,803.0577159723073,835.4282609536588
1731142172.0568862,909.1814901749428,806.2162531446293,801.2699984468248,847.7765926668043
1731142172.0607846,920.3039244775365,805.4366687550632,797.1716594600045,855.3187380334657
1731142172.0637994,906.5180654352363,804.5322289462936,790.9294254789365,852.7130609936818
1731142172.0646827,882.3620267968394,803.4029131790606,784.2925210808866,843.741244400734
1731142172.064686,870.0995632228424,802.2247946247383,779.8885909376631,837.6191152288541
1731142172.0682414,881.3638439889172,801.4810315558584,779.6242945791089,840.8966681067982
1731142172.068581,907.6997016701171,801.6860165633411,783.4422805794853,851.9321248309609
1731142172.0724792,927.8577828670421,803.0262557320684,789.4701258095974,862.5568782048265
1731142172.0763776,925.7723488542176,805.1894714357132,795.3951068421383,865.3798863194413
1731142172.0802758,904.2820962856589,807.4515907519207,799.8401398131524,860.3765892048121
1731142172.080309,883.0281091209602,808.9034290206727,802.6425230909771,855.0027725315159
1731142172.0826838,882.0366037681815,808.7061757621202,804.1181151084603,857.6346167042357
1731142172.0841742,904.6167605949357,806.3715563887812,804.3732159195421,869.9420074101326
1731142172.0880723,934.0599483347868,802.064632044629,803.4568537625853,884.7976069618037
1731142172.0919707,947.1333896952711,796.7921328041009,801.9947316233097,891.6073652363006
1731142172.0958693,933.134432572909,792.2418046473047,801.2855548557003,884.6530809942034
1731142172.095932,902.6013609989299,790.1557769267812,802.4445343931993,867.6353889128387
1731142172.0997672,878.678059388317,791.4493890058283,805.3390627682746,850.9647705891152
1731142172.1015682,878.6371809741291,795.6055774158901,808.4419222799514,844.2462852158079
1731142172.103138,900.7027691492625,800.8588974272619,809.8855298095659,849.8397959257744
1731142172.1036656,926.3123770084272,805.1861355884481,808.8305604895855,862.0516610212478
1731142172.1075635,935.3106501073248,807.4539311776466,805.9722125950569,872.0668603704719
1731142172.111462,921.5883193308642,807.861300262321,802.844417389489,874.5986238777537
1731142172.1115549,896.7587281412451,807.364882340007,800.6425607100311,871.1405614357229
1731142172.1153605,879.2543171122653,806.6443687910312,799.5359365037199,867.3865914059068
1731142172.1192586,878.1086123265109,805.5386422032828,798.8120621162161,867.0958400097298
1731142172.1204526,885.1038746244558,803.4101060122902,797.5139923856029,867.825449799639
1731142172.1231568,881.9919947947958,800.0394970055335,795.1271645301813,862.6039213877583
1731142172.1270552,856.7443569025111,796.1988635481009,792.0901893635158,846.4597287788636
1731142172.127178,815.0652446841176,793.3621876801327,789.914225498411,822.1331567744829
1731142172.1309533,777.311521496281,792.7720994343999,790.5970149927799,799.5924951988864
1731142172.1348517,763.0802024432285,794.6119328006245,795.3398360487162,789.1754279141247
1731142172.1380343,775.814546282986,797.8959086593883,803.2999621023524,793.7459469607352
1731142172.1387498,799.7171087665272,801.0624438772493,811.4551753417501,806.2661418528834
1731142172.1393368,811.5012106953938,802.7434629557708,816.0237390028894,814.8181319510784
1731142172.1426482,797.9795685406485,802.2177461755518,814.6814478158232,811.1727173787918
1731142172.1428008,765.950041795295,799.4862134011827,808.085733432007,796.3196361462168
1731142172.1465464,736.6213908589049,795.214729511901,799.5932591058913,778.8831661587702
1731142172.1504447,728.7466547967501,790.6727560099271,793.2645238133128,767.9377453372227
1731142172.154343,743.7426090509406,787.4760496604604,791.42037057104,766.067212862977
1731142172.1582212,764.875129846398,786.9066387846626,793.3479418772619,768.1778815444378
1731142172.1582413,771.3357299014884,789.0207273084226,796.0028253193391,766.7649397657968
1731142172.1584237,755.6329068160649,792.2504671860727,796.1991199628487,758.9542750236301
1731142172.1621397,729.803535088317,794.10136441575,792.7631476921407,749.2655376262328
1731142172.1660378,715.3403752906685,792.7053968025234,787.2075791754826,745.8529854940062
1731142172.1699362,725.4399813262877,788.1216331464932,782.6033901169163,753.5885120283759
1731142172.172931,754.3432100253522,782.3055573698904,781.5922177480456,769.8533540314788
1731142172.1738343,782.0889500945344,777.7126687254128,784.9079127672538,786.346154529086
1731142172.1740468,789.9663621990026,775.6457558685263,791.1773402650463,795.125855340907
1731142172.1771057,773.672080506343,775.6459481101614,797.8449748511092,793.8830644346355
1731142172.1777327,744.2446296041862,776.309425584366,802.5632827163956,786.4885394493672
1731142172.1816308,717.8471206294097,776.7222395115507,804.3793192630187,779.0324343559978
1731142172.1855292,704.2966958294821,777.2618493585487,804.1724840796804,775.2258674935844
1731142172.1894274,703.2371621183133,779.1414446230672,804.0128854860303,774.9083550658781
1731142172.1896696,708.3742077194072,783.1844323104567,805.6802424639466,775.8567664199808
1731142172.1933258,713.7377451611751,788.9396583638552,809.3380367240098,776.2302284711702
1731142172.19599,716.8161255697847,794.8734895888747,813.4766300501619,775.5455426991499
1731142172.197224,718.0199422796672,799.3987294854458,816.2254053305649,774.2390249687902
1731142172.2011223,718.7158862662484,801.8309280104373,816.8156187563028,772.8806846543589
1731142172.2050204,719.8135849086592,802.5601278561005,815.8776499905752,771.7454678309512
1731142172.2052927,721.4533180421639,802.4971772996166,814.5753747867168,770.810911745441
1731142172.2078276,723.3556073102093,802.399916224906,813.6650295135768,769.9411835628439
1731142172.2089188,725.234768074206,802.5712355461116,813.2460470685485,769.0367703796641
1731142172.212817,726.9808735451315,802.9587512701568,813.061124154007,768.0760472380848
1731142172.2148745,728.6282589485072,803.3997038229788,812.856397805041,767.084454977813
1731142172.216715,730.2518833060226,803.7887094892437,812.5368060641872,766.091840067719
1731142172.2206137,731.8974158741966,804.1119080402499,812.1345184153105,765.1113676105269
1731142172.2209156,733.5694949327022,804.4037690974175,811.7161528049838,764.140884823793
1731142172.224512,735.2523242864683,804.6981061627808,811.3214630111524,763.1730829939778
1731142172.2284102,736.9312991445358,805.0073591397665,810.9538002547619,762.2030919448634
1731142172.2323084,738.6015616371849,805.327021067948,810.5987681656167,761.2302257598276
1731142172.2337587,740.26559250855,805.6481223184477,810.2433330847635,760.256123827354
1731142172.2362068,741.9275950331656,805.9653826829793,809.8831871955432,759.2825040681279
1731142172.2365386,743.5900092549407,806.2784093815613,809.5204610201502,758.310153347522
1731142172.240105,745.2531199275861,806.5891580031249,809.1587169284431,757.339080501277
1731142172.2427242,746.9162391743398,806.8993738009647,808.7999021115908,756.3690734562567
1731142172.2440033,748.5788269222533,807.2096233361341,808.4440476316742,755.4000818716271
1731142172.2479014,750.2408842181153,807.5196147436105,808.0903358072437,754.4322855860877
1731142172.2517998,751.9027878917806,807.8288717467308,807.7380887618186,753.465985157942
1731142172.2521615,753.5649882974845,808.1371385499073,807.3871054023778,752.5014843823923
1731142172.252643,755.2278375953514,808.4444160390303,807.0375078726149,751.5390430267665
1731142172.255698,756.891582557911,808.7508168643798,806.6894732997398,750.5788895830341
1731142172.2595963,758.5564333124468,809.0564332050103,806.3430840108099,749.6212517401859
1731142172.2634945,760.2226203704452,809.361292598903,805.9983221244212,748.6663744373343
1731142172.2673929,761.8904065218104,809.6653792157751,805.6551289663163,747.7145195887558
1731142172.2677846,763.56006661538,809.9686699412063,805.3134544089118,746.7659571058765
1731142172.271291,765.2318664883231,810.2711542219505,804.9732709661671,745.8209597748643
1731142172.2715275,766.9060673865441,810.572834451313,804.6345656872641,744.8798088952589
1731142172.2751894,768.5829614050665,810.8737177069838,804.297331077305,743.9428073040482
1731142172.2776206,770.2629111266575,811.1738090142833,803.961563776233,743.0102853060949
1731142172.2790875,771.9463373366982,811.4731096970248,803.6272639567326,742.082581064514
1731142172.282986,773.6336073603029,811.771619152699,803.2944231635904,741.1599918482642
1731142172.2834074,775.3248588981478,812.0693368379181,802.9629998849496,740.2427297473257
1731142172.2868843,777.0199316340211,812.3662623157716,802.63290572528,739.3309523029125
1731142172.290412,778.7186482684272,812.662393300691,802.3040406091995,738.4249221839519
1731142172.2907825,780.4214983672191,812.9577237455438,801.9763927838344,737.5252340832276
1731142172.2946808,782.1302640250857,813.2522451821768,801.6501439329376,736.6328674933146
1731142172.298579,783.847600050236,813.5459531718435,801.3256323753052,735.7487572286732
1731142172.2990303,785.5747918709245,813.8388556840501,801.0030389296721,734.872865939119
1731142172.3024774,787.3085329544688,814.1309735230328,800.6818841425784,734.0034458603154
1731142172.3063755,789.0401053609935,814.4223216685616,800.3608177830789,733.1378135179074
1731142172.3092964,790.7613419765562,814.7128734736027,800.0383945821826,732.2755176215157
1731142172.310274,792.4776986928634,815.0025371152443,799.7150169313086,731.4224690602131
1731142172.3125172,794.2188644723598,815.2911948023583,799.3947684069799,730.5913049315368
1731142172.314172,796.0282183840648,815.5788309693119,799.0843276456509,729.7924612022427
1731142172.3146534,797.9183974276916,815.8656811239086,798.7866676352133,729.0166059344127
1731142172.3180704,799.8126049246634,816.1522123706549,798.4917798886074,728.2225094728168
1731142172.3219686,801.5380466713641,816.4387406554866,798.1739532959828,727.3551989245004
1731142172.3258667,802.9501353608242,816.7247592704508,797.8082341906429,726.4081865948145
1731142172.3281808,804.1802222161109,817.0085717791345,797.4075097305362,725.4978016948097
1731142172.329765,805.8101188813199,817.2881668484436,797.0534348054799,724.8577029621545
1731142172.3302765,808.6211352738188,817.5637107639512,796.8673714486823,724.6559071770333
1731142172.3336637,812.7135527105988,817.840180378923,796.8818384422082,724.6656215616794
1731142172.3375616,816.4276173535427,818.1264957977548,796.8606853699887,724.0767399147577
1731142172.34146,816.3288815846727,818.4277718684541,796.2408282038573,721.915656544382
1731142172.3453584,809.5605793407783,818.7328287682177,794.378264077737,718.2917062416404
1731142172.345899,797.8818451919127,819.0088421116416,791.0249367442959,715.8213932892579
1731142172.347065,789.2951830455656,819.2204223044744,786.6235935141408,719.6006116629856
1731142172.3474138,792.918176201265,819.3779223068835,782.0798917181023,734.3633871480858
1731142172.3492565,809.4524460677832,819.5839166735959,778.211796007977,759.9593233036459
1731142172.353155,827.0214821907969,820.0090748925019,775.4240367859835,789.242664562771
1731142172.357053,829.2459809760581,820.7425789239243,773.8672468612057,811.8505495067883
1731142172.3609514,810.1205542146128,821.5796096455678,773.8043426763383,822.0688793480311
1731142172.3615224,781.9929389989668,821.9761886772138,775.7043507249224,824.0382665341233
1731142172.3648496,767.9855126730386,821.3753278398065,779.8406478709234,828.8289822350407
1731142172.3659494,783.9679186025821,819.7189751640815,785.6322650021492,845.010236263795
1731142172.368748,824.9741599584746,817.5931887284752,791.3003540726621,870.6521482559983
1731142172.372646,867.8627006188356,815.7257721743812,794.3545447654136,894.0640365723331
1731142172.3765445,888.6267070033917,814.286394948517,792.89861343477,903.1826714316979
1731142172.3771453,880.5736879775769,812.7033434009121,787.0129636322795,895.8480813532785
1731142172.3804426,858.891245979286,810.1520585328907,779.1232299749635,882.1751387514464
1731142172.3823102,848.2341519977192,806.2046522324888,772.8041386284956,876.877701406866
1731142172.384341,863.4287304456348,801.1076975711024,770.6904078855276,887.8615679345925
1731142172.3848338,898.363234107074,795.6278436139854,773.048148688498,910.3368859424984
1731142172.3882391,931.2594478018246,790.7114242648786,778.118061937696,930.8914148215808
1731142172.3921375,941.7209989127614,787.1178480338758,783.7882235438665,937.8536405684861
1731142172.3927684,926.1061787462843,785.0700111669687,788.9690982289093,929.6275040666558
1731142172.3960357,899.4040462052644,784.0906842901671,793.5135647732453,914.8769928699962
1731142172.399934,882.5612843431378,783.2961640977127,797.1934286523358,905.1655865019851
1731142172.4037182,885.7336432197461,782.1161603424898,799.2396839761311,906.3087960326106
1731142172.4038324,900.9860957831391,780.8823734243506,799.1230410683517,915.042854384119
1731142172.4077306,910.0013740476059,780.643719048246,797.5968489544198,922.8890313466693
1731142172.4083912,899.9898248135462,782.226513464879,796.5498068883078,923.4090622479389
1731142172.411629,874.5322030125515,785.3657574617023,797.5166723644769,916.8944190447088
1731142172.415527,850.704107453859,788.7744570057909,800.2718119295229,909.2415636866897
1731142172.4172068,845.2892528186889,791.1511404025636,802.9846194874826,906.6652187566795
1731142172.4194255,861.527835015077,792.224467647709,803.8778122318383,910.8611878599755
1731142172.422603,886.9193626283676,792.9163078110041,802.8332289743096,918.25224460626
1731142172.4233236,903.4480490357627,794.5266176285458,801.4543633270199,923.4312895266972
1731142172.4240143,901.7822977036511,797.6438656494089,801.595807391933,923.8070387127276
1731142172.427222,888.0382926641025,801.5858506838969,803.7790376925226,921.7778251368106
1731142172.4311202,877.7218910313716,804.6801311097079,806.8935364663209,922.6746504810237
1731142172.4350183,881.8795740121268,805.1430714579836,809.2738714864868,929.914337331469
1731142172.4389167,897.0850551358153,802.0593239369789,810.0117724890868,941.1618261483301
1731142172.4396372,907.9682764385685,795.9764219086961,809.3448501013193,948.9321503505439
1731142172.4414873,900.5036093422324,788.7876597462816,807.9909766115791,945.8173867296262
1731142172.4428153,874.8934714604418,782.8704976387,806.2555313420946,930.6308798548154
1731142172.4467132,846.798305929597,779.8734669600339,803.7926938223221,910.4390711678383
1731142172.4506116,835.286414447052,779.8851851574173,800.1872211828298,896.2482839445665
1731142172.4521034,847.2285243800909,781.6081829778084,795.7832247477621,895.1995068610132
1731142172.4545095,871.2395799859652,783.4918845897816,792.0090371965691,905.3305762031321
1731142172.4552605,886.5556753085708,784.9996105956541,790.8590482619073,917.2421155724226
1731142172.458408,879.7476740744582,786.9878841053621,793.7913510696076,921.431639893975
1731142172.4603713,855.4420107618287,790.8302764302047,800.6711006399736,915.3049989567689
1731142172.4623065,832.0708403191503,796.9502578488061,809.4095115192746,904.1636871068893
1731142172.4662046,826.230981559282,803.9891174231147,816.6876230850241,895.6963898533818
1731142172.470103,838.9365678243071,809.3894267958566,819.6321966384551,893.1156420481256
1731142172.4708831,855.4465819319989,811.0011539115392,817.6005946359145,893.0367031663213
1731142172.4740012,858.6130243263461,808.4207882322349,812.7939107343354,889.6504367881528
1731142172.4778996,844.0457833812501,803.0356547461313,808.9210192336584,880.9672254146625
1731142172.4792557,824.0434959886097,796.9410268183102,808.5848967600771,871.2344580918405
1731142172.4817977,817.1008639958683,791.7901694045471,811.3214889240476,867.3388954547651
1731142172.485696,831.9691976441619,788.354703139284,813.939249293016,872.4274936497267
1731142172.486506,859.4777383981271,786.6493227807726,812.9733494471254,882.3490452286036
1731142172.487,878.7739510254527,786.1121889986651,807.2921827514149,888.1599945406688
1731142172.4895942,873.1616835929135,785.8053121387878,798.8384849913707,883.0184070914031
1731142172.4934926,843.2512266770111,784.9794912679727,791.1501033587873,868.1194144613338
1731142172.4973907,807.0905711319032,783.894532837498,787.0665134418138,852.6849491680651
1731142172.49814,786.8695974065251,784.0596753982678,787.3492256470429,847.3965889645306
1731142172.5012891,792.3563770688513,787.2270532634149,790.8406399250614,855.9727730272356
1731142172.5021293,814.1162786493773,793.6859484265641,795.5643863932241,871.586772954669
1731142172.5051873,831.9440237087438,801.400297561303,799.8759373265942,881.4448284263553
1731142172.5090857,831.5682562518325,807.0343616442206,803.1814938565129,876.3710266419873
1731142172.5129838,815.8428540160062,808.2170753597323,806.0409985201428,857.8889801479082
1731142172.5168822,801.3279859512497,805.1846493851378,809.5251306103022,836.9791591933108
1731142172.5170245,803.4775548149391,800.4742249431131,814.0397296161897,825.4055678210971
1731142172.517752,823.018633426498,797.0742285336912,818.4761475745603,826.6733378917445
1731142172.5207803,844.7716057699081,796.6376345565833,820.6299148456382,833.9348336699733
1731142172.5218964,849.7305412136129,798.992329516426,818.8273244193432,836.2711564479013
1731142172.5246787,830.521539990204,802.8610903516957,813.4343422978691,827.8357477925358
1731142172.528577,797.7343164312373,806.8273305486889,806.8011413632252,812.1927203150972
1731142172.5324752,771.882229506539,809.8083836270164,801.5492281507319,798.4839807298748
1731142172.533375,767.2650860524288,811.0853503249962,798.6807848585446,793.0978218675647
1731142172.5359087,780.7637511256735,810.3495889666447,797.1914699414225,794.2607621669315
1731142172.5363736,794.8761921857127,807.924225836367,795.4432407521409,794.1706553245224
1731142172.5402718,792.696013323175,804.8064776236293,792.9021135442913,786.4567796010604
1731142172.54417,772.4801992155446,802.171036694108,790.6069736340951,772.103501123468
1731142172.5480683,749.5751958787375,800.580702257066,790.0839763023729,758.6516457856953
1731142172.548998,743.9400202808538,799.6755459001573,791.9072504464275,753.6838530397171
1731142172.551967,763.5184877112622,798.8116287376698,795.2473571612722,758.4763704817753
1731142172.5547934,797.0962105197384,798.1299478538539,798.5877914699129,767.1084784555139
1731142172.5558648,822.4147607610518,798.8857838756929,800.6932949018898,771.3787873653845
1731142172.556793,823.0288499461757,802.414798993947,800.9674850038649,767.2253128166146
1731142172.5597632,800.5985759997128,808.4970337694145,799.2505736205018,757.6043439393471
1731142172.563661,773.0191543206878,814.7225036010447,795.7248991753846,749.9030085363046
1731142172.564621,759.9155263941221,817.7446743443829,791.2410941397663,750.1299100340884
1731142172.5675597,767.0537710715221,815.5742327633036,787.5524722536513,758.3375823212057
1731142172.571458,782.2842432485555,809.0255551424221,786.7278614851193,768.6790819329417
1731142172.5736775,786.4649277061978,801.1720622966816,789.8149683107611,774.0644033096659
1731142172.5753562,770.4045790832045,795.4175524638761,795.8324019161917,771.9229346378021
1731142172.5792544,743.5017075765452,793.761174527787,802.1746550028034,766.5543344568811
1731142172.5802438,726.4413554157538,796.2491845379782,806.3274528589935,765.9327074982442
1731142172.5831528,733.8251636232452,801.4227692007082,807.5536870768464,775.1412090772282
1731142172.5870512,761.3903595995039,807.0963563045407,807.1807273579047,791.5854623164628
1731142172.5909493,788.7283471749139,811.1515514451994,807.3108672521759,806.112242999313
1731142172.5916896,795.33331206531,812.3444962577437,809.0259833609971,809.5924794873548
1731142172.592562,776.7446828835278,810.9163900744146,811.4240069059917,799.9954578643787
1731142172.5948477,747.728933447841,808.5230725937589,812.1157875276409,784.2836859936014
1731142172.595867,730.2198085930431,807.2697729853165,808.846944194424,773.3436315872493
1731142172.5987458,735.9625113516613,808.3463042758843,801.2686601222099,773.6793794883442
1731142172.6026442,757.8056594327044,811.205065038211,791.7359999257627,782.37512543442
1731142172.6065423,776.4211418429651,813.9155074787564,784.4297673485896,789.466795749127
1731142172.6104407,776.6636104911714,814.4909275197273,783.0771209161127,785.9863676972823
1731142172.6114464,759.9723534128701,812.3011585461448,788.6300939889339,771.2877944597892
1731142172.6114898,742.6751961141971,808.6369879548334,798.5480974998588,753.7826497459859
1731142172.6143389,741.8902308037938,806.022932569919,808.3083869321662,744.5062841024003
1731142172.6182373,760.9234880185534,806.6242845411094,814.0941398062598,748.6096946907778
1731142172.6221354,786.2061103624751,810.6966154634496,814.7168185562815,761.4179888069237
1731142172.6260338,798.1529981262062,816.1387610551992,811.5604629194214,772.0542471368042
1731142172.6265862,787.0640934316648,819.6113229097753,807.017545838028,771.7324348233127
1731142172.6271129,761.3186235459497,818.6195774192614,802.9342846958497,760.2496373756824
1731142172.629932,741.3002182384629,813.1927334426646,800.1147830162001,745.705562542333
1731142172.6303308,743.6313490059451,805.9792559854019,798.6629516698672,737.8375418509443
1731142172.6338303,767.9224059768803,800.6386809714255,798.3114630888248,740.371140835352
1731142172.6377285,796.6367230984773,799.5825819102557,798.4133953857607,748.5327082870474
1731142172.6416268,808.6910466073499,802.5709038356376,798.0545592625633,753.6997023894792
1731142172.6427355,796.2945847807086,807.0798047714143,796.6862128824182,751.2571800303174
1731142172.645525,771.2800574511581,810.1191613148696,794.861232992506,744.8811130649602
1731142172.6492152,755.3080686367261,810.1737151287275,794.1878291560345,743.3257449429166
1731142172.6494234,761.7525787149482,807.9205570334358,796.2132150926889,752.2692541821096
1731142172.6533215,784.396338496839,805.3554476806252,801.0592095668932,768.3491250583681
1731142172.65722,802.5908890073587,804.1718664552075,807.0501512503326,780.949772196452
1731142172.6583588,798.6997811996963,804.7120185375162,811.7757212552698,780.668751178347
1731142172.6611185,773.2851221546445,806.1776993779055,813.7352972690653,767.4413562813697
1731142172.6614826,745.3739703613097,807.6311565365617,813.1677843476505,751.3594626482939
1731142172.6650164,737.4596460689677,808.6970747586092,811.424719290265,745.2684262872642
1731142172.6680996,757.3312560359235,809.3627608165826,809.5761537802953,755.0021997291491
1731142172.6689148,791.4049172278116,809.3363401326217,807.5689770219003,774.9387693622283
1731142172.6728127,815.0633984736108,807.9200483862078,804.6181253761544,792.175307343403
1731142172.6739817,811.8663304103275,804.7209320586944,800.289807410546,795.8662991475753
1731142172.676711,786.2157728079852,800.4421337181657,795.1429383247073,784.5398851601833
