timestamps,eeg_1,eeg_2,eeg_3,eeg_4
1731655021.3383842,791.5886658427002,804.013178430415,802.1747876437087,795.883749222843
1731655021.354,786.8839518700618,803.2282057696417,803.7826903410564,794.0206576829074
1731655021.3696158,793.0391766449269,803.2979249582651,804.211693768698,798.8533994460015
1731655021.3852315,810.6235561920103,804.468199968672,802.6130035983954,810.0341223418214
1731655021.3860652,828.2893803786615,806.2167901541042,798.8838819608864,819.4454416883268
1731655021.3899674,831.9839076241781,807.6930831767478,793.9574725979313,818.1093823823982
1731655021.39387,818.0283223349604,808.4507895886097,789.585889304719,805.2789320020044
1731655021.397772,798.3904317147482,808.8693909582958,787.5199272124236,791.2221577780531
1731655021.4008477,791.8266258661075,809.8378966445019,788.5157107486195,789.7242142395746
1731655021.4016745,807.2211388760373,811.8926650261265,791.8351337973472,805.7626018707957
1731655021.4055767,834.1432708653302,814.5586957726674,795.6007101823088,829.5907860275867
1731655021.4077425,850.6702756557177,816.5664579818495,797.801635422355,843.8805864358955
1731655021.4094791,842.7946993135281,816.8599911762726,797.3790807995558,838.5992706968889
1731655021.413381,817.8676848268929,815.531873205131,794.8122054202181,820.1868775994045
1731655021.4164634,798.9211933863932,813.8018249274597,791.8754929017534,806.048918299654
1731655021.4172838,804.2930162698054,812.9990169793268,790.6338916147262,808.9808282212732
1731655021.421186,831.1058472189005,813.4422867197104,792.1954920796258,825.8457703034858
1731655021.4250884,857.8660803919955,814.2241676821376,796.000585385274,840.9168324509801
1731655021.4266288,863.6788950360872,814.0726464023439,800.1744572666489,840.485124657411
1731655021.4289906,846.3282418310466,812.4946153309087,802.7451018353495,825.0473744920668
1731655021.4320793,822.9762629145397,810.2050740577755,802.8661577748848,808.1696399055445
1731655021.432893,813.5533028734625,808.5343185137881,801.1762278012224,803.695278911099
1731655021.4367952,822.6199405485061,808.3765603631482,799.1079230261797,813.3372163100172
1731655021.4406977,836.3737623875085,809.5335795933661,797.7686551495191,825.7803282378694
1731655021.4446,837.0814290085655,810.8862746287547,797.2903074421729,827.6551963109217
1731655021.4455154,820.8926849930182,811.1743872553247,797.0851148085378,816.0377389520569
1731655021.447695,801.9033725900053,809.8064687430061,796.6565556113932,801.0021176398678
1731655021.4485023,798.5104057498264,807.1984677853804,796.1738788678592,796.0875461106178
1731655021.4524045,815.1781948442541,804.4705611166966,796.3024726115918,805.7305947764767
1731655021.4563067,837.3239015109815,802.7120772716722,797.5113214343426,821.3798561735472
1731655021.4602091,844.5371968773649,802.3011459969117,799.5543255623293,829.6809960844347
1731655021.463311,829.7253441519609,802.7567655024548,801.6025232304788,824.7498254437031
1731655021.4641116,805.9927844497677,803.2136051640177,802.8567568097977,812.9591577118639
1731655021.464402,794.6021514123214,803.095189255306,803.0661460392106,806.0645050864014
1731655021.4680138,805.1243371122971,802.4068507984566,802.5566501027336,809.5527959686751
1731655021.4719162,826.1973621546335,801.4726324527513,801.8501017251087,817.3391017342494
1731655021.4758184,835.5917948555298,800.5030834272604,801.2432785509566,817.7160329091665
1731655021.478927,820.6131501286849,799.5049611769235,800.6543456429806,804.8975946299277
1731655021.4797208,790.3711156630408,798.600712807785,799.8042479763874,785.365273784196
1731655021.4832883,768.6928844121768,798.312329997708,798.5882138308066,773.0297194254457
1731655021.483623,773.8429699689555,799.3543770174776,797.3815337653618,777.4053381663933
1731655021.4875257,802.9586268332836,801.9976263424809,797.0303746656807,795.2664633347722
1731655021.4914277,834.7013244651886,805.56502712322,798.434231269148,813.0664876243198
1731655021.4945426,847.367754088806,808.5829513393747,801.9137331577386,817.8801041115116
1731655021.49533,836.4614433974036,809.5638445664694,806.8040691607818,807.4420539201283
1731655021.4992323,816.9821155379791,807.8627977333391,811.656643789665,791.1059520443591
1731655021.502175,809.4050794921884,804.005649486394,814.9982199193598,781.5243501114677
1731655021.5031347,821.9015371093851,799.3287155340498,816.1172658980722,784.3479893212551
1731655021.5070367,843.6452499687175,795.2766460031465,815.3031429397402,794.3176043896343
1731655021.507048,854.293766292998,792.8481358662596,813.4384027563149,800.5679988246483
1731655021.5101583,841.5100808347188,792.4096704550434,811.3633990878634,796.4895239517708
1731655021.5109394,812.0104708117946,793.7549265694944,809.4920270135138,785.8167578151462
1731655021.5148416,786.8176120361779,796.2232005436061,807.8024568460226,779.6181330552272
1731655021.518744,784.2803548566816,798.8766923754633,806.0276223369565,786.4708744878056
1731655021.5210617,804.8679344619176,800.8309688900828,803.8947250278904,804.2418742294255
1731655021.5226462,830.7539489644021,801.6544275578792,801.399097333192,820.9953070893408
1731655021.5257745,840.8807139508428,801.5484867599635,799.0463576934778,824.7996958654021
1731655021.5265486,828.8167809619005,801.1289144670621,797.8283347026602,814.1901607768455
1731655021.5304508,808.1282743541423,800.9875148597451,798.7430063213026,800.066366612188
1731655021.5343533,800.6526635599832,801.406704840903,802.0310373159823,797.0118710956668
1731655021.5382557,817.6335698065482,802.3933710316104,806.6680507120603,811.1264113173828
1731655021.5399482,849.5523737051413,803.8443128903075,810.6221338624002,834.5230867953605
1731655021.5413902,873.0908712030473,805.574327158666,811.8946525318404,851.1764437567859
1731655021.5419998,869.6649874832622,807.2018418588177,809.7439462684215,849.5782924403558
1731655021.542158,840.7085838749634,808.1439978041149,805.2233917445928,832.1244045473111
1731655021.54606,807.2711865505132,807.88700011647,800.5439294170692,813.5406422315122
1731655021.5499623,793.7108450785215,806.3587433978716,797.6396964084329,809.2392380158522
1731655021.5538647,808.2370821680289,804.0482043164965,797.0134134646853,822.8268686084623
1731655021.557006,836.3152630770752,801.7278413315576,797.7660112363959,843.1733798190271
1731655021.5577672,852.8338578473379,800.0203027309109,798.6988472507161,853.7901908559124
1731655021.5588348,843.163813030599,799.1818199181374,799.4301613339973,846.7676609462349
1731655021.561669,815.3932330130356,799.2126308414615,800.5222599818238,829.3882251181009
1731655021.5655718,793.3550670490088,800.0592385618933,802.622747226874,817.718622054709
1731655021.569474,796.3997587422173,801.6412456753699,805.5777821798674,822.6803342049045
1731655021.572622,823.0029013405526,803.7299915559042,808.4268544086168,840.4809391537995
1731655021.5733764,851.7957818242751,805.9336607863289,810.2063658568467,855.4433386639914
1731655021.5769515,858.8827082160824,807.8908342448311,810.6681171311648,852.7955200548591
1731655021.5772786,837.0424057568423,809.4340381615687,810.2668165257019,830.8663740912232
1731655021.5777214,801.2997893230321,810.4489613390491,809.6381394533313,802.8206536999239
1731655021.581181,776.6603178256878,810.5670131104802,809.1651983978338,786.5615799787852
1731655021.5850832,778.1075331077508,809.2022562420249,808.9048945060216,790.8229339294833
1731655021.5882378,799.0289895752713,806.1944103871493,808.7454233607743,808.5145376253495
1731655021.5889857,817.3823351663324,802.5525372897048,808.5746200831314,822.7086841841405
1731655021.592888,814.4888790950579,800.3552503411491,808.3509936239865,820.5368587604044
1731655021.596608,790.8876552209124,801.4401786005653,808.0895959553858,803.7148043205227
1731655021.5967903,765.9549568558365,805.738598153326,807.8204546287423,786.9945482629063
1731655021.6006925,761.4532454503251,810.7642742317436,807.5612956024693,785.7480000522984
1731655021.6038537,782.7016164501681,813.0179862623792,807.3134879701846,802.9454109433749
1731655021.6045947,813.1874647046964,810.4400282590018,807.0705155968906,826.3091923662028
1731655021.6084971,827.3129874489322,804.0111539416177,806.8265435781198,837.9675800139734
1731655021.6119032,810.988508909189,797.1904468337082,806.5796740219123,828.697212012398
1731655021.6123996,773.3742941265567,793.6202479868774,806.330885094647,805.2660009984661
1731655021.6154945,740.2235675944061,794.8754709324585,806.0817775297577,785.0725216443975
1731655021.6163018,733.9604399293655,799.8318726688501,805.8332167505819,782.3860560806357
1731655021.6194694,756.2180360192796,805.7918823387425,805.5852089390086,797.1037064327521
1731655021.6202042,786.856652784389,810.2252967994398,805.3373856857493,815.0495906228424
1731655021.6241064,800.5398250843734,811.8882826196196,805.0894475911897,819.7465447140119
1731655021.6280088,787.5834342155881,810.9392428443053,804.84131163319,806.1713901066864
1731655021.631911,761.7875918620604,808.457574020509,804.5930360353111,785.0409555650693
1731655021.6343813,748.4565911943312,805.8691301912728,804.3446939437778,773.9060588208063
1731655021.635085,762.5519455531365,804.4440474007723,804.0963065432436,782.5322196532582
1731655021.6358137,795.4845653928585,804.8348863551971,803.8478540349173,804.8970555381559
1731655021.6397157,821.7919624495646,806.7492232375051,803.5993270894947,824.3191741528209
1731655021.643618,820.1206355758015,809.0124761878104,803.3507650401117,827.0533617600752
1731655021.646855,790.9749157597552,810.1568165749677,803.1022350473869,812.9150798864631
1731655021.6475203,756.5240789848219,809.2944559545147,802.8537402605294,794.506790879744
1731655021.6507013,742.6896249799429,806.7281743004596,802.6051135529555,786.2553573403702
1731655021.6514227,758.2597796233716,803.8313450693546,802.3560305814525,792.540182585804
1731655021.6532676,788.1322000809723,802.1987954421772,802.1062727752576,804.5034918429492
1731655021.6553247,806.2424757396321,802.6017028750031,801.8561831776677,807.9441340022747
1731655021.6592274,797.5965722455037,804.4624431334962,801.6069069733037,795.792301697482
1731655021.6631296,771.0924075991659,806.2256457038154,801.3597830701013,774.861406665736
1731655021.666317,752.1193102498461,806.3644786331611,801.1146469496024,760.9589540553342
1731655021.667032,760.7715068194178,804.309230192536,800.8680685604073,765.9159323133247
1731655021.6709342,793.9321213899815,800.684046318586,800.614000663845,787.1294269500564
1731655021.6721542,826.6044534631499,796.8010935130942,800.3490927082955,808.6357506429794
1731655021.6748366,831.8363986989963,793.8944913775487,800.081135685417,813.3943288781627
1731655021.6787388,803.0350964445909,792.6334501874492,799.8325197427909,797.0749669558754
1731655021.6818068,760.4422843907909,793.0734673722145,799.6270770480637,772.1452894286377
1731655021.6819327,736.3368937619598,794.8309083466842,799.4574408786613,758.6900085715067
1731655021.6826413,750.4231986928262,797.2451654548188,799.2546617438111,768.912535355309
1731655021.6865437,794.5474860986262,799.5233904960733,798.9076642024154,797.3825552672192
1731655021.690446,838.6931387654138,800.9846774403788,798.3716700284493,824.8577474997189
1731655021.6910408,853.741573217752,801.3708374486523,797.8299729928237,833.0163091970255
1731655021.694348,833.3546891905546,800.9901663556586,797.7569182322079,818.6490790480372
1731655021.6975489,797.897456701965,800.5165085650946,798.6971663393202,795.9132453135335
1731655021.6982503,777.4755141233017,800.5645136134907,800.7829624515256,784.6403278829878
1731655021.7021527,787.7789005353357,801.3681234592385,803.3778977873968,794.0982306723593
1731655021.7060552,818.039713838404,802.7666221825533,805.3198280721281,815.4904760155089
1731655021.709927,840.4578906303318,804.4081050031399,805.7333108227403,829.3368962392556
1731655021.7099574,833.1551732206535,805.9512342774032,804.7346285884106,821.6247148988775
1731655021.7131646,798.1316427974642,807.1718568319801,803.3398170399378,795.5138360936254
1731655021.7138598,760.0299702216691,808.025367479002,802.6031408703088,769.1657962816341
1731655021.7167585,746.8851565010262,808.6730158293466,802.7237592774836,761.564752767987
1731655021.717762,768.2172088339534,809.3657396028491,802.8706943085652,777.7765465696151
1731655021.7216644,807.8589904715241,810.1503020998138,801.8478980688985,805.4026995421094
1731655021.7255666,837.2024127041436,810.6163644544857,799.0764342815708,824.8791973191671
1731655021.7287805,838.1223967607139,810.0149371091371,795.2099082744991,825.042298959058
1731655021.728814,816.846894652931,807.8072171231613,791.989859077521,811.1845867327999
1731655021.7294693,797.3815271191975,804.251723313487,791.3637874212433,799.2242190187773
1731655021.7333713,800.13555318707,800.4860283155117,794.258405327501,801.3143958057452
1731655021.7372737,823.9440597560755,797.9303125601077,799.7049555579822,815.3076607566039
1731655021.741176,846.8893136851392,797.4247290489202,805.0446377103775,826.9507127384593
1731655021.7443964,845.3510629889136,798.7671933417001,807.3838361725233,822.6972336514004
1731655021.7450783,815.1801547969964,800.9985959130488,805.4874295925929,802.0955232769818
1731655021.7477005,777.0072904058796,803.1645308114907,800.7205957389403,779.2551387606798
1731655021.7489803,760.8381487583255,804.9002216025144,796.1891809686689,772.051530901785
1731655021.7517102,782.1114265608192,806.372760166695,794.6044731348688,787.7039639245577
1731655021.752883,828.5051346268502,807.7223387285633,796.4606890783151,816.2950973812307
1731655021.7567852,868.4502107931969,808.6273047204817,799.9018660696526,837.6422351506632
1731655021.760012,875.0679881349238,808.4919018818828,802.3012667150062,836.4527443505577
1731655021.7606876,846.6309158234374,807.0979972266913,802.2190197782602,813.944686935541
1731655021.7645898,807.0599534875097,805.0274536003327,800.198416048496,786.6314361994844
1731655021.7665868,786.0658697228203,803.3404362253941,797.9474489171606,773.1917451371443
1731655021.7684922,795.3182662263971,802.7399363088163,796.8216281825215,780.09854651458
1731655021.7723944,820.2427486509405,802.9919213811725,796.9626864169776,797.6526829178193
1731655021.775628,833.7603197305181,803.1431236438418,797.6588054473477,809.2543378046407
1731655021.7762969,819.8600549269531,802.3337999221621,798.3129620892848,805.6849356035758
1731655021.7801993,787.0969222963013,800.4878335467897,798.9581817357073,792.3413740287921
1731655021.7841012,761.20382655219,798.3262837544555,799.8873671915004,783.769071382601
1731655021.785473,763.6552746917037,796.7625114128513,800.9595859912888,790.633652887432
1731655021.786662,794.1802396713801,796.214468595145,801.4715004229148,810.2831965999383
1731655021.7880037,831.254872471996,796.3503558643882,800.8288154914968,828.7010111149266
1731655021.7912438,849.647224644064,796.3825760271122,799.3322160796307,832.1455219432117
1731655021.791906,840.4397962769931,795.6307073244193,798.1907890590644,818.8285124601274
1731655021.7958083,817.1844675751755,793.9662091416178,798.617681233783,800.7988074114832
1731655021.7997105,803.2883282343219,791.9108580597149,800.7881519702763,794.1033616640071
1731655021.8036127,811.4131436040535,790.3909195228548,803.6107772453036,805.2043435165925
1731655021.80436,832.5734663727701,790.2967364709264,805.5272224593049,825.1970601070221
1731655021.8068595,844.3851148131005,792.0421208053266,805.6619011967894,837.0414774454263
1731655021.8075151,831.3065650529679,795.3069738572899,804.4164720365729,829.9129053601469
1731655021.8114176,799.2670266749775,799.0990066255167,803.1416076997839,808.5920790534938
1731655021.8153198,771.9511911875865,802.1568589226144,803.2328162580345,789.9768400131138
1731655021.8192222,771.7352715527234,803.5355842844964,805.309083393518,789.5736031456978
1731655021.8216136,801.1113651608072,803.0674149801893,808.9454643120548,808.9580770871744
1731655021.8224757,839.7993527429715,801.4203285146566,813.0112530946656,834.1724264316745
1731655021.8231244,859.8772193187168,799.7087902159963,816.3105147659352,846.23594744507
1731655021.8232465,847.0534396561391,798.8881027849997,818.1012873778121,835.6383465270808
1731655021.8270268,811.5820893463243,799.2839979626204,818.2227460020683,809.748398397541
1731655021.830929,780.3119535747925,800.5032353921108,816.8790231850157,787.3647086790962
1731655021.8348317,775.8538703295543,801.7357955171358,814.3770987547174,784.3345933966484
1731655021.8380914,799.0472190714447,802.2527455398335,811.0863444970913,801.2534097034865
1731655021.8387337,828.6987665211567,801.8277889222946,807.6033755886426,823.0519432114658
1731655021.842133,839.0173415154233,800.868909566817,804.8346722529894,831.0821567825544
1731655021.842636,820.7663611866454,800.1883206119506,803.7257648238223,818.1463188239505
1731655021.8465383,788.877114270231,800.5159864782747,804.6939447347683,794.2743359565567
1731655021.8504407,770.2580936482195,802.0211465922467,807.18961793978,778.4986078750758
1731655021.8537073,781.832928329225,804.1513550169636,809.8537653210501,783.3775371213794
1731655021.8543427,816.7735044167882,805.9417090910329,811.3129513716381,804.9399993865827
1731655021.8565657,849.9482148263253,806.6346883576235,811.0530219910243,826.1496222861101
1731655021.8582454,857.8680610888987,806.1937756427553,809.6366093175957,830.8655476523511
1731655021.8610196,836.8931090089468,805.3189776046879,808.0988431399455,816.7960770589361
1731655021.8621476,805.1540515964992,804.9198536710251,807.1399130625358,796.8639809719738
1731655021.86605,786.9011052706686,805.4375075627673,806.818835046283,787.9125016036603
1731655021.8693233,792.2941043828841,806.5557526700218,806.810836271154,796.1959818367343
1731655021.8699522,809.5059089212252,807.5151601109554,806.796349663193,811.9982036804803
1731655021.8738546,815.8622830473165,807.7010908884423,806.647071057264,818.2065652097199
1731655021.8777568,798.5705383776846,806.9549504737167,806.3936112046385,805.6745446082515
1731655021.8799062,767.1181197308044,805.4101789143988,806.1146330374479,782.0346747480696
1731655021.8816593,746.2983874212966,803.2029417075181,805.8599351108058,765.9974585023558
1731655021.884939,755.3631409959751,800.5126737324251,805.6356732599336,771.6768517962615
1731655021.8855617,790.7857329757176,797.8994349370018,805.4253580984661,796.2252281848428
1731655021.889464,827.3440721705033,796.4004067857331,805.2130557509712,821.4028880984233
1731655021.8915172,837.1551120558532,796.9912616692488,804.9930214323422,827.9838129063746
1731655021.893366,811.5033080593869,799.7414696899365,804.7674764834256,811.156863630142
1731655021.8972683,767.8863338160594,803.492608232527,804.5406763413722,784.3056089214575
1731655021.8987927,736.5194503170851,806.526081613736,804.315090182692,768.185021483115
1731655021.900555,736.9979472101999,807.7610818054117,804.0908750076918,774.4218121921443
1731655021.9011707,763.7091026013483,807.4815809520278,803.8670941359793,796.7249045209943
1731655021.9050732,791.5835388701686,806.9888070677254,803.642924028373,816.7606052637335
1731655021.9089754,797.3528903703161,807.5042018219093,803.4181022481604,819.6345232197152
1731655021.9128778,778.7788831361235,809.2235353813212,803.1927699750295,806.07766857663
1731655021.9161708,755.9319369640376,811.1965282187106,802.9671533534647,791.2618742344264
1731655021.91678,753.5799728497993,812.0015954155367,802.7413744620421,791.4489832987749
1731655021.9176793,779.6240465627541,810.6508598646458,802.5154341691817,809.896846288842
1731655021.9206824,817.731399319023,807.1443929091085,802.2892764451382,833.8721047638402
1731655021.9245846,840.265607327214,802.451913557211,802.0628461487534,845.0771449734224
1731655021.9264688,830.7484918055846,798.0695644517531,801.8361126753124,834.6434260755661
1731655021.9284873,797.4224524286049,795.436958542619,801.6090762493025,810.3543505708925
1731655021.9317863,766.8777535901403,795.4261517741123,801.3817743808218,790.3684999850716
1731655021.9323893,762.8399446194495,798.0136054138272,801.1542778687943,788.6569992473607
1731655021.9362917,787.1864360066601,802.2399523585485,800.9266457790998,803.8871835843541
1731655021.936566,818.6245143586499,806.5658385583075,800.6988329296255,820.6533814001549
1731655021.940194,830.32415710331,809.5775003995781,800.4706169710463,822.1124247622502
1731655021.9440963,812.2560758205907,810.7094552893014,800.2416810457249,803.9218911778911
1731655021.9474025,779.8031809643951,810.5145355901147,800.0119433492436,778.1974249320605
1731655021.9479983,761.3156633540685,810.2527364407399,799.7819844409822,764.1497187002836
1731655021.951901,774.7378366822039,811.0468451871747,799.553080539519,772.8522600865537
1731655021.9554524,812.5562443102602,813.1515547018478,799.3262705000151,798.3964447829308
1731655021.9558032,847.3924628866932,815.7639419487647,799.1005300891525,822.5275551807798
1731655021.9597056,853.6029545585284,817.4358794799999,798.8715232885503,828.9967266303474
1731655021.9614203,827.4430417244333,816.8504951130786,798.6335117253477,816.1502526934436
1731655021.9630182,789.8184796302046,813.5926533786561,798.3858367182881,797.774816139352
1731655021.9636078,769.6456145740997,808.4994579230544,798.1406186667887,791.5808482870722
1731655021.9675102,781.106091068915,803.2851185300548,797.9221015588872,804.5572442748036
1731655021.9714124,812.8603322241515,799.5663440912134,797.747529303876,827.0654789844622
1731655021.974339,837.8729419202853,797.9646862654578,797.5929071904482,840.6995070298732
1731655021.9753149,835.9746049659324,797.9826125368336,797.3735305737779,833.7372481733554
1731655021.978634,810.6559142220605,798.6388140782251,796.987668098784,811.4237861218269
1731655021.9792173,785.9515009358288,799.1926715605255,796.4451899682942,792.1742873415136
1731655021.9831195,785.7715899971283,799.4138479228791,796.0115009768697,792.4451698792636
1731655021.9870217,813.0710355178713,799.4188788252219,796.1921917708486,812.835141419835
1731655021.990924,846.6329727505994,799.395256464253,797.4135596473259,837.2423059000099
1731655021.9932256,858.3079338944209,799.4420928990921,799.5401081413651,845.925241907276
1731655021.99425,836.2595434008439,799.5580245174682,801.706477935403,831.5823160989452
1731655021.9948263,794.9628120684944,799.699173281442,802.8190076461186,805.1777267033333
1731655021.9963722,763.8982623893013,799.8307476458607,802.4154008430371,786.9030798449281
1731655021.9987288,764.2427409621092,799.9435844193429,801.0875135606063,789.8090480232158
1731655022.0026307,792.3880666663488,800.0452584394006,800.02153367598,809.4401345107683
1731655022.0065334,823.5667091479111,800.1458070503713,800.0471289562398,827.8624315645478
1731655022.0098658,832.5895968758799,800.250056841918,801.0241836288378,828.7439584772386
1731655022.0104356,814.5588223474717,800.3575817639927,802.0424160998912,810.9692581058514
1731655022.012112,788.208881621769,800.4659672521763,802.1774895235254,789.328944469148
1731655022.014338,779.0194266492834,800.5734557308826,801.1272430556362,781.6241451944336
1731655022.0182402,796.5140283965324,800.6796732226584,799.2635552950717,793.1366679271434
1731655022.0221426,825.3058833836841,800.7850772106108,797.2158711632804,811.7936763418722
1731655022.0254817,837.7449598331368,800.8901998984844,795.4929904163012,818.2544396798654
1731655022.0260448,817.4968992344806,800.9952763143732,794.4949120102735,802.4060195112258
1731655022.0299473,774.1174876612049,801.1002700174373,794.7399504366573,772.4159499779558
1731655022.0309987,736.4400826194361,801.2050534131199,796.806576786652,748.8953720668283
1731655022.031324,730.2384660689695,801.3095418629766,800.779693614204,748.9839876983979
1731655022.0338497,758.2023809052274,801.4137246873336,805.6548351122644,773.0120191378516
1731655022.037752,798.0479192666943,801.5176334953353,809.4464168401581,804.053655748116
1731655022.0410976,820.0941981109304,801.6213039958701,810.2199772272611,820.6276037395614
1731655022.041654,810.376119266741,801.7247576872868,807.3681086507397,812.780858296742
1731655022.0455563,780.993674188132,801.8279998565706,802.1104866644347,789.16993183957
1731655022.0494587,759.4839256315419,801.9310217048318,796.8068663248678,769.6549889243237
1731655022.0498853,765.9064778040731,802.0338037299915,793.6259679149659,769.3578137631932
1731655022.0533612,796.37142044681,802.1363286763516,793.516449654202,787.0305549092798
1731655022.056713,826.3541193805997,802.2386094817989,796.0322810505221,806.9974397684842
1731655022.0572634,830.7685304217907,802.3407158330939,799.8771442889554,812.6608362877167
1731655022.0611658,804.2476851141439,802.4427574052514,803.6445159169996,800.1499768607649
1731655022.065068,765.4762495408406,802.544787637251,806.3086523385148,781.0354934350696
1731655022.0662758,742.706175282366,802.6466606902051,807.3573261959496,772.4540443872023
1731655022.0687718,752.3485651759773,802.7479872662044,806.7465515425026,783.1975654497254
1731655022.0689704,787.2206063123831,802.8483853132341,804.8884420178617,807.0132656041901
1731655022.0723293,822.9476196607948,802.9480529378321,802.6575802491993,828.032806005857
1731655022.0728726,837.0550826277679,803.0482582919894,801.1886120899646,833.5180033742083
1731655022.0767753,825.807868719904,803.1509240207602,801.3555220491983,823.5657308857535
1731655022.0806773,805.7129815406142,803.2567089928675,803.2241739831412,810.0768659695564
1731655022.0845797,798.6999728760599,803.3623820767265,805.9794248483225,806.0635534026018
1731655022.0876584,813.267710541483,803.4603655824905,808.4894889171354,814.3731337004192
1731655022.0879452,837.3896097141313,803.5439872395609,810.0721783590277,825.4652960577171
1731655022.088482,849.2005779685035,803.6183693206802,810.827703441942,826.2085409503724
1731655022.0923843,836.3958293627277,803.7085749743826,811.3205538974457,812.1382140327643
1731655022.0962863,807.7698950705608,803.8494438169139,811.9559679940367,792.499557837889
1731655022.100189,786.8835557662236,804.047334422136,812.5599536822372,783.4725542020643
1731655022.1012275,792.8404701186524,804.2312960582631,812.4202657558293,795.0032910366036
1731655022.1035607,823.9509845808128,804.2480878868735,810.7292530460985,822.0762043239931
1731655022.1040912,857.8854349963099,803.9586355601828,807.1858977706917,847.6798337523196
1731655022.106545,868.7530395153015,803.4131190488995,802.4152156057158,855.3675327506306
1731655022.1079936,847.8348056265527,802.9479875026805,797.8622623873781,841.7229117675707
1731655022.1118958,811.1603769842737,803.0283090824994,795.0731303966141,818.9493759567564
1731655022.1157982,787.0408806730843,803.8799775346091,794.758825654001,805.3034227079818
1731655022.1191769,793.0143248645703,805.2271027240848,796.3420729336772,810.6955873125181
1731655022.1197004,821.207180339233,806.4143103436094,798.4033050001716,828.9846409232601
1731655022.1236029,844.8716127047662,806.8370679501405,799.7159065486927,843.3896261066667
1731655022.1254315,841.0708342799962,806.318579239055,800.0549647777235,840.6650143147548
1731655022.1275053,810.3753810395434,805.1577963498079,800.1721284163083,822.1988032888512
1731655022.1314075,776.7282909481528,803.8982700688641,801.044270917445,802.6781575125667
1731655022.1347928,767.5513429753827,803.0773465785577,803.05807532334,797.5135288777402
1731655022.1353097,790.891403657953,803.1276620729719,805.7446758599458,809.737404908191
1731655022.1361792,828.6154248696286,804.3562606787938,808.1693205849538,827.4127055099177
1731655022.139212,850.9725958441982,806.8083080466345,809.5890539379743,833.5964414745903
1731655022.1431143,840.2275639692409,809.9866435691141,809.8711680059901,820.400336117969
1731655022.144318,804.0678127734417,812.7024250113186,809.4285418352034,795.435830444374
1731655022.1470168,768.3308586495434,813.4256811249772,808.8244464406315,775.4062283763303
1731655022.1504085,755.6371953674592,811.1617345469892,808.4101665067658,772.3048565384868
1731655022.150919,767.7942167611498,806.3128790372892,808.2341287108646,783.7725210353656
1731655022.1548214,786.2552070582611,800.759197895804,808.1757228798774,795.6423935938005
1731655022.1587236,789.5680373086182,796.8768287931194,808.1121219952303,794.4501057259964
1731655022.162626,772.5536586925955,796.0915535603364,807.9946933987596,779.2963025882357
1731655022.163205,750.8992195494724,798.038419810342,807.8365632010941,763.0330171749011
1731655022.1660244,747.5687766050839,800.9647075140862,807.6690333213355,761.734648670516
1731655022.1665282,772.7394126338527,803.0200555428806,807.5116056857265,781.0877606478797
1731655022.170431,814.0054211849093,803.4019201061199,807.366507915996,810.7340180840781
1731655022.171131,844.8437508785854,802.547930240268,807.2271458304313,831.1724795297674
1731655022.1743329,844.6125042209518,801.4432180300605,807.0872524858424,828.0156617697844
1731655022.1782353,814.4428541542491,800.7951769515336,806.9446173330924,802.78160903809
1731655022.18164,776.7406268004929,800.7187699954858,806.8001547915391,772.0345283938765
1731655022.1820912,758.6035949206164,800.9501389013413,806.6555512782837,755.4515584714125
1731655022.1821375,771.6983519037967,801.1990012543091,806.511771367172,761.7516363470827
1731655022.1860397,803.9583281068391,801.3347275744682,806.3688666826325,783.1012978685382
1731655022.189942,829.5876462917666,801.3735654850923,806.2264642536296,802.1604368504057
1731655022.1938443,829.6342779692462,801.3836502635713,806.0842417770181,806.0690085582746
1731655022.197256,806.8148673988051,801.4124946626865,805.9421000358503,796.1539423503507
1731655022.1977468,782.6605880130284,801.468948312957,805.8000969256375,785.6600291299803
1731655022.2009778,779.3513893290522,801.5396795176122,805.6583199217736,787.6870757144859
1731655022.201649,801.1276247614809,801.6101444927111,805.5168123257157,803.5394906678785
1731655022.2055514,830.4988207949986,801.6743660149604,805.3755704794382,821.1991106671595
1731655022.2060826,842.4107654504013,801.7337864924591,805.2345752581178,825.1771534057585
1731655022.2094536,824.9468797184406,801.792139781521,805.0938183169478,809.6115243627695
1731655022.212872,789.6930468604578,801.8518154333703,804.9533043917389,783.7371080697162
1731655022.213356,763.0052997054418,801.913135988195,804.8130326675343,765.0014162186179
1731655022.2172582,764.8894581880894,801.9753379068666,804.67297587577,765.2848362211768
1731655022.2198644,792.6766716177721,802.0376718409092,804.5330836848632,781.6015519002813
1731655022.221161,823.2122718477582,802.0998666530427,804.3933287242943,799.1381216992335
1731655022.2250628,832.0982629025901,802.1620298980002,804.2537780372345,804.1439872046897
1731655022.2284875,814.0738150510906,802.22436814761,804.1146181638051,795.7095718957365
1731655022.2289653,787.3725389011311,802.2870047109044,803.9760375004139,786.3014890272136
1731655022.2328677,778.3133493909717,802.3499535288953,803.8379496464795,790.5527340455398
1731655022.23677,799.084470071585,802.4131771019868,803.6997499159091,811.9261077072342
1731655022.2387507,837.3025624723349,802.4766444805412,803.5605028626269,838.6983236025371
1731655022.240672,865.8651135043472,802.5403519255825,803.4198594876892,852.798678061508
1731655022.2410345,864.7752502219812,802.6043121876241,803.2793383894495,844.3035009882055
1731655022.2441037,837.087501123709,802.6685350601517,803.142591134472,819.763379701416
1731655022.2445743,806.1986670862702,802.7330183533448,803.0129185566326,797.5138571332644
1731655022.2484767,796.8249853262354,802.7977572704414,802.8880013825242,793.5246720061846
1731655022.2523792,815.1298308782493,802.8627666483566,802.7558083885194,809.0080856507882
1731655022.2562814,844.234795605346,802.9280958070077,802.5991874367002,829.8292039131727
1731655022.2576375,858.84614713235,802.9938076119372,802.4139682357164,838.3457549010703
1731655022.2597196,846.8193102589958,803.0599092680578,802.2321375956823,828.040597781842
1731655022.2601838,819.4844159484559,803.1262737942158,802.1229813171099,808.8132610581949
1731655022.264086,801.9261801047068,803.1926539205317,802.1408587000702,798.4835411312837
1731655022.2679884,811.4336982446272,803.2588897460553,802.2233636381752,807.614667484648
1731655022.2718906,842.428521564466,803.3252644792542,802.1178794860118,830.3743349437249
1731655022.2753353,870.6278809785629,803.3926873423958,801.467973168703,849.0450870231091
1731655022.2757933,872.8777347958714,803.4622086654609,800.1061195851685,848.4001722606731
1731655022.275986,846.0592006978854,803.5336864548076,798.3435103428429,828.1213206067964
1731655022.276524,809.5222142012377,803.6044174023405,796.8974931028305,803.2008596723118
1731655022.2796953,789.2371593849044,803.6696754040559,796.390982408377,792.0233004619732
1731655022.2835977,796.7545540282812,803.7269055608763,796.8420856379358,801.6490586846706
1731655022.2875,820.2276283500386,803.782327485015,797.6072002068021,822.1408725654599
1731655022.2909513,834.9183898872783,803.8535494749061,797.8108143548892,834.727024466795
1731655022.2914023,824.5238104504124,803.9591161937236,796.9245130608018,827.424450876314
1731655022.2953043,795.4446323538131,804.0928959510403,795.1215743994183,805.3194070782646
1731655022.2954106,771.8071017117379,804.2005675813778,793.2004168620764,786.710988722879
1731655022.299207,775.232272465383,804.1955966997716,792.1031125130185,787.9742027216727
1731655022.3031092,806.2893987998432,804.0451642939279,792.30907599865,809.6216162219902
1731655022.3065672,843.1349853821689,803.8979380768886,793.5327203854544,835.2678404774526
1731655022.3070116,858.4328610564185,804.1357883472831,795.0035795634653,844.5357309659975
1731655022.3109138,840.7160078482107,805.2059151632466,796.1580763830096,829.430145500502
1731655022.310938,803.149836868092,807.2329847549124,797.1604787490453,800.9307074559965
1731655022.3142972,773.0820554925248,809.6639935340834,798.7268649831516,780.5308487883161
1731655022.3148162,770.8575928980624,811.3068378785038,801.3225394499599,783.4614879010619
1731655022.3187184,794.4248301318786,810.909082477016,804.4553563342081,806.8655327473551
1731655022.322183,821.5866628165465,808.0076597836421,806.8198940842707,832.2692819016862
1731655022.3226209,828.0751201016958,803.4689836642779,807.3006268192898,840.3624252309882
1731655022.3265233,807.1862971301086,799.2123478011639,805.976430665201,826.1861024294255
1731655022.3304255,775.2349086625637,797.1401574335321,804.1753548875258,802.4604220078905
1731655022.3331838,758.282705485055,797.9619051180963,803.4659159312993,788.5756638328161
1731655022.3343277,770.8043079377533,800.7967174328048,804.4352259956751,794.6191450737707
1731655022.3377988,803.6336390765479,803.8789693164784,806.2663521604823,813.6248156965688
1731655022.33823,831.0175699193125,805.8033647974773,807.3910031800107,827.993052073871
1731655022.3421323,831.1154939319101,806.327667827148,806.6123949636898,824.2624140971685
1731655022.3458896,803.4812224274814,806.1723582448495,803.839644441272,803.9872158843294
1731655022.3460348,769.510094124297,806.1142911757822,800.0331112639716,782.1662955835919
1731655022.349937,755.4368399226673,806.2175281980296,796.5921619254058,774.9222521305024
1731655022.3520703,771.4376786822195,805.8595492012118,794.6812498606362,786.5950318974989
1731655022.3534143,803.6599507317965,804.496300064936,794.823875859746,806.6164870532406
1731655022.3538394,825.7834664312358,802.4571650995401,796.824208660367,818.5616495993589
1731655022.3577416,820.8496918601821,800.9918909328269,799.9596303006556,813.9236906554878
1731655022.361644,795.3361028741849,801.393253521424,803.3623384827184,799.1969334447298
1731655022.3655462,773.4906727508954,803.8533019623154,806.4219736084636,790.1823345389907
1731655022.3690305,776.4292698779924,807.0642254911975,808.9590141230137,798.0789620353438
1731655022.369449,803.6357832103131,809.0282917603727,811.0357220197677,819.0994394101814
1731655022.370957,832.689539226244,808.4750142274455,812.5779381006175,836.6666567897175
1731655022.3733509,837.6315814680235,805.6876219551702,813.1933644128504,834.721685449024
1731655022.3772533,810.6990031803233,802.0642043352693,812.4369189361778,811.2655134783689
1731655022.3808413,769.4598237210083,798.9208365198648,810.3563950470507,780.9483451386552
1731655022.3811555,743.4946942126437,796.7041009231866,807.8045036621531,764.4138114538371
1731655022.3846464,751.3577786907521,795.2569245045662,806.0809916428846,772.740928279475
1731655022.385058,786.2356051828084,794.647392355225,806.0088422848613,799.1797772153886
1731655022.38896,821.6659061024421,795.5156452488587,807.1466468552017,824.5866730828754
1731655022.3898437,832.6306736204938,798.4692867073926,807.9055734050016,832.1951029550092
1731655022.3928626,814.9958946082338,803.1291326029689,806.6645164644698,820.034345881063
1731655022.3967648,787.5794147045407,807.8713454486676,803.0783882222667,801.2336252374632
1731655022.400262,775.3472143364345,810.6759624786904,798.5059452412133,792.2493356297587
1731655022.4006672,787.9147780482708,810.4283203131534,795.1651567406155,798.900766555841
1731655022.4045694,811.457319488794,807.5900934069124,794.6537781916869,811.8225005511813
1731655022.4084718,820.745844429885,803.7467777768733,796.9290937654877,814.98108122547
1731655022.40873,801.0228250443411,800.5145078482685,800.4030115377201,799.9505681193968
1731655022.412374,761.3764109683409,798.7097644344404,802.9683449125503,773.9402243721028
1731655022.4157927,728.6214224529656,798.2612559459412,803.2271028895902,754.8628771023075
1731655022.415878,726.6552954951843,798.6291078815434,801.2118230034779,757.3350158194692
1731655022.4162765,757.669554421768,799.2117178742276,798.2729516227639,780.7677173684909
1731655022.420179,799.9971527724697,799.5089574264568,796.2481520235858,809.1355481597578
1731655022.424081,824.4883818960709,799.2036639652173,796.381023462933,822.9451324084899
1731655022.4276166,816.843984366515,798.3427207656183,798.6201540700122,814.2221195267132
1731655022.4279833,788.286249759512,797.4857707909413,801.7519223748501,792.5823989343984
1731655022.431494,765.8244177070385,797.5113320557273,804.2781293207249,777.2946257920428
1731655022.4318855,769.8109960784157,799.0413151692968,805.3872886425446,781.5890207235354
1731655022.435788,797.1425354876185,801.9135802339504,805.3034665276481,801.9667009243911
1731655022.4396904,823.973942288173,805.2240465862653,804.8527601748503,821.2190537558992
1731655022.4435923,825.60020148462,807.9633293231846,804.7529962604685,822.5626190354471
1731655022.4465032,796.9816488543732,809.6723601649555,805.2532374256085,803.2910585956305
1731655022.4471097,757.1834114974428,810.5165199130963,806.253357900769,777.027660321745
1731655022.447495,734.4067380918981,810.7941842719898,807.5168751857628,763.0251571435708
1731655022.4507446,743.789425850747,810.4823953173455,808.6326552193294,771.1329841301047
1731655022.4513972,775.5560958855764,809.3290760909899,808.877266503654,794.2156877090059
1731655022.4552996,802.8554738032155,807.3451850221472,807.4185647723679,813.90805139669
1731655022.4592018,803.2735566265495,805.0811920698208,803.9581193090061,815.1896011495381
1731655022.4627256,777.0583786184661,803.318528623401,799.289855551284,798.1974424562038
1731655022.4631042,747.1783769587214,802.4791715777841,795.1150967522618,777.6886780714424
1731655022.4653895,740.6315128711559,802.385100447016,793.0649655540352,770.5250491360762
1731655022.4670064,765.9971429869179,802.6113537736046,793.651598266302,781.5851574539971
1731655022.4709089,805.9337935096735,803.0113525290698,795.9992443842386,800.006975914825
1731655022.4748113,831.194163048881,803.799399365997,798.5541259785278,808.9638607371154
1731655022.4783416,824.5499964456923,805.079088748467,800.1633576233769,800.5633370824195
1731655022.4787135,794.5512406484814,806.3660203182521,800.6686279247954,783.0242550747947
1731655022.4826157,767.8216751197954,806.7376167505647,800.6400880293592,773.9353666831064
1731655022.484276,766.8226072188897,805.6129785313154,800.6175458385072,785.3027069849176
1731655022.4856963,791.844042757463,803.448064784235,800.589364068576,813.013658453103
1731655022.486518,821.8409620411782,801.5937301720423,800.1378379382091,839.6131157284966
1731655022.4904203,832.8484556623782,801.313447136961,799.0126326579256,848.218509018821
1731655022.4939573,818.3402039440691,802.7846838525062,797.4961129567151,836.094841038929
1731655022.4943228,794.4450708528072,804.9748737551556,796.186361259796,816.4992445641783
1731655022.498225,785.5981425942791,806.4895041303872,795.4767746751011,807.1246242154233
1731655022.5021274,802.8838401719861,806.6116189137466,795.350141301299,814.9821111938891
1731655022.5031626,833.9417226831249,805.6487299945113,795.7291146795751,830.8417669662513
1731655022.5060296,853.529936011531,804.420891211522,796.9309792652053,838.0690451921441
1731655022.5095732,845.7027695365786,803.4888813318589,799.5702887476889,827.9636700192231
1731655022.509932,818.1467088822714,802.8121909686226,803.8348243076598,807.9782165880866
1731655022.5138342,796.0212277966084,801.9955308417733,808.8189466070964,795.5865635126708
1731655022.517737,800.5667892238475,800.7615107590625,812.6766522007753,803.1837267091144
1731655022.5206482,830.7957992691295,799.2315717911473,813.6313741470399,827.0210315936423
1731655022.5216389,863.6624927296562,797.8874137663208,811.1016278557302,849.5219310572945
1731655022.5220492,872.4631641575356,797.3291692445267,806.1265763823784,853.0586290313887
1731655022.5251887,848.419276352527,797.980206668419,800.8609882315523,834.0082507653084
1731655022.5255413,808.1150347097413,799.8492716494836,797.5209706626518,805.8340594713843
1731655022.5294435,780.7769679049322,802.4648360870215,797.3747662475628,788.6691332350363
1731655022.533346,785.2921075978609,805.0582085764296,800.262234646526,793.5469608379781
1731655022.537248,815.2321803076024,806.9114258411338,804.8691598166804,813.8313727504136
1731655022.5408049,844.1902539099826,807.6436560089292,809.5909645083267,830.8705801661835
1731655022.5409358,847.4939508212078,807.277906659285,813.4060784251249,829.4478410142231
1731655022.5411506,822.6881668094867,806.14226621078,816.1209918538176,810.4268459446217
1731655022.5450528,791.7376986395285,804.75171747078,817.873319517259,790.0984794371508
1731655022.5489552,782.8362881336492,803.7003289327733,818.4893386309577,786.6755373954187
1731655022.5528574,806.7528429245784,803.4820397753093,817.4464360649978,805.0860272347803
1731655022.5556,847.3312165339742,804.2379836782907,814.5470583090007,832.643616502624
1731655022.5564208,874.0638258415897,805.5866032022391,810.6036535122523,849.145815398848
1731655022.5567598,866.4928227640386,806.7026065769088,807.3262390006639,843.0959821916016
1731655022.5598223,830.5830659368132,806.6591793721541,806.3305821011282,820.7963363454022
1731655022.560662,793.7370215216456,804.906203247016,808.0179578572624,800.8586908866794
1731655022.5645645,782.4200461151751,801.6974930387762,811.2288982846784,798.5505880066993
1731655022.568467,800.6928374987248,798.2306911022184,813.9597562624531,812.9190018324413
1731655022.5720365,827.543469706623,796.2593419865935,814.6282713017331,827.6755801634963
1731655022.5723689,835.4371714505409,797.1747481515897,813.0095352898554,825.4286300586776
1731655022.5762713,814.4487104919023,801.0363277794401,810.2427824465731,803.3056712170998
1731655022.578709,781.2985706935917,806.310807383869,807.9763274940535,776.4702703328452
1731655022.5801735,765.3809785451149,810.689235788025,807.2897132615162,766.1983063747246
1731655022.584076,783.5391281458184,812.4689092406189,808.1175018629656,782.301150917242
1731655022.5876524,824.8893909780945,811.4480299885086,809.4681882317941,814.4435276732983
1731655022.587978,858.4757616408348,808.6890597869257,810.1497444360988,839.5030781605021
1731655022.5905516,857.5752752530432,805.4988873103665,809.4439401931237,839.0905913588988
1731655022.5918806,820.9534822581086,802.5699981629512,807.3686691903696,813.3722169409771
1731655022.5957828,773.9897371868816,799.8994662723696,804.5541601061933,780.4692982147934
1731655022.5975957,748.845399748967,797.302347567275,801.94328930307,762.181831659496
1731655022.5996852,759.6364932165433,794.898383756549,800.4302094115847,767.5241617402626
1731655022.6032684,792.5174720395938,793.1741685116989,800.4545449811667,787.1188244709405
1731655022.6035874,818.4128943463573,792.6989646718749,801.6892046759386,802.5352472130529
1731655022.6074898,817.5661749645071,793.7996016119218,803.1120646040757,802.355108680528
1731655022.611392,795.4032295982308,796.4013285131214,803.5834970376005,791.3035241759472
1731655022.6152945,776.6791284012189,800.0552338563988,802.5951870662024,784.909844959289
1731655022.616482,783.2590679617476,804.0751042107519,800.5998793889889,794.6725153758904
1731655022.618884,814.5255106020045,807.6999071944124,798.6328232570527,816.7937328413548
1731655022.619197,846.9131823422558,810.241798173287,797.5342179499047,834.3399463939553
1731655022.623099,853.0132165590187,811.2408702583962,797.3865172137316,831.1741217764425
1731655022.6255033,824.5927843009798,810.6515240721413,797.5376494661756,806.044107275952
1731655022.6270013,780.6021258057034,808.9771680568964,797.0932521837954,774.9359907949241
1731655022.6309035,753.1741944148456,807.1592766026063,795.4824499741435,759.2885439987633
1731655022.6345,762.3761241147738,806.1232236419577,792.7792666015682,769.2536755430184
1731655022.634806,799.9759829029396,806.2022430825145,789.697175289948,795.5268467901013
1731655022.6353686,835.7297036271938,806.8914395622347,787.3262398270418,816.6338847343184
1731655022.6387084,841.5478865270971,807.2011431236514,786.7098435064624,816.0496612248824
1731655022.6426103,814.008087489028,806.379332197675,788.3756602954259,795.3180698952644
1731655022.646513,776.7032083400057,804.4405069353692,792.0063809594719,772.4470938756135
1731655022.650116,760.4896981221575,802.1102891330062,796.472100246443,766.9434468076228
1731655022.6504152,778.0283629488515,800.2849738286588,800.3186942052206,783.8378371246841
1731655022.6542552,813.5787400509745,799.454948256374,802.5225802284846,809.693001260254
1731655022.6543176,836.1865010406036,799.5023150468755,803.0752309052299,823.5860142722951
1731655022.6582198,825.2586520109671,799.9438960354527,802.9814384725523,813.9975395987801
1731655022.660455,787.7268210760851,800.3381545756583,803.5937594058156,788.1115637765396
1731655022.6621222,752.9363783771511,800.5135997021057,805.6534539887183,766.2485816935678
1731655022.6657317,749.1980025180706,800.526616653803,808.6484699884843,765.8428732739566
1731655022.6660244,780.685831402517,800.5006179300836,810.9499131169122,787.5997987658309
1731655022.669927,823.509423837822,800.5121152913118,810.7289971116226,814.9510015026294
1731655022.6731417,844.7252215199023,800.5701098472699,807.157476856474,827.5072774390767
1731655022.6738293,829.2370418858842,800.6491088119349,801.152010155796,817.7447333184037
1731655022.6777315,792.3682440198455,800.7247699449982,795.1123654028486,797.0833537607988
1731655022.6813476,767.2073824379058,800.7884711365705,791.6857706042673,786.064013819122
1731655022.6816337,776.9438083350343,800.8437399142234,792.2641310095886,796.7985139380655
1731655022.685536,815.3345729208366,800.8971239902833,796.2075265811233,822.5922389603885
1731655022.6894383,851.642845013934,800.9523790949587,801.3519388638888,843.4727797821931
1731655022.6920283,855.7049877849192,801.0097150054994,805.4211074587596,842.7284674206413
1731655022.6933408,822.2603822329584,801.0676870769946,807.2847068401746,820.5112950169664
1731655022.695407,774.9871683509898,801.1250431826835,807.2205281943171,793.533666305404
1731655022.6969633,747.618816358079,801.1813976726454,806.2404856563259,781.5707648220916
1731655022.697243,757.5976778554983,801.2369801297373,805.2461452525685,791.8771284677345
1731655022.7011454,793.0692890073847,801.2921431510596,804.6744905006819,813.8676108224136
1731655022.7050476,823.2308088602057,801.3470733953075,804.646493097781,828.1139971074409
1731655022.70895,823.5425781986885,801.4017698849977,805.1852754129842,822.3564395904265
1731655022.7109149,795.3467042353091,801.4561511605202,806.2035563774868,801.5238059135181
1731655022.7125793,763.8637320505443,801.5101531934623,807.3772219219438,783.4438547837774
1731655022.7128522,756.3608861463781,801.5637655304077,808.2051168860868,783.6549391261597
1731655022.716755,778.8956190175954,801.6170192187689,808.3332723484946,801.9710758304358
1731655022.7206569,811.1995320926351,801.6699553995547,807.8750561748619,822.1952382990208
1731655022.7245593,823.8321942068967,801.7225915617055,807.3750643517717,825.3761227275351
1731655022.7281952,803.0105153805781,801.7748966197635,807.3571276064798,805.5905651340108
1731655022.7284615,762.4697316877555,801.8267960368569,807.8093119629467,775.1944312960784
1731655022.7298014,732.8670692151097,801.8782328522469,808.0958982067614,755.3196555910886
1731655022.7303584,737.5437233432381,801.929276264823,807.4695560322592,759.350213577814
1731655022.732364,774.0258646723714,801.9801908201815,805.8147914790371,782.4948634335929
1731655022.736266,815.886468543254,802.0313169804847,803.9638416097405,805.6523438601109
1731655022.7401686,833.6477528379532,802.082686036323,803.20342019996,810.6346091001166
1731655022.743811,818.247643248748,802.1335748372244,804.2656097051112,794.7916655784405
1731655022.7440708,787.9989523057633,802.1825664363945,806.6052884861843,773.1473007943387
1731655022.7479732,772.9305978562287,802.2286993267553,808.6273544396022,765.9202677383657
1731655022.748688,789.2322260014943,802.2734790251623,808.7902094954254,781.4696177960739
1731655022.7518754,825.3246254073489,802.3219720494333,806.7674616333211,808.9847678047818
1731655022.7557778,851.5568317915888,802.3801747049257,803.7468317395868,827.3395629998976
1731655022.7594268,845.4241554043839,802.4475393936015,801.6138349732647,822.8104613155944
1731655022.75968,810.953490976175,802.5090971475079,801.6588571420574,800.7215984597403
1731655022.7635825,775.9688578513828,802.5380861763355,803.7934250992533,781.2365170588787
1731655022.7653103,769.6399170172056,802.5191836466315,806.7831652920992,782.8900981242881
1731655022.767485,798.8766051641118,802.4858435774158,809.1632180611203,807.4922933522737
1731655022.7675743,842.6104754288597,802.5360025670143,810.0457732981623,838.5645859520813
1731655022.771387,868.2634530810939,802.7740949612407,809.290841594938,854.2919167460343
1731655022.7750428,857.1156060273847,803.1642822106116,807.1510176793292,844.45542981304
1731655022.7752893,818.5112433766798,803.3854506885195,803.8981844748989,817.9148031188162
1731655022.7791915,781.7993312074416,802.8856455183281,799.7922475082968,794.907225037055
1731655022.783094,772.6272069561085,801.2737875496828,795.3052042141761,790.6160230836857
1731655022.786461,792.8216776989044,798.8490373138117,791.2467436271002,803.4571632159249
1731655022.7869964,820.1836343353515,796.7262527534666,788.5672203786555,817.5240602865986
1731655022.7906585,828.0521328860763,796.207425748176,787.9446230127179,816.7844148957856
1731655022.7908986,808.075436300073,797.7683042032194,789.4643281574743,798.8907925025572
1731655022.794801,777.1838103531851,800.5112123914287,792.626251678607,777.0951652109985
1731655022.7987032,763.2605720158492,802.6292864369667,796.6513952781293,769.017782716232
1731655022.800262,781.7628426905554,802.6359295749195,800.8222319208094,781.976851768744
1731655022.8026056,822.6485970464026,800.503350072298,804.5903180282132,807.0797931506553
1731655022.8053477,858.0969631127176,797.8459934634021,807.456057265543,826.697748598331
1731655022.8062744,864.5828870640786,796.8994961128396,808.9103046378317,828.9716915634532
1731655022.8065078,841.5095769803327,798.9341089923395,808.672600136674,817.4584281664955
1731655022.8104105,811.3659627636858,803.2759450085316,807.0586025128518,807.9768110321506
1731655022.8143125,801.0733700918533,807.7486298116748,805.012611677759,814.989787840598
1731655022.818215,819.5897226552981,810.2231050029302,803.5729691987561,838.5671256032753
1731655022.8218904,850.4091807000906,810.0148916078931,803.1338446091388,863.0119593848539
1731655022.822117,865.5466500289197,808.0290510214819,803.1844566121899,868.9513904408267
1731655022.8242342,849.4643219254016,805.7069969413092,802.8385659775473,849.3485017489902
1731655022.8260195,812.7633054735501,803.8511338604255,801.7222448466259,816.1594298165403
1731655022.8299215,784.0067224271339,802.343854355122,800.395025911527,791.7685446637961
1731655022.8338242,786.4205835911968,800.8103239471297,799.858102512758,791.8276427303347
1731655022.8352137,818.7619582746942,799.4008047187798,800.5495389220539,813.2456532825137
1731655022.837506,856.0730356592326,798.8718574327196,801.7698230166268,836.9723402543129
1731655022.8377264,869.7041600671527,799.916971053961,802.1672364207959,843.352481652533
1731655022.8416288,850.3337946185054,802.4410906335282,800.9422038809978,827.7638211350464
1731655022.8431208,815.2004552646213,805.4943870954298,798.669274690098,803.9421688791878
1731655022.845531,793.4309226460607,807.9173441270405,796.8848733136035,792.1989836435282
1731655022.8494334,801.3568167702596,809.0907809521198,796.7626154226376,802.1067684907258
1731655022.853122,828.4746292752733,809.1665512277581,798.1679673563792,824.1289848177079
1731655022.8533356,846.3096430573581,808.720197401194,799.982954634759,837.5137791186866
1731655022.857238,833.1150508759047,808.2607677466953,801.1886002013206,828.0160295112806
1731655022.8611405,793.4398552383365,807.9942985344718,801.5327574364763,800.4071692546971
1731655022.8620074,755.6173459021401,807.8820338447866,801.3651563577231,775.0445914798364
1731655022.8650427,748.9838927352831,807.8088304089143,801.1296377854894,771.3482414158774
1731655022.8687377,779.7809345069373,807.7001592762331,801.0507015174734,791.9769055177269
1731655022.868945,825.602674785526,807.5460071406189,801.123996816004,820.6151466058153
1731655022.870165,852.779678024894,807.370509344682,801.2513822011374,834.9144329924877
1731655022.8728473,842.5625322369345,807.1974532628659,801.3563307895699,824.0185406146767
1731655022.8767495,805.229993548105,807.0356334033137,801.4196225506279,796.7511324961596
1731655022.880652,771.1181008851333,806.881913304658,801.4587466032121,774.1480918819657
1731655022.880894,765.9688152587377,806.7299926933307,801.4960680104734,772.4603931567035
1731655022.8843536,790.4299151139061,806.5761513781704,801.5420846768136,790.3220434481308
1731655022.884554,820.1496386283816,806.420105493998,801.5956413785487,810.4247248732319
1731655022.8884566,826.2968487326348,806.2632281211428,801.6513017021258,814.2835617056575
1731655022.8923588,799.7955523436106,806.1067488877559,801.7051913903033,797.9686257025763
1731655022.8962612,759.5514526936857,805.9510694990188,801.7565338721486,775.8501202756875
1731655022.8997805,737.9685380656666,805.7959867181033,801.8063748430017,769.2064868134765
1731655022.8999696,755.359081450967,805.6411663010778,801.8558955838699,788.8464389145452
1731655022.9001634,803.512849578642,805.4864288381709,801.9056034097008,825.6435816321998
1731655022.9040658,851.1733260846603,805.3317759159352,801.9554049611497,856.540274129249
1731655022.905117,867.0510280169373,805.1772874876444,802.0050131645299,861.5035678896921
1731655022.907968,842.6870326054628,805.0230269894711,802.0542433236816,838.4576604604574
1731655022.9118705,797.7619815696975,804.8690090806595,802.1030765449372,804.6465358315035
1731655022.9155853,763.974601952822,804.7152168491563,802.1515835206255,783.228225248913
1731655022.915773,760.3168204177604,804.5616339841436,802.1998359079507,785.540608253155
1731655022.9186673,779.5117869641261,804.4082660590053,802.2478677433204,803.2257488327704
1731655022.919675,796.4827474340217,804.2551386719269,802.2956824664556,816.6318583909136
1731655022.9235773,791.5071182870413,804.1022706618107,802.3432751534228,812.3947647932798
1731655022.9274795,768.1601220088779,803.9496351316582,802.3906473884159,795.1599577438108
1731655022.9312012,750.4107547605405,803.7971430192396,802.4378096725052,783.3145461681964
1731655022.931382,761.2193097886113,803.6446954328957,802.4847769636706,792.4682694166188
1731655022.9352844,801.1821783247252,803.4923162631151,802.5315640443721,821.0847278993325
1731655022.9375536,845.8924711926076,803.3402791169036,802.578183702526,850.7187295265123
1731655022.9391866,864.6928937075675,803.1890383502634,802.6246472512814,860.7210351934209
1731655022.9400687,845.363721882288,803.0388059175611,802.670965722156,845.109618479955
1731655022.943089,804.2964137211978,802.8889196266082,802.7171505948672,817.638749352078
1731655022.9468172,773.6496742575531,802.7376441441918,802.7632138647115,800.8518243924152
1731655022.9469912,775.8505988697203,802.5832677869519,802.8091677757449,807.9635507753757
1731655022.9508936,806.2203310391965,802.4266197302495,802.8550245696223,832.3314828475578
1731655022.9547958,837.8628926559322,802.2732335706858,802.9007963906356,853.1926628213757
1731655022.9564402,844.4972059512442,802.1315458922837,802.9464953097201,852.9439514303162
1731655022.9586985,822.0146919280666,802.004497637718,802.9921333770577,831.5501737106023
1731655022.9624329,790.9342109320789,801.8780227005366,803.0377226465403,806.0669937186271
1731655022.9626005,778.330311873108,801.7191109485534,803.0832751652662,795.930484302968
1731655022.966503,794.9417311885315,801.499215671713,803.1288029469725,806.6859875171274
1731655022.970405,826.5305037870891,801.2433780881661,803.1743179475556,825.8307898847561
1731655022.9743073,846.0383516443455,801.0701699416854,803.2198320491837,833.8555381278439
1731655022.9750206,835.938292215843,801.1595881353663,803.26535705045,820.8407517748942
1731655022.9753268,802.5216437470384,801.6226967307966,803.3109046577288,794.8012225671439
1731655022.9780488,770.9416765546453,802.3668147626151,803.356486474938,775.1714512600787
1731655022.9782095,765.1461171559927,803.1203644598265,803.4021139915095,776.9150889462959
1731655022.982112,788.5419734792792,803.6401649197352,803.4477985695808,798.1371098083185
1731655022.9860144,820.8693659118697,803.9043255190072,803.493551431323,821.3174465732535
1731655022.9899166,834.3711510261458,804.0994940196886,803.5393836468035,827.454289257021
1731655022.9936647,816.7698481928559,804.4303027187436,803.5853061224882,811.7604591682313
1731655022.993819,782.1517940875831,804.9285687491524,803.6313295903956,787.8450478710305
1731655022.994213,759.9472183000524,805.4014927511091,803.6774645976582,776.5604416515067
1731655022.9977212,770.3521300353534,805.5394732959273,803.7237214956895,788.5439182948027
1731655023.0016236,806.5439561050067,805.1171791894154,803.7701104277606,814.9551514771717
1731655023.0055258,839.0186433601835,804.1901550872807,803.8166413145866,834.1646938840962
1731655023.0092804,839.1016610079067,803.1906145855481,803.8633238400226,828.9575758595787
1731655023.0094285,802.6745019809725,802.8385255903655,803.9101674418358,800.367058615511
1731655023.0099723,754.8422136482432,803.8212575749772,803.9571813120139,767.2575779744591
1731655023.0131,731.4849827892788,806.3093040650407,804.0043744034323,752.166935134124
1731655023.0133305,751.7972276254427,809.5696313969936,804.0517554265409,764.3798868191823
1731655023.017233,803.0205238118672,812.0521490579581,804.0993328128702,793.06553540086
1731655023.021135,849.4782721314591,812.1247431094625,804.1471146399409,815.6553708424842
1731655023.0248964,859.4043756220375,809.1243839636844,804.1951085614221,815.1450797436355
1731655023.0250375,828.9104527484358,803.9807457099542,804.2433218372823,793.0788139541023
1731655023.0289395,784.2377429021428,798.8298520598189,804.2917615393848,768.1151437191132
1731655023.0319865,760.5481054762192,795.7677703809118,804.3404348534237,761.2764183378015
1731655023.0328422,774.3208208792661,795.6033734299792,804.3893491535405,779.4908769107726
1731655023.0367444,811.3166410453592,797.503294735992,804.4385114274914,810.2927083773553
1731655023.040512,839.0833586089644,799.7297694110711,804.4879270148346,831.5869559744394
1731655023.0406468,833.2143558003189,800.8595827912945,804.5375985699387,828.6184217603757
1731655023.044549,796.2619638550414,800.6047521905026,804.5875270448302,805.0207545700571
1731655023.044924,754.9798819322558,799.7581674474137,804.6377159323233,779.7513328082853
1731655023.0484514,739.013086783626,799.4412404902336,804.6881769164554,772.5803167524275
1731655023.050873,758.1802955239366,800.2411349430531,804.7389305739575,789.2931990538312
1731655023.0523536,795.8105345258505,801.8031760985853,804.789994533533,817.7860906609357
1731655023.056128,822.7667996255948,803.1049836846984,804.84135966012,837.9002054614195
1731655023.056256,820.7715463684756,803.20681785883,804.8929729922924,837.2308430091039
1731655023.0601585,796.4430253688146,801.9644153886562,804.9447611881293,820.3116917147162
1731655023.0640607,774.802690256082,800.1899622239205,804.99671412624,803.7708850899161
1731655023.067963,777.6614105847941,799.1141117666202,805.0489869241899,801.6344587997347
1731655023.0697596,804.8903270883006,799.5315752636726,805.1018964975608,813.3012123302263
1731655023.071744,834.283158061878,801.2834904638995,805.1556777627288,824.3901388582219
1731655023.071865,840.1415793681747,803.460441183543,805.2100350471496,819.5763840773723
1731655023.0757675,815.079336634021,805.1026525102175,805.2638691569815,796.3946088775417
1731655023.07967,776.9941205946586,805.7908606863315,805.3158098904836,768.3775847036106
1731655023.0798757,755.4814596826379,805.7159353473168,805.3658483821764,754.9215618450669
1731655023.083572,768.6689595773696,805.3327667892612,805.4171554540771,766.1509363966393
1731655023.0873597,808.9872214913664,804.9919458728403,805.4756898287881,794.9833777900034
1731655023.0874746,849.0756554838164,804.8054674003015,805.5452352562509,822.6764952669755
1731655023.0886462,862.981033403721,804.721013939007,805.6190214596486,833.2858169391434
1731655023.0913768,845.7472286612991,804.651002049155,805.6755904409019,825.3591153912748
1731655023.0952792,815.8916336438161,804.5482806692781,805.690587784049,811.5431779318475
1731655023.0991814,799.1320734481837,804.4128182953333,805.6685827348292,806.7915961527007
1731655023.1029756,807.0067741459295,804.2649449782092,805.6755973901776,815.3463042414594
1731655023.1030838,828.0680600806722,804.1210667218849,805.8271306111715,827.5587570434759
1731655023.106986,838.6202625071812,803.9856588351986,806.1935320987036,829.0530212030691
1731655023.1075327,823.611851901121,803.855272772771,806.6613626372057,814.1259133433521
1731655023.1108885,790.1207764401585,803.7252074613232,806.8981106814106,791.7861732952838
1731655023.114791,762.3694312345328,803.593158836479,806.5423251118182,779.2128223498205
1731655023.1148274,762.4450357747896,803.4592906488846,805.5078829450534,787.956339051941
1731655023.1185915,792.3383939353299,803.3247229948182,804.1236476987079,814.1446384215895
1731655023.118693,831.7508788100354,803.1902853120337,802.9866724376335,840.7508793392867
1731655023.1225953,853.5701818767566,803.0561623324946,802.6645695844863,850.3906894054201
1731655023.1264193,844.7453393672126,802.9221450247262,803.4168058270067,838.6219251355111
1731655023.1264975,815.6633459539618,802.7879844556887,805.0061627380686,817.0068639875269
1731655023.1304,790.2869153889029,802.6535682947521,806.6769236878598,803.2372232755914
1731655023.1342072,785.4151294346426,802.5189106338388,807.4295692370215,806.3517979301942
1731655023.1343024,796.9193564852732,802.3840687594756,806.5876452427665,819.4957201783608
1731655023.1382046,804.8524732974971,802.249082475281,804.334930910389,826.4507662716054
1731655023.142107,792.6753924673413,802.113962735834,801.7544184548884,816.2738001084252
1731655023.145306,763.3453454405485,801.978707246628,800.2145857389155,793.2778950098881
1731655023.1460092,737.9053763067822,801.8433114461944,800.5045779755786,773.6716739124663
1731655023.149779,737.6645682805192,801.7077616365845,802.3662137345307,771.7566664023446
1731655023.1498232,765.2847206768367,801.5720228995685,804.7521813353706,787.4899017337333
1731655023.1499116,801.0953900952251,801.4360498367582,806.5710266613411,806.010690163782
1731655023.1538138,818.2795255051452,801.2998374758257,807.358071147952,809.7033560413631
1731655023.1577165,804.720308362992,801.1634863024193,807.4341903041717,792.873350800754
1731655023.1616185,773.2393186554378,801.0272001834885,807.5133664483253,766.7438498634453
1731655023.1641924,751.1136291874236,800.8911290871309,808.0910894809806,750.3672602171061
1731655023.1654391,757.1502672244344,800.7550800028254,809.0550231134171,754.8720420693337
1731655023.165521,785.6189435042287,800.6183428769095,809.7586275469358,774.2504060001434
1731655023.169423,811.007506546814,800.4800380290629,809.4561575137855,790.4893650324858
1731655023.1733255,809.8761512218779,800.3401718488211,807.7772642821375,788.7301926187688
1731655023.1772275,781.2504555321021,800.2008053480488,804.9607148925434,769.6966353093964
1731655023.1810548,748.0997560301555,800.0657862364817,801.7794179076466,749.0630035646452
1731655023.1811302,738.5735442334238,799.93752825593,799.265262137001,744.4653741713895
1731655023.1830788,762.6966928652529,799.8116024357204,798.3617445825225,760.9698595584566
1731655023.184731,803.7590585631325,799.6740994483577,799.5638974946424,786.7794178660388
1731655023.1850324,831.3897446421219,799.5092703660649,802.6070411562483,802.5527324604501
1731655023.1889348,825.7946410205237,799.3199638686486,806.3710083772642,796.9147447857101
1731655023.192837,793.6895798521138,799.148096851044,809.2011299405499,775.7780563006853
1731655023.1966708,762.908282247254,799.0653569914476,809.6395102127751,757.7346894721594
1731655023.1967394,759.7208447242167,799.1078946629954,807.2144085981859,758.8475329130825
1731655023.2006416,787.2360158757776,799.1748117860074,802.7858323469447,779.1770786763673
1731655023.201965,822.8099587504046,798.9874349237205,798.1859112931421,802.5067143552762
1731655023.204544,836.8002147428491,798.2413520332228,795.3430044086747,809.8991978429785
1731655023.2084465,817.1407596663424,796.9617339369993,795.3794199339305,795.8402966721267
1731655023.2122865,779.4089974395009,795.7923290305897,798.1407522534563,773.2974377910305
1731655023.2123487,754.3723999139117,795.8155326766818,802.3412436348375,763.3819182597022
1731655023.216251,763.6141611570025,797.8557410337168,806.1950470544031,778.2662372722323
1731655023.2196827,802.9900563939669,801.7830295420935,808.203551558336,811.3783689299596
1731655023.220153,846.4962696146229,806.4133370513974,807.7503897746049,842.5060661592956
1731655023.220852,866.5704866445328,810.0887857154971,805.284502437051,853.2461336611865
1731655023.2240555,854.4747747765277,811.5103586555998,802.046194244419,840.3580811481928
1731655023.2279024,825.1817649391745,810.3192046717418,799.4470822818573,816.8153800406477
1731655023.227958,803.6847920666607,807.1787961104709,798.3641238269397,800.340070131402
1731655023.2318602,804.1946849651703,803.3993367202953,798.7183784892474,799.0404284830815
1731655023.2357626,819.212213269722,800.3189601154929,799.6312873814653,805.8631929399296
1731655023.2396648,827.357013325118,798.7268101912064,800.1021540306253,806.1914411204419
1731655023.2397385,813.2018133164435,798.596698890688,799.7393206055659,791.9214057607371
1731655023.2435184,782.1449618004424,799.2610376542564,798.9870070690528,769.9063709671641
1731655023.2435672,757.4553493256819,799.9141508668936,798.6737471498533,757.4464237973926
1731655023.2474694,761.6370845050054,800.1334149500437,799.274519378543,768.4087173826432
1731655023.251372,797.3749296221087,800.098649469208,800.5222764069046,801.3138091386692
1731655023.2546344,843.7077435863511,800.389100314427,801.6788472316904,839.0583606215172
1731655023.255274,870.8535185598708,801.5069283217587,802.1633125737396,860.6250039223577
1731655023.258625,862.3834860709419,803.4448200293517,801.9266606886422,855.8332121816561
1731655023.259134,827.6228633804903,805.5887674097864,801.2659448450605,831.9828242974277
1731655023.2591765,794.4560467526273,807.0435684460493,800.367783679478,807.4738099674978
1731655023.2630787,787.7144434050823,807.1962040828693,799.1270582746621,797.3966934801699
1731655023.2669811,809.9004470817258,806.1448220576873,797.4433712844424,802.3630851004472
1731655023.270883,839.8296652910209,804.6595192760876,795.644885676431,809.496231506887
1731655023.27475,850.6934345220657,803.6436619439044,794.5230863721074,804.7695903052856
1731655023.2747858,832.8238076400329,803.4712665857403,794.8468907709303,786.304982541465
1731655023.2775116,802.0028761498519,803.7518516684138,796.7533584199072,767.1077049070964
1731655023.278688,786.066126957372,803.769197574941,799.5597378576781,764.5141011363316
1731655023.2825904,800.9374384296242,803.229977018564,802.180141114302,785.0191812881868
1731655023.2864926,836.268324015973,802.6156101945496,803.8112781883825,817.3187509598002
1731655023.289586,862.8933270912728,802.7661905524026,804.3462063320361,839.8040909152355
1731655023.290366,856.274721050553,804.0616946402145,804.2419697718328,836.9630704041274
1731655023.290395,816.9420956552003,805.9648659487289,804.034066556267,811.7510850811858
1731655023.2942972,771.1221985426954,807.353370146708,803.9365483864518,783.8128245295482
1731655023.2963982,750.503041387113,807.357558282615,803.8152045498175,774.3876333923071
1731655023.2981997,767.0788262010874,806.0184712080452,803.4622662071417,789.5269106678631
1731655023.302102,803.6137349452674,804.282780516988,802.8659690397071,815.2288538476453
1731655023.3059816,827.9817144232256,803.3806648393094,802.2344967009572,828.9141443504352
1731655023.3060043,819.8361490795093,804.0395433268698,801.8036836650633,818.1753387193688
1731655023.3099065,787.3786839458727,806.0467193159766,801.6543304218284,791.2838610848607
1731655023.313809,760.1560638373255,808.4233066479073,801.7005216648267,770.5693650298826
1731655023.3152847,764.1480184653141,810.0695476317684,801.8038836196339,774.1361624842353
1731655023.317711,800.2229187624562,810.4209474130764,801.8757138190182,801.0753578198888
1731655023.3215976,843.6670365594771,809.6614649737929,801.8994547512177,832.1810492655683
1731655023.3216136,864.5016987980505,808.4126675218279,801.8983998243071,845.2746575661121
1731655023.3245378,851.3788192726131,807.2427754077937,801.8979284217702,832.5461441574517
1731655023.3255155,819.6533005221161,806.4068200125575,801.9083006842118,806.0704183930886
1731655023.3294182,797.6860106047518,805.9052977943314,801.9268168951861,787.3961875822336
1731655023.3333204,803.1552313190689,805.6470749064825,801.9468785488588,789.9265941430431
1731655023.3341713,828.9534048094704,805.5364007649607,801.9643307333197,808.539249436807
1731655023.3372135,850.074646985587,805.492047798069,801.9786653790026,824.8551556581937
1731655023.3372228,845.4885259595159,805.4579283629515,801.991261266826,823.5330900079401
1731655023.341125,816.5563199893496,805.410182262894,802.0034492543232,805.6885725339692
1731655023.3450274,786.3812736824697,805.3492812860804,802.0157110209215,787.9573736070133
1731655023.3489296,780.4424147362112,805.2844209637442,802.0278655896128,788.0055097104597
1731655023.3528292,804.7154882012426,805.2223323449257,802.0395638443925,808.9621138841201
1731655023.352832,839.7954478847441,805.1643285846976,802.0506064304188,836.1636556994035
1731655023.353058,856.2532626277529,805.1085232689273,802.0609871006744,849.0019557709014
1731655023.3567345,838.7803103757067,805.052816301273,802.0707909654435,837.8703341175185
1731655023.3594894,799.2997073095063,804.9963215047839,802.0800939498735,812.085114076702
1731655023.3606365,768.1127048663107,804.93922510317,802.0889255903113,792.3437829118453
1731655023.364539,770.044025289103,804.8820558036223,802.0972822984705,794.0885787463711
1731655023.368441,804.9027101175282,804.8251572758976,802.1051540271209,815.5032152837995
1731655023.3684452,848.0310940557856,804.7685769889489,802.1125400314522,839.7880181057997
1731655023.3719444,869.9066052879662,804.7122033872448,802.1194500920897,849.2169493736216
1731655023.3723435,857.9462733591295,804.655924073515,802.1258987216294,838.5821581898942
1731655023.3762455,822.8379770670842,804.5996941773517,802.1318999717371,816.8898911008288
1731655023.3801482,786.521999812346,804.5435234011693,802.1374657393834,797.6731418678455
1731655023.3840504,764.8948813328767,804.4874362085058,802.1426066315576,788.43667102894
1731655023.384061,759.9777019265962,804.431445347386,802.1473333853669,788.057564411759
1731655023.3879528,764.335708790833,804.3755476527871,802.1516576353623,791.258640913778
1731655023.390831,769.7640750793969,804.3197320521442,802.1555919165122,793.7790906219733
1731655023.391855,772.3260791061649,804.263987818335,802.1591493323032,794.2963222307936
1731655023.3944411,772.2079104781571,804.2083077769236,802.1623432816549,793.5248411664171
1731655023.3957574,771.1958983303,804.1526873454375,802.165187376965,792.5914211719872
1731655023.3996596,770.6299753160104,804.0971223864194,802.1676954905809,792.0906022678154
1731655023.3996768,770.8151821945034,804.0416078972369,802.1698818223445,792.0150109257121
1731655023.403562,771.4193278909282,803.9861378834975,802.1717609287457,792.1027175269838
1731655023.4074645,772.0433682525037,803.9307058257501,802.1733477119568,792.1459870050167
1731655023.4097176,772.5087600945469,803.875305115171,802.174657392939,792.090251681496
1731655023.4113667,772.84333284949,803.8199292094032,802.1757054888524,791.9809885651295
1731655023.415269,773.1463115403066,803.7645715765722,802.176507800658,791.8783869349542
1731655023.4152927,773.4857041192657,803.7092255891771,802.177080406915,791.8114806593811
1731655023.419171,773.8737057301283,803.6538844687852,802.1774396579451,791.7778999844885
1731655023.4230735,774.2910015484111,803.5985412932731,802.1776021673428,791.7633857399579
1731655023.426976,774.7169011676339,803.5431890326781,802.1775848009999,791.7576044390563
1731655023.428604,775.1431502373039,803.4878205812793,802.1774046653688,791.7584914749099
1731655023.4293933,775.5720960978138,803.4324287743808,802.1770790966008,791.7689495565601
1731655023.4308782,776.0092744889674,803.3770063944038,802.1766256510659,791.7923240990114
1731655023.4309084,776.4582303350892,803.3215461749472,802.1760620960828,791.8301799923755
1731655023.4347806,776.9195349387309,803.2660408079074,802.1754063982106,791.8824566755709
1731655023.4386828,777.3922210066625,803.21048295417,802.1746767067463,791.9485485367211
1731655023.4425852,777.875360243614,803.1548652561489,802.173891333745,792.0281078977349
1731655023.4464874,778.3687163335694,803.0991803503011,802.1730687382403,792.1212268732443
1731655023.4465244,778.872592195253,803.0434208782358,802.1722275259207,792.228238418012
1731655023.4474907,779.3874261025352,802.9875794955674,802.1713864675845,792.3494778897834
1731655023.45039,779.9135323750205,802.9316488787997,802.1705645164789,792.4851767946659
1731655023.454292,780.4510670464997,802.8756217328242,802.1697807795837,792.6354802303442
1731655023.4581945,781.0001127650796,802.8194908037926,802.1690544049469,792.8005070240326
1731655023.4620967,781.5607619395431,802.7632489007206,802.1684044186296,792.9803901997694
1731655023.4621403,782.1331446659291,802.7068889211145,802.167849662268,793.1752817788825
1731655023.4643447,782.7174105626141,802.6504038638701,802.1674090359805,793.3853365753085
1731655023.4659991,783.3136987034155,802.5937868088575,802.1671020787272,793.6106964536889
1731655023.4663773,783.9221260922728,802.537030863532,802.1669494699628,793.8514895510153
1731655023.469901,784.5428083289971,802.4801291250892,802.1669725984673,794.1078470114167
1731655023.4738038,785.1759016321079,802.4230747482477,802.1671915669642,794.3799250563628
1731655023.477706,785.821626339397,802.3658611745034,802.1676224371406,794.6679062717359
1731655023.477756,786.4802173994659,802.308482417834,802.1682766909518,794.971954422894
1731655023.4816084,787.1517833316814,802.2509330802224,802.1691666095937,795.2921302167465
1731655023.4852638,787.8361604285127,802.1932077295703,802.1703165787582,795.6283396512547
1731655023.4855106,788.532967519315,802.1352997117722,802.1717717249136,795.9804324869529
1731655023.489413,789.2420459898498,802.0772003861608,802.1735877650212,796.3485056610706
1731655023.4933152,789.964155050529,802.0189004699865,802.175791881162,796.7332417015522
1731655023.493372,790.7012496199384,801.9603943474342,802.1783330367176,797.1358364066838
1731655023.4972177,791.4553832325048,801.9016850236367,802.1810799295095,797.5570760864609
1731655023.4992964,792.2260069653963,801.8427833891782,802.1839327256866,797.9957776155632
1731655023.50112,793.0074631036712,801.7836953280188,802.1870370576357,798.4480135744768
1731655023.5041504,793.7905750477612,801.7243992944899,802.1909248312817,798.9092900848593
1731655023.5050223,794.5714556869316,801.6648343226072,802.1962800387031,799.3804280174639
1731655023.5089245,795.3643047561627,801.6049297470098,802.2031725476951,799.8735104997791
1731655023.508988,796.2048828744912,801.5446887714996,802.2101679410856,800.4093385698002
1731655023.5128267,797.1272437406069,801.4842758415585,802.2144430069511,800.9988286186683
1731655023.516729,798.1120732986371,801.4239858623704,802.2140730902325,801.6140916924442
1731655023.5206316,799.0440665162546,801.3639832818972,802.2120475079182,802.1775477569576
1731655023.523037,799.7522796504769,801.3038850585301,802.2184690394868,802.6088197172792
1731655023.5245335,800.1848318958456,801.2425866681716,802.2453339166242,802.9378734981301
1731655023.5246036,800.642102344585,801.178906500746,802.2916467284396,803.4077775259649
1731655023.5284362,801.806682044677,801.1131975544032,802.327713261463,804.4038284856948
1731655023.5323384,804.2558851861193,801.0488667887437,802.300433354779,806.0814279014646
1731655023.534248,807.4758658002369,800.9914713198481,802.1800004779113,807.8330806174533
1731655023.5362408,809.1395006474032,800.943491977584,802.0357982316712,808.1529576796383
1731655023.540143,806.0172952828015,800.8966510194095,802.0722004096091,805.6141606658034
1731655023.5402195,797.2699552358932,800.8296940014344,802.5261375119413,800.985996052416
1731655023.5419235,788.2081409481791,800.7221396630138,803.4137899713877,798.8392557958342
1731655023.5440454,789.5461835086056,800.5852871478758,804.3249684114024,805.7265792670194
1731655023.5479476,809.0398625100626,800.4885912616958,804.5795055221215,824.1825726640922
1731655023.55185,841.2836009352268,800.5378218771841,803.7849843012823,847.4307029983014
1731655023.5557525,867.5571143131301,800.7755721828552,802.326318298488,861.9579507138417
1731655023.5558355,869.7590203016229,801.0542765581843,801.2066317147356,858.3102378082133
1731655023.5596547,847.1503789188733,801.0353447518312,801.2379851035051,840.8369192830276
1731655023.56081,819.719114846916,800.4374169947445,802.3031602321278,826.3125326664319
1731655023.563557,813.462731027078,799.4006843862693,803.4597455429553,831.1482017833152
1731655023.567459,839.2226714298423,798.5971199916389,803.8741506682403,857.5553412901908
1731655023.5691998,882.7791572558039,798.8536934372933,803.702307630302,890.5137631712414
1731655023.5713615,914.8747519113828,800.5015481879194,804.0059134493019,908.6101654952922
1731655023.5714512,913.6371316194115,802.971726396098,805.7135153249122,900.4392994115107
1731655023.575264,881.7007077549425,805.0234704884299,808.6001323973992,873.6296570454052
1731655023.5791662,844.217838355372,805.509130259222,811.2773610949581,849.2174941141988
1731655023.579697,829.0003529980052,804.1234729269215,812.235996505395,845.5370528720161
1731655023.5830686,844.5329976611553,801.5501509681803,811.0230558274649,864.1271294813301
1731655023.5869708,873.7335842810244,798.9040549751481,808.573849401717,888.7759932332152
1731655023.5870671,888.747327150819,796.990700394291,806.5158784200789,898.5705371216862
1731655023.5908732,874.6736157292945,796.0512574049214,806.0905353339415,884.6608206145129
1731655023.5947754,842.5140564484404,796.123179211792,807.5018120588389,857.4123486057175
1731655023.5985832,820.50067534137,797.4499186211184,810.0184265500974,838.2894342859121
1731655023.598678,830.905430395122,800.3055625179688,812.5595858310469,842.978596154944
1731655023.60258,871.3017590380747,804.3107096187646,814.2588035865632,869.0477371048806
1731655023.6026828,915.4150593465287,808.047898561907,814.6994780454244,897.6142573117994
1731655023.6041515,932.8582382097295,809.6606485477239,813.8738236431964,907.5065074294798
1731655023.6064825,912.1932964635778,808.1556909382489,812.0891927705908,890.9642085210405
1731655023.6103847,869.3063245503961,804.2993166607228,809.9236684193158,858.9889919278884
1731655023.6142871,834.6214434829038,800.221174639899,808.1227693560089,832.4715318608484
1731655023.6174698,829.3372001215406,797.9624237392092,807.3145141592632,826.1930789774281
1731655023.618189,849.6886775816342,798.1462474000214,807.6395170261412,838.3773565830554
1731655023.6182988,871.8336288146547,799.8180647855481,808.5942126308164,853.9670975422839
1731655023.6220918,873.0274653622841,801.4777032481186,809.306239858508,858.4510595763111
1731655023.625994,851.1909602663416,802.3709987439539,809.1257057704335,850.2498237447546
1731655023.6298964,826.430671858589,802.9980034783945,808.1281360005048,841.121979088738
1731655023.6337986,823.4633719901361,804.5080846150671,807.1556113481826,844.6289097656058
1731655023.6339147,849.9782038445849,807.5460959653709,807.3364391224588,863.0353982402597
1731655023.6363564,889.0806060921932,811.496710307231,809.353662858453,884.1213688982363
1731655023.637701,912.0028561045083,814.7016317895166,812.8765337783979,890.7021978496872
1731655023.6391034,900.7238342823317,815.4481727449044,816.5087897791249,874.9582580142481
1731655023.6416032,862.3524789467461,812.9899422900105,818.3792115079235,845.7102745745688
1731655023.6455057,823.7535721655399,807.9452080714409,817.1366386869234,822.3944862255519
1731655023.649408,810.5450062606077,801.9477157373574,812.7780327386804,820.1529642161313
1731655023.6495304,827.1765624894383,796.8921016209357,806.7347010176118,837.8316681837113
1731655023.6533103,854.2084759994093,794.2013248656804,801.0972007243769,858.7230003945135
1731655023.6552427,865.069556596478,794.3611074228396,797.4762434030962,863.7635082596197
1731655023.6572125,848.4596708725433,796.8116435145728,796.2629675524603,846.6604562588983
1731655023.6611147,817.708444084362,800.2366081946603,796.7347503909875,818.6710750487492
1731655023.6650171,799.2580167808048,803.1807740839702,797.818327803267,799.2055878160096
1731655023.6651464,810.008781527905,804.7082113066298,798.874236102892,800.0978294274003
1731655023.6689196,842.5886081011411,804.7118727091691,799.9273107941323,816.4482402680234
1731655023.6728218,870.7933148805065,803.7096952135893,801.2626626362129,831.2337151230902
1731655023.674055,870.5495279858869,802.35508034186,802.8385314578408,829.4699297540692
1731655023.6741295,839.1212435930903,801.067674609585,804.0994215347766,810.1985338500639
1731655023.6767242,797.0433092993746,799.9956138133856,804.3770991625883,786.7681841864807
1731655023.6806264,771.4381685821826,799.1866603016157,803.4866567526161,775.5346737471784
1731655023.6807623,774.3941429184,798.7073994331306,801.9148962265383,782.4080778739127
1731655023.6845288,794.0795015755607,798.5939232299579,800.3913569432056,798.3554932450648
1731655023.688431,805.8773110624309,798.7492577772304,799.2592981687377,807.5635290087923
1731655023.6923337,794.1076755450214,798.9751586169801,798.2850749605632,801.2402598590546
1731655023.693016,765.7437101968133,799.1707583750295,797.1025473578056,785.0431900758293
1731655023.6962357,744.2248567351692,799.5104263267184,795.8117707144393,773.5975542969197
1731655023.696378,748.6844760203655,800.3682242949445,795.0504334677463,777.0028621373525
1731655023.700138,776.613808923396,801.9675369866787,795.3881727068737,791.347079638059
1731655023.7040403,804.9701130466096,804.0217798227966,796.6357479452133,801.5976863427547
1731655023.7079427,808.8342250648255,805.7145338146929,797.8184679057007,794.3027446554407
1731655023.7090068,781.9399541303114,806.1418744062174,797.9287190211328,769.2060511325418
1731655023.7118447,742.1457063801944,804.9808847607097,796.7832980149864,740.1266967033661
1731655023.7119026,717.5430013772292,802.9292131136203,795.1757102813148,724.523558175268
1731655023.711994,724.4644049039961,801.5251777396832,794.1632013991176,730.141748473505
1731655023.7157474,754.8375591941868,802.2889175200567,794.1258094726054,749.1411034395447
1731655023.7196496,782.8493382371518,805.6037712049304,794.4428816840893,764.2005896404827
1731655023.723552,785.7130593014786,810.1183757855339,794.0870086169219,761.9580224443908
1731655023.7274542,762.0148947806692,813.3063132388559,792.636960015011,743.4483430218392
1731655023.72761,732.6960320715856,813.0366722232799,790.8506803652762,723.2903233447975
1731655023.7307892,723.6066950642104,809.1011436403621,790.295682473704,718.0546209285191
1731655023.7313566,743.8388780257515,803.4895756911529,792.2736824842389,732.9771468850282
1731655023.7352588,777.8258232761524,799.1288654146408,796.8059589079969,757.7613637623855
1731655023.7391613,797.8858993907716,798.0531217617169,802.4110729305655,774.938880392969
1731655023.7430634,786.8523961362351,800.382816027957,806.8763937462539,773.9193308026697
1731655023.7432256,752.1123275726213,804.6757776612899,808.560698365759,759.1533134856356
1731655023.7439585,719.6828723045547,809.0283251308385,807.3906781081856,745.8095907661965
1731655023.7469656,713.4087864529997,811.9255237069433,804.8805668849598,746.7799589646263
1731655023.7496758,736.2248650217656,812.4745042663969,803.1268832535799,761.9013383853078
1731655023.750868,768.4495205825334,810.4068815129141,803.4254396055318,778.3053833264357
1731655023.7547705,784.2974749029489,806.2484909957898,805.4609968870532,781.5597128233246
1731655023.7586727,773.136770648769,801.481714126879,807.6598449015481,768.2729174629384
1731655023.7588415,748.0120420216662,798.1971907867131,808.4355572947699,749.4512790480117
1731655023.762575,734.19764153079,798.0977740130381,807.333930470916,741.5008057132919
1731655023.766477,747.1767821600534,801.4027905278726,805.1727415670155,752.2502993710625
1731655023.7685623,778.6358018281187,806.5001826201058,803.1829532448478,773.8273353617005
1731655023.7703795,802.616070883503,810.7696635626771,802.0449416866566,788.647486860114
1731655023.774282,797.031282835094,812.1360718427829,801.6866159664038,783.8076206034652
1731655023.7744572,762.7369142643228,810.2939521827574,801.8336456907274,762.0873307755463
1731655023.7781842,724.2587899376276,806.7363911284986,802.5437546700307,740.4431935483545
1731655023.7789102,711.3264507108202,803.6356612244367,804.0959960195129,736.9893136275323
1731655023.7820866,735.8769926990423,802.4910587535189,806.4014233498328,756.7112703880875
1731655023.7859888,782.7120321038743,803.5121201624924,808.6530519683369,787.2366283169509
1731655023.787449,821.1003862308602,805.9487580942838,809.6914629227629,808.1530808324757
1731655023.7898912,828.1755850268212,808.7912412736221,808.8341635601904,806.7371076928171
1731655023.7900732,805.7924514403572,811.1801932323874,806.4513943709078,787.7491824878638
1731655023.7937934,777.7024766197827,812.4381181398894,803.7963146724186,769.3907412426875
1731655023.797696,769.5710856733778,812.1258554803379,802.2547308795124,768.4646069298665
1731655023.801598,788.1566257310545,810.3675358293049,802.6251358515582,786.6414145465275
1731655023.8055005,816.5640169464363,808.1187189397688,804.8881357015433,809.050003616977
1731655023.805689,829.1371780987522,806.8400695438435,808.4125014667303,816.3925276506203
1731655023.8063354,813.3512787215964,807.5477167706584,812.2420250436123,800.6835042010011
1731655023.8094027,780.5553045522273,809.9408979008272,815.2695887888744,771.8123769473353
1731655023.8133051,756.880088217494,812.4368929334088,816.418721297529,749.7029893066278
1731655023.8138618,761.8901335197384,813.2347478420174,814.9731224597717,748.511345890959
1731655023.817207,792.405535204277,811.6014569438538,810.921225992691,765.6499585819079
1731655023.8211098,824.7160503874686,808.3159138671587,805.0298748572336,784.4753779647583
1731655023.8213048,833.5882430286581,804.9198865541354,798.5679615613215,788.3758343062466
1731655023.825012,812.7373211157312,802.4866081170131,792.8966177806235,774.6321256337634
1731655023.825222,779.9116019394836,801.013806978516,789.1409168855226,756.519473459336
1731655023.8289144,762.1051693213657,799.8790071939837,787.9259175908018,751.8338232235703
1731655023.8328166,772.9516683290102,798.7392744617255,789.1167978552206,767.446338412642
1731655023.836719,801.2409509437475,797.9084447591732,791.7599289727452,792.9696040435787
1731655023.8369207,820.4187431461226,797.928608683668,794.5380469979901,809.0252782724976
1731655023.8406212,811.1913015822911,798.9546392520764,796.6488272835871,803.2886461693541
1731655023.8441086,778.1698266404239,800.673946204168,798.4264092451631,780.944624664729
1731655023.8445237,746.5483134505662,802.7492745459299,801.0108570688813,760.8873139304658
1731655023.848426,741.6165053223896,805.132726731987,805.1628232692415,760.7572182418731
1731655023.8488135,768.0618397935625,807.803668199324,810.2124066640946,782.8958178859775
1731655023.8523283,805.9415916179206,810.2436772966587,814.1795346722647,812.412903878413
1731655023.852537,826.4892663257136,811.3678746011628,815.1470355192996,828.8414087266918
1731655023.8562305,814.9309522469696,810.2124694158282,812.8265731868663,822.0866611632497
1731655023.8601327,781.9273642426886,806.8668262968067,808.9624236839855,799.9648404445951
1731655023.8629951,754.4645024344479,802.7629930434161,806.0918800667972,781.3329454763029
1731655023.8640351,753.7095270523466,799.894047244639,805.5617425260721,780.4973235607889
1731655023.8679376,778.0202339374114,799.4492928616725,806.4399596401004,795.7860217618385
1731655023.8681524,804.9620362072271,800.9293711584819,806.3313851621824,811.6748892381954
1731655023.8718398,810.3047708605959,802.497502497855,803.4996908315642,812.4031445322196
1731655023.8757422,788.0000636689564,802.3380659382465,798.4844686188454,795.3960297058924
1731655023.8796444,754.8630436278387,799.9621471547383,793.7822861502401,773.3053456592991
1731655023.8818817,736.8040890614045,796.4669123471408,791.8936332085725,763.3849912965225
1731655023.8835468,748.3541021437817,793.6542210610346,793.4911091266368,773.4234609287815
1731655023.8837657,781.7784732831772,792.8025850997361,797.2269325107424,795.7944592511294
1731655023.8837683,813.7102013394185,794.0033040932948,801.089452465832,814.0673348445621
1731655023.887449,823.4867986347825,796.3664813281085,803.9019074316825,816.4004188327668
1731655023.8913517,808.7122872063941,798.7397064428322,805.7144136960433,804.7464104884575
1731655023.8952537,785.9806763463365,800.3682681414687,807.0627208565874,792.4897339804554
1731655023.899156,776.3593875581954,801.1306338881806,808.0436064681502,792.5854904021318
1731655023.8993845,787.523447531099,801.3151997037578,808.0919176993133,806.1380349192251
1731655023.900768,807.4782463891308,801.1718966579404,806.5404739598874,821.1596572725813
1731655023.9030583,815.4060090665033,800.6018880126232,803.3483299510348,822.8399766367072
1731655023.9069607,800.6023188264602,799.2646158675685,799.3416664610343,806.8525582962477
1731655023.9108627,773.1626074745051,797.0593890870923,795.819375347389,784.3392149677546
1731655023.9147654,756.7550075930708,794.5622594038864,793.9090521367375,773.903577587172
1731655023.915,769.0514364313728,792.9194428515714,794.1607599897281,786.734277535033
1731655023.9186676,806.0866490612045,793.1080403853022,796.5209751072522,816.8409712532041
1731655023.9187171,843.8365009998072,795.0995664731641,800.4585864630924,844.5045653758442
1731655023.9196546,856.3212991353515,797.7012694078119,805.025982119121,850.6839093742251
1731655023.92257,836.0935026012729,799.3606018933693,808.9528130301468,831.4764838129912
1731655023.9264722,800.6705711307101,799.3555393828284,811.0121093314145,801.3548313508695
1731655023.9303746,779.1960105546393,798.3605018974466,810.6077525834893,782.2325272919383
1731655023.930616,789.3821046270332,797.8504867190917,808.144030271229,786.5115241661149
1731655023.9342768,823.1922990291978,798.816600836457,804.7876902017641,807.5156871445172
1731655023.9381793,853.2455031264233,800.8964017869623,801.7535843145544,825.2591720537204
1731655023.9385412,855.0589340952191,802.6663078501961,799.684083188732,823.0831194369291
1731655023.9420817,826.9623154811455,802.8122852004285,798.5747118174097,801.5660148839494
1731655023.945984,791.3727399456054,801.1471433679411,798.1723169041782,778.2711343384387
1731655023.9462316,776.6178644601844,798.6591373153881,798.3863274375816,773.642828471691
1731655023.949886,794.3162701974716,796.6933380795313,799.3362938422765,794.6596399682243
1731655023.9536688,830.381092395368,796.0624714358077,801.0516435433594,829.3063465588838
1731655023.9537885,856.2939221881016,796.7415186535295,803.1571619402303,855.843961622591
1731655023.9574275,851.3402587069153,798.1232552445468,804.8786576553414,859.1400246758192
1731655023.9576907,818.4190507383706,799.4043969984045,805.4240687701979,841.2618964575178
1731655023.9615932,781.3392684354368,799.8746512328578,804.4639054221271,818.5286648916924
1731655023.9618475,765.8509993945875,799.2208013306965,802.3161806860968,807.9385613710485
1731655023.965495,779.376153133565,797.8593629176294,799.6658340355741,814.0385822223059
1731655023.9693978,805.6939233878907,796.9370906560954,797.0668574147035,826.6540371787692
1731655023.9733,819.0294178816648,797.6819383321174,794.7002294751926,830.897628909087
1731655023.9763143,806.0169607778663,800.4353082446022,792.6148575509538,820.6913578663889
1731655023.9772024,777.16627881987,804.2221515131561,791.1562141560827,804.151968381271
1731655023.9774635,758.0501305928508,807.3670442914053,791.0392485124557,796.227125194278
1731655023.9811046,767.507017496772,808.695927885716,792.8590528115658,805.0086619298986
1731655023.985007,801.1824318872154,808.2989175928816,796.4292634566281,823.6842415313058
1731655023.9886203,834.3267818262981,807.2624073535554,800.5735962021677,835.3527948170562
1731655023.9889092,841.7142926179109,806.723205645339,803.6384554670307,826.9927398746943
1731655023.9928117,818.3044335283361,807.0995770683353,804.4052512101648,800.991827295443
1731655023.9930792,783.5619627454032,808.0256949263971,802.7770148420407,774.3918701302125
1731655023.9952009,765.6769962403727,808.8282585964062,799.7921642493361,765.9457111531524
1731655023.996714,778.4314292422201,809.0363167134892,796.9962724682969,781.1680246263894
1731655024.0006163,809.7486143909988,808.5970879734028,795.6285634797482,807.5802720292708
1731655024.0045185,831.6734290295952,807.8110767057553,796.1473072258989,824.3952100612362
1731655024.0084207,823.8395994143535,807.125341503323,798.2733345370954,819.0945140979478
1731655024.0086951,790.9621510371003,806.8681944928322,801.2939181428627,797.433063737756
1731655024.0123231,759.6122333406712,807.0148289551386,804.2915888376821,778.6384590832735
1731655024.0140874,756.817723206837,807.159131901063,806.2962518650118,779.7911242968961
1731655024.0162256,788.1354135117507,806.8045105918491,806.6128458451519,802.2070187504712
1731655024.0201278,833.0208884598665,805.8055629386351,805.3237551442352,830.722822745361
1731655024.0235722,860.9286213709825,804.5758950971525,803.488746983469,846.052168684194
1731655024.0240302,854.9324582808621,803.8252526901132,802.5848051963875,839.9408671909393
1731655024.0243113,824.0937622969996,804.0104833561948,803.4349965170032,821.0194780088644
1731655024.0279324,795.1795318830798,804.9706397836818,805.5404676603146,807.0698256934803
1731655024.0318348,790.840590895438,806.0747747780516,807.5037088304362,810.3440616182598
1731655024.032974,811.9789539626769,806.7523770267337,808.2162145827208,827.9128245150492
1731655024.035737,838.4228459582491,806.915484667006,807.7256638214266,844.6976749008713
1731655024.0396397,846.9823444830313,806.8785553032943,807.0269229531956,846.4503965098431
1731655024.0399268,831.5942082874133,806.8841769673477,807.0901265533927,831.8670612346665
1731655024.0435417,808.557037787856,806.7571693600092,808.1125687848788,813.8220349343056
1731655024.047444,802.4770666867148,806.0756496601321,809.6120987067652,808.7421263669113
1731655024.0513463,824.8679949543796,804.6846718475416,811.0671552940945,822.9326924619645
1731655024.0518606,863.4265017158975,803.0073391921605,812.3450532875265,847.0740711029952
1731655024.0552487,890.9043811091478,801.837142628398,813.5364882374442,863.295724523952
1731655024.0555427,886.3633884145493,801.8349236948428,814.5170328782941,859.094550299623
1731655024.058524,851.8439654226863,803.1901384107722,814.8278909564175,837.1213580088241
1731655024.0591507,811.3462724359416,805.6346185039888,814.0811867067753,813.2750364918746
1731655024.0630534,792.830264443619,808.6091973359113,812.4913858047152,804.5999971548775
1731655024.0669556,807.0660264903748,811.3455655506572,810.9363463332594,816.3037921621114
1731655024.0707471,839.8144994792584,812.9277604537406,810.3673753941316,837.9989621142223
1731655024.070858,863.6597798745042,812.5918810722587,811.0258801192873,852.2293316571419
1731655024.0711586,860.1933762710278,810.273131846002,812.1674908212422,848.5958218696296
1731655024.0747602,834.5907517079451,806.9453546625749,812.5896482480632,832.0790640229321
1731655024.0786626,810.5996373724589,804.2309481149719,811.5566661917595,818.6792005298549
1731655024.0825648,810.177440068778,803.3598702746133,809.3465839330552,821.9056058106169
1731655024.0864673,834.8468949096097,804.289823123227,806.950180909313,841.2998717473772
1731655024.0867743,864.2400774449069,805.8077407648685,805.1867642817118,862.4882529899165
1731655024.0896337,872.8136302838134,806.5621356551035,804.023197642861,868.6687315146457
1731655024.0903697,850.8460453322315,806.0861609147997,802.712956863601,854.0933608784092
1731655024.0934758,812.6661889148666,804.9149489627075,800.6421518499258,828.6287709739718
1731655024.094272,785.5244909386654,803.8327821995528,798.1255296877994,809.7755657966709
1731655024.098174,787.9913532797466,803.1098567069694,796.4109555137416,808.6490079085348
1731655024.1020763,815.2460812419845,802.4649349800338,796.811441376403,821.3798627949973
1731655024.1023903,843.3231774410925,801.6307970433713,799.6232375380732,833.0694681856222
1731655024.1059787,849.0068541349488,800.7860264242341,803.6934593471401,830.9872403306211
1731655024.1085205,828.8782403398019,800.3831791089171,807.0124200256795,815.7070315089485
1731655024.1098812,801.4268489360676,800.647875100507,807.924473627718,800.4573749001183
1731655024.1137834,790.4483957766616,801.3469059153421,806.0955520363661,799.1636238973796
1731655024.1176858,804.0940153081915,802.0266595761587,802.5841342159285,813.6632718230637
1731655024.118006,827.6894425633435,802.3899506236608,799.0389929545681,831.3886760935893
1731655024.121588,836.418791823003,802.4353552131832,796.6533453526716,835.6435334801346
1731655024.1254904,816.8801110368247,802.3310850454714,795.6086981133349,819.6893781182324
1731655024.1274068,779.2412522729429,802.2327979083065,795.3186926455132,792.7541399469532
1731655024.1284275,749.9137012284639,802.2002827614909,795.1730064831503,773.0302608639427
1731655024.1293926,750.7433411200774,802.2169679701752,795.1275009093625,773.4196865201562
1731655024.1332953,781.4958985460198,802.2445291924071,795.6552321517408,791.4784008725136
1731655024.133622,819.7649842063113,802.2594686621111,797.1456355271197,811.5694318780281
1731655024.1371973,838.6060882114488,802.2594162828586,799.3383046544374,817.5308243487904
1731655024.1410997,827.8220977049523,802.2525855484864,801.3443209066736,805.6709018946298
1731655024.145002,801.4595661581769,802.2466118222993,802.2637789054878,787.4278036137961
1731655024.1462934,785.1776750985305,802.2441105858207,801.8674522051455,779.4017376373619
1731655024.148904,794.0545534993128,802.2439031303106,800.7638137305671,789.0702310438246
1731655024.149238,819.6514015275908,802.2439136275598,799.9207255681026,808.2597442999378
1731655024.1528063,837.2954440998978,802.2429747934814,799.9369470026529,819.9054709064244
1731655024.1567087,827.271763211252,802.2410362213108,800.6422576926145,812.363988827351
1731655024.1606112,791.9390444659555,802.2385558404509,801.3242233939433,789.267323675968
1731655024.1633792,754.53942169912,802.2359204466374,801.3563312054239,766.8237494449836
1731655024.164513,740.9211816575394,802.2332410849574,800.6625779047007,760.9448786681146
1731655024.1648536,759.2328669829158,802.2304380937162,799.6183719700199,774.7409748138639
1731655024.16518,793.8549446933431,802.2273981526521,798.5450483102887,796.3792183130408
1731655024.1684158,818.2041279059632,802.2240637551938,797.378751562132,808.9128419011726
1731655024.172318,816.0733061409951,802.2204355070277,795.9234977392321,804.1725824983394
1731655024.1762204,794.3234302346214,802.2165322845813,794.452745143285,789.450127873159
1731655024.1801226,776.4539654048257,802.2123572943733,793.9621394856382,781.2736107281734
1731655024.1804695,782.1088403224545,802.2078937574718,795.6324230082795,791.0835074322872
1731655024.184025,809.5582978240924,802.2031290931994,799.8330968530751,814.6442474596261
1731655024.1840663,836.1459960317114,802.1980870395896,805.5174564695054,834.340607266318
1731655024.1879272,836.7232555665255,802.1928329368983,810.6055014095925,832.9261652312864
1731655024.1918297,804.8856943358741,802.1874199950106,813.160448553701,807.6695974798621
1731655024.195732,759.4577124834916,802.1817847115785,812.5354490999905,773.3767015286182
1731655024.1960857,730.8793632974387,802.1756779659725,809.6905741079613,751.7612542010778
1731655024.1983309,738.3100006483372,802.1687772688182,806.4881649855408,755.4885921508036
1731655024.1996343,775.2828490320385,802.1610548450741,804.4861049876001,779.210850024701
1731655024.202953,814.8299075520107,802.153204735995,804.0628559005921,804.3211151853071
1731655024.2035365,830.092923107114,802.1465865040096,804.4347786401224,813.6222972012959
1731655024.2074387,814.6260143751172,802.1421267520975,804.4744402856888,804.5139096154612
1731655024.2113411,786.5256745539455,802.1383932574978,803.667038640684,790.2855237329603
1731655024.2117012,772.8632429087756,802.1305439132866,802.4676630069542,788.3418090887626
1731655024.2152436,786.8303252416607,802.1128388938005,801.8178831933366,804.9094522927953
1731655024.2191458,816.536809565705,802.0857912076898,802.267059259835,829.0963232980512
1731655024.2218397,835.109738677719,802.0637153016494,803.4529809762674,841.5959100286548
1731655024.2230482,823.778856272686,802.0722328458993,804.3621260802356,830.8736090677533
1731655024.2269504,788.4213294779844,802.1260530824037,804.1130273435907,803.1727476912113
1731655024.227317,755.4782272494105,802.1932038846517,802.5883346681803,777.9054690453231
1731655024.2308528,750.577683353881,802.1798663167265,800.4284267333477,772.3079385035859
1731655024.2332826,777.6494087679405,801.9855876331798,798.4842507809011,788.01765067376
1731655024.234755,815.7553041585907,801.6431931271389,797.268803290303,810.3593010393838
1731655024.2386577,836.114766308368,801.4561285461991,796.8638196657963,820.6099422002142
1731655024.2407262,825.2263949173425,801.9417523283973,797.2318513810006,811.0828092390285
1731655024.2425597,795.088411019876,803.4412272259689,798.4522295233058,790.7621820907206
1731655024.242933,772.2526750230111,805.5828575821315,800.5020759523005,777.03466012653
1731655024.246462,775.0836002098434,807.1588097201968,802.7857045396782,780.5877288731451
1731655024.2503643,798.4888212663586,806.8385256191347,804.0582405143798,796.3380976836796
1731655024.2542667,818.9787144622619,804.3467899067972,803.1078733592602,808.1865547905073
1731655024.2581687,815.4657539359374,801.0519190856788,799.7418910989653,803.491931095578
1731655024.2585487,787.8349825262638,799.2265954618766,795.1570705857471,784.6904280454313
1731655024.2596128,757.5750108641007,800.3986925514204,791.2667294961908,767.9312449044871
1731655024.2620714,750.2298036337919,804.0990983750295,789.5351870069039,769.7389236285355
1731655024.2659736,774.4253878230571,808.0684581601637,790.2881171858626,792.8229942275524
1731655024.2682345,814.4974447820023,809.8070556027848,792.9144144298659,822.8506914794865
1731655024.269876,842.41913676407,808.2735401874916,796.5179661062086,839.0690702097436
1731655024.2737782,839.4796853162537,804.4674625075285,800.3355987722788,830.5048216280117
1731655024.274165,810.7108005856757,800.5699765176564,803.7457763180265,804.8708745753635
1731655024.2776806,780.7123864289725,798.4127047119065,806.226783047171,782.8552892035356
1731655024.2784994,773.9741235697381,798.4067599323482,807.5233864686468,781.9769386230862
1731655024.2815828,795.1692726337574,799.5504578724165,807.8096135345273,802.7253608025496
1731655024.2854853,825.3842646726137,800.321565711445,807.5598426324206,828.2508068071393
1731655024.2893877,837.7257292685388,799.7627785387953,807.2260387212484,838.1000285963833
1731655024.2897804,819.7886665525405,798.0702418151594,807.0270468669789,824.8974331633374
1731655024.29329,784.4262730115863,796.3609597407662,806.963925964703,800.2518435671295
1731655024.297192,759.746499933333,795.8236759578901,806.9496945997305,785.0774201020039
1731655024.297386,766.4622432784205,796.8779090122337,806.9159079195064,792.4696352320561
1731655024.3010943,801.0355860453125,798.9569969566533,806.8455188989186,817.2150549042277
1731655024.3031862,838.1170958457864,801.023726041066,806.7544438526693,840.2062382724328
1731655024.3049967,850.229504823486,802.324629405956,806.6628978861244,843.8264895702538
1731655024.3053963,829.1614764850478,802.7604742905401,806.580341144438,825.8495884489957
1731655024.3088992,792.3201829900606,802.6994605061809,806.505713034032,800.9372528201233
1731655024.3128014,768.982239625093,802.5616994017432,806.4341015160737,788.7430571291632
1731655024.3162725,777.1527809638606,802.5598101636251,806.3620144782798,798.1546947935806
1731655024.3167038,809.457085969395,802.6950051399022,806.28875756059,820.2396118309707
1731655024.320606,839.5743961618994,802.8803286505594,806.2152778337378,835.5528323121558
1731655024.3210125,844.0658899603711,803.0463867617528,806.1426408681705,829.9384791621089
1731655024.3245084,821.5914925947084,803.1750615080521,806.0713019540494,806.0685010346616
1731655024.3284106,793.6042623975504,803.2817168996279,806.0011742308894,781.4336496415742
1731655024.3323133,786.1785871912024,803.3865500022462,805.9319968510521,774.5119086325609
1731655024.3351593,808.3085560870247,803.4992311342693,805.8636017454459,790.2608556811409
1731655024.3362153,844.5027842723214,803.6188709267202,805.7959693501065,816.3126265679932
1731655024.336628,867.3329192517484,803.7406015341348,805.7291580901406,832.5534443464263
1731655024.338138,859.492376320869,803.8608904428175,805.6632241124731,826.433070310589
1731655024.3401177,827.711744429201,803.9789898180272,805.598189473061,802.2364883457772
1731655024.34402,797.4952614850879,804.095819347121,805.5340546389467,777.3466961762086
1731655024.3479223,792.718885951924,804.2124440696383,805.4708231803646,768.5456683202458
1731655024.3518243,816.3242028927323,804.329329450729,805.4085096529853,779.2380940577909
1731655024.352244,847.9629115353591,804.4463963009365,805.3471207019245,797.8666914340088
1731655024.3540456,860.9418618004427,804.5633852694622,805.2866244637349,808.642881888239
1731655024.355727,844.6346699051114,804.6801261103006,805.2269456107705,805.3185529195856
1731655024.3596292,813.4738352657545,804.7965965343758,805.1680240615381,796.1161822294465
1731655024.3635316,794.7344938585886,804.9128527919194,805.1099302821937,795.6655913554666
1731655024.3674338,805.4119401045855,805.0289493945063,805.0529410279265,811.1608037512005
1731655024.3678598,837.7994885330867,805.14490846819,804.9974126910699,834.9269067495137
1731655024.3713362,865.7585098284587,805.2607352480005,804.9433692351956,849.9456647481426
1731655024.3729322,866.0957083732729,805.3764446931941,804.8900263180043,843.7953673646651
1731655024.3730896,837.2055135219539,805.492064900705,804.8358591387056,819.429151961423
1731655024.3752384,799.9544106004629,805.6076048975556,804.7798365283049,793.7816959904848
1731655024.3791409,780.4881777878674,805.7230096166761,804.7235742972928,784.9618899485154
1731655024.3830433,789.1405602646713,805.8381591886058,804.6724976268991,798.0377280330416
1731655024.3834755,812.6654675014564,805.9529693685004,804.6330108046762,820.9307012096644
1731655024.3869455,826.1791063934429,806.0675751254264,804.6045003201177,834.1476618294956
1731655024.3908477,814.8682059976691,806.1824371751034,804.5709673081458,826.7528646526041
1731655024.3918188,787.0909832976542,806.2981140738382,804.5040372285266,805.431113659394
1731655024.39475,767.4986505898188,806.4145888686073,804.3882967673179,788.8889600273106
1731655024.3986523,775.7232908492344,806.530539456322,804.2624600247484,792.0697671333805
1731655024.3990915,808.5972979136469,806.6435390529997,804.2397227481116,813.3320485790266
1731655024.4025548,841.0790561371678,806.7521289730614,804.4568872488826,835.3242672157304
1731655024.4064567,845.5013841580064,806.8592338583175,804.952581618338,838.86020197134
1731655024.4080412,813.6497230972005,806.973735175696,805.5903324520615,818.406067316469
1731655024.4103594,763.9175058349468,807.1054721127045,806.1751424519381,786.6489719038894
1731655024.410705,727.7994140558177,807.2522171786508,806.703679799878,764.6083627707634
1731655024.4142616,726.3076969602433,807.3869106611714,807.4295453647686,765.3163182179453
1731655024.4147074,754.7148346029969,807.4640435208928,808.5414847027776,784.0660619371477
1731655024.418164,787.4555724285924,807.4612771293812,809.7293326217441,802.9056634579051
1731655024.4220662,799.1356417303634,807.4424361536275,810.1713545288331,805.6480680264584
1731655024.4259686,784.6907190100804,807.5783337958659,809.1208575901647,791.1133904946021
1731655024.429592,762.3184653338777,808.0382325598379,806.6259570242954,773.6501216592249
1731655024.4298708,756.9452109433446,808.7350820733916,803.6782579706045,770.5147750686001
1731655024.4303231,778.2608425329843,809.09157414742,801.5526499049009,786.830495719303
1731655024.4337733,811.9210436596755,808.151538562486,800.8519487902628,810.9621376263591
1731655024.4376757,831.3135578272294,805.2010734910618,801.0845374555555,824.2004847289533
1731655024.441578,819.9015964226526,800.5281450289336,801.1611675156489,816.3880108882908
1731655024.4429927,785.4144094024858,795.5826907550779,800.39200146989,794.2341213986125
1731655024.44548,754.1661483041155,792.2012788328249,799.1293099964538,775.573283292116
1731655024.4459393,750.218403422664,791.4417909563023,798.5125946115988,774.7093139315988
1731655024.4484785,776.2631091134266,792.9848521644475,799.5249706779,791.0599839461424
1731655024.4493823,811.5318158022494,795.5560793799816,802.1119072238644,810.1461646865921
1731655024.4532847,828.422824454647,797.9321137770503,805.0468902827951,815.7732445407937
1731655024.4571872,814.5950907530079,799.6623553115503,806.6603975147505,803.3681676514346
1731655024.4610894,782.686282505249,801.0002299575788,805.9112176687879,783.6695308793609
1731655024.4615548,759.6122144701036,802.2829311467159,803.0228555176665,773.7973770384322
1731655024.4649918,764.1653919239895,803.4287608529568,799.2407150433917,782.9894598414153
1731655024.467365,791.4998390393923,803.9942883281227,795.9641391323689,804.7139499642967
1731655024.468894,817.4290472937153,803.6346590014028,793.9898738088456,821.7266268453973
1731655024.4727964,818.8857538855643,802.4467792952228,793.4181207428039,820.0659858310568
1731655024.4766986,793.4503377725035,800.88009913997,794.0963013854737,800.6462294750066
1731655024.4771707,761.7567874146819,799.4034637321568,795.9921653880834,778.9968289353875
1731655024.4779446,750.7997776489055,798.3395270960269,799.0728353449483,773.2228262013455
1731655024.4806013,771.8047001482998,797.9846305377313,802.8808816187295,789.7253522524919
1731655024.4845033,810.7493036066135,798.7125111182447,806.3693039707059,818.0928396937504
1731655024.4862516,839.4325243453904,800.7617615021163,808.3088907686066,839.3399085010665
1731655024.4884057,838.2951267945981,803.8467207300804,808.0039327513167,840.9375468278135
1731655024.492308,812.3434791381692,807.0596971667868,805.7430873433769,826.3932382535418
1731655024.4927866,786.8212760108173,809.3110582903602,802.6363731025075,811.4310476839526
1731655024.4962103,785.9392758366791,810.0003400191363,799.9709203431776,809.9931551034391
1731655024.5001123,812.3182991298016,809.3424493901456,798.5236936353847,822.028787865862
1731655024.504015,844.4074121332947,808.0873487990888,798.2437261689627,833.590566581934
1731655024.5051382,854.0753600674433,806.9319830439157,798.4782696866009,829.1632701808779
1731655024.5079172,829.7645027087524,806.1535385986768,798.601670577178,805.6664753265726
1731655024.5084023,786.2820053411864,805.6947513816422,798.6153394760298,776.2525503935371
1731655024.5118196,753.5563883029781,805.4551943313613,799.2202011044927,760.6476438563341
1731655024.5128963,753.6103495218986,805.3865571781377,801.2088872957826,769.7883162602403
1731655024.5157218,783.9679612460717,805.2876131706149,804.6249378278663,796.9952729582161
1731655024.5196242,820.2608859909559,804.6026387952502,808.4438629783727,822.7178202535023
1731655024.5235264,835.6606828985582,802.5990946164922,811.1411834617849,829.2673835459536
1731655024.5240183,821.6774618517525,798.9389237632872,811.7137488654361,814.1059550525378
1731655024.5240247,793.897942293119,794.2031527021333,810.3005311772599,791.268501324719
1731655024.5274289,778.2831997387883,789.8350723995351,807.9444869263335,779.8067724979381
1731655024.5313313,789.3355295163302,787.3840282820242,805.8226621638885,788.5339246703534
1731655024.5352333,818.0815145242484,787.5444141295407,804.6424569496108,809.3600549055545
1731655024.5391357,839.7229301641881,789.7379148251323,804.5641873623645,824.4680977103621
1731655024.5396342,834.5095791020435,792.5848230026389,805.4280249604119,821.2433419448106
1731655024.5429113,804.4861321167485,794.8685589042145,806.8700545505274,802.6870821351207
1731655024.543038,772.2970530119206,796.2071668687348,808.2358498471513,784.9724451119297
1731655024.5469403,763.0189831239295,796.9730248848973,808.5981203641431,784.2696090641382
1731655024.5478482,783.77217621008,797.6949043228536,807.1609691015161,803.4341084901025
1731655024.5508423,817.6814420542694,798.5547836804764,803.8790998362235,829.2036648309997
1731655024.554745,837.3156412752053,799.3622703796849,799.7401676207326,842.358758177616
1731655024.55525,826.9844295169763,799.877111696776,796.3271463249847,833.0380927223624
1731655024.5586472,795.6996050470038,800.0778841063249,794.894795385374,808.9115984751854
1731655024.561798,769.758677677733,800.1353494580972,795.657452318684,789.1580866003895
1731655024.5625496,770.6363821082783,800.1994321196312,797.8235622539256,788.6740089852055
1731655024.5664518,796.550250078442,800.2827398760776,800.277151080022,805.4858465300478
1731655024.5703542,823.5529155636857,800.3815469849964,802.3011026372776,822.2618313909767
1731655024.570866,825.7105801479277,800.6908875349909,803.8053882953174,821.0916273889907
1731655024.5742564,797.5432761367199,801.6363124151453,805.0353707809758,799.1503698892485
1731655024.5781589,759.7259436556833,803.5971620051835,806.1608473382518,771.8202695633374
1731655024.5806842,743.0574195073787,806.4975185482708,807.1166875175386,760.4717136878052
1731655024.5820613,763.7581471102903,809.6126943291158,807.7211507217534,775.0817360897054
1731655024.5828,810.0941840145935,811.8130993979743,807.8533835701246,806.0235952200795
1731655024.5859635,850.9811833423647,812.134352961771,807.5217491436731,831.5942776202564
1731655024.5864818,859.705854539785,810.3005420535515,806.8301209887646,835.0334182468084
1731655024.5898657,834.0758431691945,806.8664850004354,805.9213790105425,817.3066794839651
1731655024.593768,797.1709216503344,802.9470610676605,804.9333007232877,795.4812258035728
1731655024.5976703,778.2728549348203,799.7731068451693,803.9657207529957,788.2177408716444
1731655024.5995708,789.5395992654601,798.304469299063,803.0713364728731,800.4464602218854
1731655024.6015728,817.4656424169916,798.9382591402592,802.2827243441081,819.9573666480585
1731655024.6020975,835.787591486926,801.2999578200888,801.6476264485553,828.5743286971998
1731655024.6054747,828.464371360307,804.2752110625232,801.2238378411353,818.1986040263714
1731655024.6093774,803.1552918757361,806.486328000548,801.0317193752073,797.9832168391682
1731655024.6132796,784.1957119606824,807.068501624213,801.0221024066705,786.6650826591112
1731655024.617182,791.6206541877654,806.1779187156326,801.1021620381333,796.7106175420995
1731655024.6177137,824.0701180478616,804.7635478733138,801.1915113804924,823.5438067298949
1731655024.6177516,859.4769825484212,803.7891665691573,801.254631422175,848.5828980187199
1731655024.6184573,872.6118496080419,803.6034350689093,801.2939952798043,853.5313876534645
1731655024.6210842,855.2351220908655,803.9355254374235,801.3257211785541,834.5930336840418
1731655024.6249866,822.7335265769086,804.333214768883,801.3613446385638,805.4624071223157
1731655024.6288888,801.7147405214109,804.5387159518244,801.4030952605239,786.6744973981869
1731655024.6327913,808.2413278253927,804.5511174025936,801.4477619544905,789.6601846451946
1731655024.6333294,834.4508183729786,804.4877305531365,801.4917801658445,808.2695679108741
1731655024.6366937,854.9963597909699,804.445738980873,801.5336480030982,824.5962415351437
1731655024.637344,848.3425911355347,804.453720265657,801.5736788469321,824.1576075111717
1731655024.640596,815.16850867511,804.4931597305338,801.6127618304115,807.7884489101292
1731655024.644498,778.3286244502309,804.5369542707224,801.651469768816,790.584981583119
1731655024.6484003,764.3475982652383,804.5712737407166,801.6898736340441,789.1358316804073
1731655024.648945,781.8475684513542,804.5966461305171,801.7277765825036,807.7083082396789
1731655024.6523027,814.5723724703793,804.6194465355464,801.764982073451,834.4607923633442
1731655024.6527033,834.4233730432071,804.6445832949697,801.8014091095857,850.4479994708485
1731655024.6562052,823.8209183608138,804.6732698946472,801.8370697637648,844.2077094084339
1731655024.6562304,789.6301629475715,804.7043754442178,801.8720015589465,820.6151853963329
1731655024.6601074,757.758621077445,804.7364696166328,801.9062226983327,797.1328031797974
1731655024.6640098,752.6430465772943,804.7688883775916,801.9397250948417,790.174294053021
1731655024.664561,777.7450809058995,804.8017129332418,801.972488007008,802.1064327544168
1731655024.667912,812.7089007636555,804.8352947061553,802.004492015645,819.384362319901
1731655024.6718144,829.8137467612868,804.8698819897675,802.0357244174879,823.8045531113653
1731655024.675117,816.6084070730104,804.90552358035,802.066177562913,808.0610350547865
1731655024.6757166,786.1007178647408,804.942151669732,802.0958452026932,782.6614076625327
1731655024.6796193,765.8335653759332,804.9796899900075,802.1247202646614,767.9344315552078
1731655024.6801767,774.7373833608111,805.0181052355163,802.1527946370189,777.280388956547
1731655024.6835213,806.977863462273,805.0574019699118,802.1800599521961,805.4744800107541
1731655024.6874237,836.2652647002278,805.0975964205161,802.2065083134733,831.9537886773006
1731655024.687655,837.1639829065455,805.1386975692626,802.232132545299,836.7098141461372
1731655024.691326,806.0102590248579,805.1807031925663,802.2569260846174,815.9960482597425
1731655024.6940036,764.3908770228097,805.2236047984638,802.2808827877615,785.1513929459819
