timestamps,eeg_1,eeg_2,eeg_3,eeg_4
1731655479.5604055,810.9926552648799,803.2082005161457,805.8876002829628,807.4273710650798
1731655479.575699,838.6291264011406,800.3468140479966,806.714736618793,826.1855825844054
1731655479.5793333,855.3463883764417,794.3564677649227,806.6690048895509,836.5762414290064
1731655479.5796015,856.2988349968131,785.3628184778255,805.6715970878903,835.5044009720754
1731655479.583504,845.6967264366895,777.139809549093,804.6230553058813,827.2910958643388
1731655479.5874064,834.2211015546562,774.2235283723597,804.7947230091316,820.8446325430522
1731655479.5913088,831.5938928039963,778.1654278495718,806.8458063481514,823.2074771096022
1731655479.5952115,839.6116755390765,786.127233601504,810.22895847272,834.2522366127516
1731655479.598261,851.7853318807705,793.01487307062,813.4913074168072,847.1857943586913
1731655479.599114,860.0720391158288,795.3192670711411,815.255289784267,854.6052692939551
1731655479.6030164,862.0326443074248,793.4556413137954,815.0883262266992,854.4750101122371
1731655479.6069188,861.2314838184919,790.8116430355282,813.5903920313267,850.468919472534
1731655479.6108212,861.1020542496077,790.5728108130965,811.7470835017652,846.9921274704269
1731655479.6147237,859.7602132215983,793.1505272412095,810.2204648940109,844.5742955571453
1731655479.6171892,852.0321002485667,796.2511818168346,809.1823763656159,840.365151420385
1731655479.618626,836.5756028710117,797.1821480379724,808.6559398765733,832.5407000487094
1731655479.6204338,819.8826082246567,795.1795051967129,808.8249333114658,823.3311450094652
1731655479.6225286,811.9385266738179,791.856008629351,809.9073266950277,817.3220820582599
1731655479.6264312,817.1380453519009,789.7078278441905,811.7464510559056,816.958623290839
1731655479.6303337,829.3924549753593,790.1532161609231,813.6086725157288,819.9806145181732
1731655479.634236,836.7409311384806,792.6350816863325,814.4717870820731,821.365513197195
1731655479.636,831.7588461301889,795.2451045955577,813.6312867356756,817.925429500946
1731655479.636117,818.3014112093841,796.2048552330267,811.2056214903492,811.2860609508475
1731655479.6381383,808.1035849586839,795.0905978066282,808.2160872651083,806.4568895485997
1731655479.642041,809.9397595554999,792.9946573649518,806.1643901345614,807.1110176318329
1731655479.6459434,821.1778863285465,791.6039644281548,806.2700878963262,811.7743022314583
1731655479.6498458,829.8225347180137,791.9596878611924,808.7286160930489,814.6556004737017
1731655479.651566,825.5254180982697,793.8657610703804,812.4341700919337,810.7987752861965
1731655479.6537485,809.3238500932234,796.3350960290064,815.441391035389,800.9670942638211
1731655479.6550448,792.7771242506128,798.5956527399409,816.0179494287399,791.4713506977165
1731655479.6576507,787.3301940317164,800.7781544205358,813.7047165143788,788.7925311808292
1731655479.6615534,794.2293067002072,803.7249362501293,809.6684514532487,794.0045099013397
1731655479.6654558,804.5799108198388,808.034098893268,805.9835009816915,802.3330591915151
1731655479.6671324,808.9587064609836,813.0280279374617,804.2008716851931,808.1261180039321
1731655479.6693585,806.6932159761927,816.543563989124,804.1955757963175,810.1438043427365
1731655479.6732607,805.6671349507963,816.0677872176936,804.2475342528461,811.8782646883869
1731655479.6739726,813.1926602695571,810.7400372557266,802.4436051112854,816.7533620953553
1731655479.6771631,827.348481187387,802.699377749784,798.384056870357,823.326660003815
1731655479.6810656,837.6823186921544,796.2922222461381,793.7995147528613,825.7502263657634
1731655479.6826985,835.0065502261209,795.2406960112155,791.4680537845315,819.5358083964941
1731655479.684968,821.0134333633791,799.8541819922526,793.1823833328697,807.1259493533421
1731655479.688871,808.1848660851225,806.7240341392269,798.3259093584388,797.3937325931994
1731655479.692773,809.3491191790922,811.3363844241566,804.184228940559,798.6707491023074
1731655479.6929004,826.0198451953985,811.3898067680623,807.769957897539,811.2082705752169
1731655479.6966755,846.1612837411051,807.9729349508266,807.749443160412,826.0328075879395
1731655479.6982646,853.7724383598404,803.8642251240714,805.0156041926332,831.7416076979742
1731655479.700578,842.2016490662589,800.9119061613864,801.6230656408419,823.7472145074656
1731655479.7044804,819.7913943703574,799.0177722620432,799.1809487982343,808.154261523835
1731655479.7083828,803.0941226437944,797.3241556139163,798.1137254936699,796.9175929776139
1731655479.7118285,803.5398346901067,795.9702718695339,798.1624437486158,798.3223326842216
1731655479.7122853,818.8566737955446,796.4421049403298,799.2010524240994,810.7464993350666
1731655479.7138307,836.1890689290046,800.1498576108921,801.2760608694431,824.711560133865
1731655479.7161877,843.6228466415965,806.6719868679004,803.8929572593195,831.0274044552808
1731655479.7200902,839.6968267632321,813.4426603385024,805.6537991323327,827.7991191699044
1731655479.7239928,832.7282682399443,817.3506404375137,805.0829017253521,820.5609432443664
1731655479.7278953,831.3143534349233,816.9818017840141,802.0875594997333,816.2073822493375
1731655479.7293968,835.4260437593568,813.5962720074613,798.5512329314479,816.7291019755236
1731655479.7307563,836.6373353437309,809.9768987825477,797.1881966510424,818.3622115472791
1731655479.7317977,827.1585684408327,808.1400310327892,799.4323890663295,816.4017432508443
1731655479.7357,808.9088586957809,807.8928049367919,804.1391364278147,810.7391465067118
1731655479.7396026,793.744988758722,807.4095436539109,808.2550939685037,806.7568020065173
1731655479.743505,794.0962350677934,805.1411988793202,808.9614799604748,810.6455329093058
1731655479.7449627,812.0113668066364,801.2461474732127,805.6207107456562,823.3427566148946
1731655479.747406,836.1883305103719,797.3611377239079,800.1101353493543,838.5839149209389
1731655479.7474074,849.868841176741,795.1668369761363,795.4456041910715,847.0364244301054
1731655479.749684,843.4822655490001,795.1831013520085,793.815009119949,843.2975195455701
1731655479.75131,821.9616557127204,796.7385701923322,795.3874000028111,830.055209610818
1731655479.7552123,800.7472125249484,798.8245851878862,798.5503911365797,815.9502766456104
1731655479.759115,793.4886855563257,800.868017380804,801.2101182577547,808.8405340956489
1731655479.7605293,801.3492804354951,802.8345110590008,802.1743612142022,810.0380270138646
1731655479.7630174,812.7792983651136,804.8671716975447,801.753748997643,814.3054500662453
1731655479.76692,814.0079468948194,806.9926051330305,801.3480296374947,815.4274601180983
1731655479.768612,801.3373740178192,809.1124794327417,802.4154444186963,812.2757321549071
1731655479.7708223,784.6491074803,811.0921346806978,805.4802028354344,809.8698603401575
1731655479.7747247,779.0143295976853,812.7489263436285,809.719674558761,814.4347851515068
1731655479.7760954,791.4802818765831,813.8112226613314,813.3629596959163,826.8565609660989
1731655479.7786272,814.219782598888,814.0156567210413,814.7183029874161,840.4756785195364
1731655479.782188,829.9355656204434,813.3012382084228,813.2316585355452,845.5347903286427
1731655479.7825296,825.32358630584,811.866125431262,809.8510489760912,836.9210328112558
1731655479.7864325,801.8095832203262,809.979081936703,806.3917006313586,818.8532681947905
1731655479.7875395,774.8665951198843,807.7524521114459,804.3593811117187,802.3857493439853
1731655479.7903347,762.2639051891653,805.186208750246,804.1295825618973,797.3419129401144
1731655479.7916615,770.4635385204689,802.5092806741975,805.0315666109519,804.9198847709664
1731655479.7942371,790.0042116671283,800.4541758308319,806.0678375510602,816.8602328955404
1731655479.7981396,803.6020201712773,800.047687241295,806.5367232362447,821.9269036986968
1731655479.802042,800.400395732724,801.9140699380565,806.1379628569216,814.691434908551
1731655479.8059444,784.7455968982272,805.6150697367598,804.7838234378265,799.8441146591574
1731655479.8064678,772.355840511786,809.6682748931511,802.5599256538376,788.7345961190101
1731655479.8072276,777.0849473424653,812.3912351750042,799.9025209099209,790.7099677822763
1731655479.8098469,799.0663435093634,812.9788784489139,797.6301916520018,805.6871791869212
1731655479.8137493,823.8147700629179,811.9148269667944,796.560988946631,823.6079419210557
1731655479.81697,833.1179506737298,810.3340540164363,796.9659170572671,831.5241649719566
1731655479.8176515,819.2433329876641,808.9248593729591,798.4072757162795,823.3102881758097
1731655479.8215544,791.2484909590256,807.4461127720787,800.1670613392932,804.5709640417255
1731655479.8227935,768.194549577424,805.3371860687145,801.8372432351387,788.5484492592541
1731655479.8253956,764.392730893207,802.7215628358366,803.4607170603467,785.8579926479416
1731655479.8254569,778.412484603904,800.6139452910586,805.1215232354344,796.1954969883936
1731655479.8293593,794.8680385318406,799.9814428476571,806.5120897247847,808.9454507606827
1731655479.8332615,797.687761344772,800.6367956324149,807.0320422716525,812.3301700364844
1731655479.8371642,783.9113563671681,801.2466782903022,806.3743391727058,803.4193445694144
1731655479.83836,766.3576989354643,800.5899840057598,805.007112369228,790.5015899807269
1731655479.8410666,762.7664339421272,798.826045786823,804.0356684997456,785.9169083579302
1731655479.8443234,780.4942455293184,797.4441892383086,804.4931075550309,795.6181445809026
1731655479.844969,809.66148578063,797.8610439665481,806.5795882384865,814.2848006883746
1731655479.8488717,830.5885288744315,799.9599370513145,809.3906785972454,829.8241007961957
1731655479.8517518,829.5193167324603,801.9470644775104,811.3431999582458,833.2013584336329
1731655479.852774,809.8191230335418,801.7397728876516,811.0893082331637,825.3897033182018
1731655479.8539262,789.4533082543129,798.7774799110946,808.3891078887874,815.900041403081
1731655479.8566766,786.5965807211151,794.7359992292293,804.3443000381955,814.3552584679074
1731655479.860579,804.89353461427,792.4386050807524,800.7377196769811,822.204893359519
1731655479.8632512,830.4163793501324,793.710265994015,798.8821741688802,831.4958635949778
1731655479.8644814,843.0507929815818,797.9032042371861,798.8462982419986,831.7913581331284
1731655479.868384,833.1627587520596,802.4103135305606,799.670615321579,819.5354128685229
1731655479.8694923,809.7745646797657,804.8126328427255,800.3361699497634,801.9641585845085
1731655479.8722863,793.3259583348324,804.7850292707207,800.596851868114,792.0146651915596
1731655479.8761888,798.9303005627319,804.0513386588267,800.9826691066863,798.1191232527189
1731655479.8800912,823.9553914062948,804.5226231766255,802.0981817045471,817.1366428288441
1731655479.882179,850.0200067220386,806.4626008149498,803.9432284436667,836.2661703065356
1731655479.883994,857.5222360215657,808.3669895114231,805.8416048446933,842.543253831664
1731655479.8850584,840.8412634846791,808.4793864730549,806.9324438670416,832.4073250576724
1731655479.8865335,812.2813925418916,806.3911970144765,806.7142647437943,813.8146258283599
1731655479.8878963,792.0831868022864,803.3548625065043,805.2067703178868,799.4333912287024
1731655479.8917987,792.7741830772126,801.2957625329271,802.7346244424663,796.6604423749448
1731655479.8957012,810.3018925853524,801.5506591504378,799.677891445088,802.6347569236281
1731655479.8996036,828.5777678305143,804.2669588372003,796.4664275888313,807.9768225634009
1731655479.9006245,832.8852976519696,808.5986058970508,793.7244554946515,805.3777581825401
1731655479.9011073,820.5096578209458,813.2411566432257,792.2161833072001,795.193350439111
1731655479.903506,800.342050626561,816.8694032190996,792.4282483493167,783.6362588605842
1731655479.9074085,783.7921511053744,818.3956911962356,794.1006996715358,776.5437523911221
1731655479.911311,776.4050393461291,817.1935892992072,796.247290453296,775.2172056657591
1731655479.9152136,776.5423273654081,813.3559011705281,797.8282211396447,777.2079699215581
1731655479.9161906,779.494187388001,807.8336450477352,798.552023086616,779.5174289856196
1731655479.919116,781.7110668314293,802.2077344953649,799.0290072885347,780.6786896636747
1731655479.920035,782.200509619264,798.044275254978,800.0594263344743,780.7841313997587
1731655479.9213154,781.6373956164417,796.1627414569418,801.7189826051274,780.5335009418795
1731655479.9230185,780.9746761790333,796.3288934349854,803.1745368033113,780.4486842515429
1731655479.926921,780.6838594998185,797.5950333396898,803.4726166968507,780.648444650352
1731655479.930823,780.7330723724128,798.9750975784852,802.5585257106541,781.0038473996575
1731655479.931757,780.8933630769783,799.9247180233173,801.5180929255858,781.3599539779256
1731655479.9347258,780.9938914165386,800.3899344270263,801.7678658258293,781.6473996289877
1731655479.9386282,780.9954347550383,800.5791545812116,803.8992035627663,781.8768971233145
1731655479.9389627,780.9397873594002,800.7163736231938,807.1501057829843,782.0868452981499
1731655479.9425306,780.8774048327385,800.915689384783,809.8814514345795,782.3035141045663
1731655479.9464333,780.8308988599643,801.1826494872364,810.6471767294676,782.531512170004
1731655479.947323,780.7967480562318,801.475933618625,809.125078950387,782.7632264508605
1731655479.9503355,780.7623651087376,801.7609652670807,806.3660173593036,782.9905182936911
1731655479.9542382,780.7191000065862,802.0280310296833,804.2212193950862,783.2100812655948
1731655479.9560974,780.6653715079237,802.2843023116974,804.2248391849581,783.422726899563
1731655479.9578905,780.603598769541,802.5397805865919,806.5547203217726,783.630506803278
1731655479.9581406,780.5363854512646,802.7994633705968,809.7693501238192,783.8347030594095
1731655479.962043,780.4647671553864,803.0630954278365,811.6174391902262,784.0354476769874
1731655479.9628892,780.3884412344096,803.32834108541,810.4756379437642,784.2322802186766
1731655479.9659455,780.3067051288489,803.5934465675753,806.4294617365468,784.4247602375402
1731655479.969848,780.2191120421004,803.8580201411183,801.1887103335196,784.6127201514374
1731655479.9737504,780.1255936452558,804.1225159634582,796.88593053195,784.7962047849912
1731655479.9768183,780.0262757978969,804.3874833829806,794.6765308035567,784.9753136159004
1731655479.9776528,779.9212793310838,804.6531846424159,794.1876628688768,785.150100860369
1731655479.9784553,779.8106452558474,804.9196099059326,794.1300403233115,785.3205658141491
1731655479.9815557,779.6943677695982,805.1866535334188,793.4526907180242,785.4866910440822
1731655479.985458,779.5724523570781,805.4542490130134,792.0884846741288,785.648476041295
1731655479.9893603,779.4449295651381,805.7224011881842,790.8070889458257,785.8059385332679
1731655479.9908793,779.3118073105554,805.9911542039214,790.4658508977757,785.9590864182597
1731655479.9932628,779.1730069909836,806.2605532991812,791.3708692724822,786.1078889249034
1731655479.9940214,779.0283745190541,806.5306305265908,793.2503031215764,786.252288891969
1731655479.9957464,778.8778407735416,806.8014113569023,795.7386502358048,786.3922821328088
1731655479.9971652,778.7216807824398,807.0729229863545,798.8047040844131,786.5280284037873
1731655480.0010676,778.5606170051074,807.3451883792444,802.635227315165,786.659871838212
1731655480.00497,778.395409331984,807.6182068495793,807.0484597734452,786.7881227019303
1731655480.0088725,778.2258503229459,807.8919430972012,811.0440614834287,786.9126035863951
1731655480.0095878,778.0498401858121,808.1663563795277,813.0793460976657,787.0323084793732
1731655480.0127752,777.8639927468196,808.4414793293129,812.0513619369979,787.1458199263443
1731655480.0146742,777.6669217570376,808.7174946798868,808.2587823783734,787.2528828011518
1731655480.0166776,777.4639848602159,808.9946937200077,803.4570521265229,787.3563806264656
1731655480.02058,777.2685220381125,809.2732197716106,799.7550448588025,787.4623752595425
1731655480.0244825,777.0931379305598,809.5526850483811,798.111155087901,787.5755832551827
1731655480.025154,776.9304938961359,809.8320504913247,797.70010296136,787.6908115755166
1731655480.0256612,776.737616974663,810.1102923095707,796.8278334245732,787.7874426184911
1731655480.0283847,776.4512021228153,810.3879297604531,794.7168170774604,787.8390313038014
1731655480.0322874,776.0527802666116,810.668335486072,792.5654362057533,787.8441118873611
1731655480.033602,775.6551782336614,810.9566348571129,792.7840072537997,787.8615735101858
1731655480.0361898,775.5128652863784,811.2545955058351,796.9222824485057,788.0052625013067
1731655480.0400922,775.8402914095949,811.5536152390466,804.0691229448962,788.3516408970015
1731655480.04072,776.4479398766294,811.8334738437168,811.1794123305797,788.7796190314668
1731655480.043995,776.4844235665952,812.0762927312944,815.1129887448036,788.8860865470334
1731655480.047897,774.8034999755997,812.2955321467248,814.7045229915057,788.2023917914315
1731655480.0517998,771.2615797230826,812.5576639868176,811.2486368241083,786.8025737589575
1731655480.0525298,768.3250321006865,812.9548163219577,807.2156336354346,785.9581581872174
1731655480.0557022,771.1575470516749,813.5016348977418,804.4300143896071,788.0088523503199
1731655480.056286,784.4199335427055,814.0012008796776,803.1554077061412,794.7798223737192
1731655480.0596046,806.9376260465104,814.0198319179777,802.5532324482141,805.2441604366966
1731655480.0604432,829.3478763973042,813.1086457771817,801.8175769984529,814.7594772376438
1731655480.0635073,839.1808058005364,811.2002664570365,800.9112949424227,817.7204152095728
1731655480.0674095,830.7977408169534,808.8432659902735,800.4042766534083,812.2597685535058
1731655480.071312,811.3943673645902,806.9884923240709,800.7910710744412,802.870302991572
1731655480.0714576,796.5999896022713,806.4400578984623,802.0235402459284,797.9387002500533
1731655480.0718522,798.3775442017791,807.3560515919697,803.6020756477808,803.5143001017985
1731655480.0752144,815.1628433483824,809.068052423024,804.9521946515082,818.1877813919335
1731655480.0791173,832.8174018342795,810.278805057876,805.6509112173218,833.494524528662
1731655480.0830195,836.0917014413621,809.6392890495537,805.4323007701397,840.0008219549405
1731655480.086922,821.3939113988648,806.5978247375243,804.2355739324842,834.530952468273
1731655480.0874183,800.2982162267109,802.0756674802799,802.4149920304071,822.7442341022877
1731655480.0903857,790.6703167685233,798.3026818094545,800.840818772734,814.7628002439588
1731655480.0908244,802.3713402161636,797.5669985725948,800.561207521127,817.1459290033318
1731655480.0947268,828.9295150058637,800.5763726986855,802.1190441141802,827.6143345796575
1731655480.095225,851.8787898004787,805.7101342385911,805.0547629061717,836.8565544374263
1731655480.0986292,854.5333226745207,809.9142686055784,808.0654952332128,836.0600167987179
1731655480.1025317,834.5806705611387,810.6844489893576,809.7694587172974,824.114798741069
1731655480.102985,805.7244115927788,807.6815557558198,809.540336454389,808.651492605066
1731655480.106434,787.0950345604704,802.8672766822536,807.8410448853546,800.1056525643155
1731655480.1093135,788.7592029743196,799.2406530000635,805.8781750239639,803.6934889203008
1731655480.1103368,804.7831237833267,799.1557502858456,804.874336557428,815.7783680425003
1731655480.1142392,819.2388484288634,803.1683421706421,805.4599443276829,827.332151061227
1731655480.1181417,819.9791732885834,809.7896670428064,807.4950443306875,831.325682256392
1731655480.1185508,808.6305985775339,816.10766712111,810.2534673984169,827.8649930614481
1731655480.122044,798.5580836567749,819.0774147021405,812.714852327329,823.0996342744028
1731655480.1259463,802.8087555508179,817.0446466632336,813.8566328318711,823.2612938640365
1731655480.1282413,822.4168942579344,810.7303544115058,813.0215251431628,829.072780931143
1731655480.129849,844.8957551832694,802.9432553269552,810.3150679667092,835.1577495699411
1731655480.130007,854.094355448234,797.0049234648139,806.7059724746326,834.7932762053073
1731655480.1337514,843.2942951704526,794.8444532583594,803.5493667980653,825.967351093303
1731655480.134117,820.864346075888,796.0823908828409,801.7590852431586,813.6115651962972
1731655480.1376538,803.7590630422327,798.7266263225492,801.2925355442687,805.8914613365438
1731655480.1415565,803.9496919042145,800.8416131635231,801.3946912812034,807.322382686275
1731655480.1454587,818.8211814003831,801.80983711541,801.3136203777236,814.4149152561247
1731655480.147169,833.6045111189062,802.2580829571697,800.7515562838064,817.9082385638275
1731655480.1493614,834.0141352533894,802.9562176560872,799.6942096955297,810.3521048804937
1731655480.149683,818.5649134585626,803.8710988761011,798.0380736800013,793.0579144010785
1731655480.1532638,800.1671222859404,804.2931789735311,795.6626114711411,776.4307284714229
1731655480.1571662,795.6376778071302,803.8450577445572,792.9598972561632,772.8278461214984
1731655480.161069,811.9125133184319,803.2801150065935,791.1020760970046,787.292449068809
1731655480.1647887,840.2892226269869,804.1216544325047,791.44164453339,813.5004776683263
1731655480.164971,863.1182914730338,807.2748405680715,794.3661360520463,838.1835017111645
1731655480.165249,867.219779589922,811.8077526820728,798.6570436891615,850.5058728323287
1731655480.1660967,853.2848850001043,815.1432680081427,802.0941357304762,849.0334766615298
1731655480.1688735,834.1414441535613,814.7771864961328,802.9494348527759,841.0882631061105
1731655480.172776,823.6748291072114,810.255978817005,801.1813061599665,835.5129520857892
1731655480.176679,825.4788779207987,803.7695446740837,798.3627508981308,835.0999991434018
1731655480.180581,830.4913666485481,798.7883031867817,796.4532776939208,834.9964884022014
1731655480.1808157,825.6424647400269,797.8002515109639,796.4607509390119,828.227740376655
1731655480.1844835,806.3750752294642,800.9019823111615,798.0107209838814,813.335102931526
1731655480.185025,782.3277978677005,806.1594688037478,799.961216474508,797.2332209891659
1731655480.188386,770.8872679006654,811.1478590681571,801.3567841671937,790.4684577577667
1731655480.1922884,783.4599423918625,814.3099863182299,801.9345496423689,798.6289755092046
1731655480.1961908,815.590217011175,815.269849423766,801.9805852308738,817.0752770051773
1731655480.1963816,849.102358783621,814.297343545864,801.908350919512,833.5693298564947
1731655480.199571,864.8373515710163,811.7088789465382,801.9888973462924,837.0284102062295
1731655480.2000933,856.2405414672457,807.7501552874785,802.3158107168872,825.7083003332324
1731655480.2039528,833.4600504350441,802.8925631640417,802.822029937706,808.4453262400715
1731655480.2039957,814.9078519786469,798.0999671792158,803.2606395067471,797.8596198064765
1731655480.2078984,812.856944960987,794.6971799443395,803.2971151479436,800.6901404671263
1731655480.2118008,824.3941913666944,793.8050932914663,802.8210463721152,812.8662888541365
1731655480.2119477,834.9668180136482,795.6501331468147,802.2324725641453,823.3002210726748
1731655480.2157032,831.5384313881135,799.2432960739857,802.2650394963417,823.269514903669
1731655480.2196057,814.2200948155493,802.7948748608339,803.2914827691154,813.5431577319486
1731655480.2228806,796.397362677021,804.7261105359972,804.7318160912845,803.3362821415041
1731655480.223508,793.2145316400637,804.5857506129018,805.3346288934039,802.19927872328
1731655480.2274106,808.3026591325538,803.1564055158108,804.3344558218381,811.8721954768033
1731655480.2275138,830.0921349525088,801.6943061640791,802.4693122396241,824.8788948925128
1731655480.231313,840.8358414461538,800.9754977602204,801.7126476740295,830.7433450033974
1731655480.2343526,830.819929519827,800.8905691363442,803.6716786564906,824.4645179104751
1731655480.2352154,806.0936554852628,800.7502641494191,807.9549517539451,810.3777504604988
1731655480.239118,783.5479683671034,799.9116624414138,812.0537580590278,798.5458703921943
1731655480.2418084,777.5135037861197,798.272586916603,813.0704327478624,796.785914507125
1731655480.2430203,788.7852194954437,796.411410260447,810.0162585209811,804.6794186188755
1731655480.24308,804.8288716205267,795.3027241455978,804.8274200953861,814.2000524069632
1731655480.246923,810.7575869083967,795.6572112228777,801.1993578359719,816.4090878707152
1731655480.2508254,801.8987877083337,797.2419435672572,802.0117415831915,808.9234894200046
1731655480.2547278,787.5137132925099,798.831655666447,807.1899726523823,798.1465907765144
1731655480.2586305,782.5824947722033,799.158871219328,813.5548614506697,794.27247906609
1731655480.258646,794.5204028079957,798.2884748827752,816.8183632865337,802.8624743737921
1731655480.2607362,815.9722302178233,798.0955444030101,814.405286451943,819.731559402654
1731655480.2625327,829.8997756799645,800.992130825394,807.2267264268515,833.4494909672718
1731655480.2664351,823.1513757280425,807.6311914170609,799.2304691466917,833.7719532340283
1731655480.2691343,797.7075208245762,815.5763612402222,795.0053533764342,819.5268875497698
1731655480.2703376,770.3512942749401,820.4292098524443,796.9703781129324,799.747301543333
1731655480.2742124,760.4559943130366,818.828829318802,803.9357465148431,787.0530712553946
1731655480.2742405,775.0863396018642,810.9494692861236,811.9183048232059,788.3848721620334
1731655480.2781427,803.1977959468146,800.4129050991136,816.6246103573794,800.3121439295822
1731655480.2796645,823.9509342107797,791.7440808108722,815.9688730027938,812.498657226501
1731655480.2820451,822.9370540094747,787.5680474534757,811.0630695277843,816.3639891503832
1731655480.2859476,803.3795747641116,787.7395091530043,805.2009182439468,811.7986652495081
1731655480.2897785,783.059409667695,790.6350295473316,801.6617223003179,806.4519352240998
1731655480.28985,779.332967541636,794.9219068235192,801.8107274117889,808.3690996601532
1731655480.2937524,794.6248039272111,800.0653938467838,804.6229475675161,818.4189517008355
1731655480.2976549,814.4897269024108,805.4861166222748,807.7399777804217,829.1176300974437
1731655480.298592,819.8024176040987,809.7779425650948,809.1895883768524,830.8957875056803
1731655480.3015573,802.8752250535908,811.205134702216,808.5695678393773,820.4261424770428
1731655480.3039165,774.2436902575105,809.1602007124728,806.9870704821385,803.9102523414228
1731655480.3053446,754.6636548537718,805.0974433395825,805.9765298977406,792.5214102842997
1731655480.30546,758.7790072249902,801.8569275502017,806.3149440778641,793.689154341709
1731655480.3093624,783.4809420991658,801.7727555120051,807.6118149405658,805.2474543817048
1731655480.3132648,810.2777758319329,805.0349367071208,808.8391903537342,817.1330623874053
1731655480.3171673,819.9018481788746,809.5330920987888,809.1950157585159,819.3031955999732
1731655480.31752,807.5002893571763,812.2436108248338,808.5242918010352,809.6324537640152
1731655480.3209107,786.1406761633523,811.1739663313843,807.0724732303253,795.5938046441275
1731655480.3210697,775.8209154844067,806.6115357256433,805.03607380038,788.4115202168455
1731655480.3249722,787.0251892525415,800.9199297385172,802.4962453855551,794.2151010133753
1731655480.3288746,812.2269533994233,797.0273912965595,799.7795317699506,809.0487912494824
1731655480.332777,832.0485145244061,796.6000306040837,797.7169098596199,821.6914164262251
1731655480.3364477,830.8160158490526,799.1540825106267,797.32608285671,822.284582323532
1731655480.3364768,808.9350804667362,802.7042701967481,799.0786348968292,810.2000802539468
1731655480.3366797,782.46535070437,805.3256736241136,802.4358475529773,794.9208418967054
1731655480.3386984,770.5548974808669,806.2986529660229,806.1537370008523,788.9075829496142
1731655480.340582,780.7053121184914,806.0772773043636,809.1198775786999,797.7289344491878
1731655480.3444846,803.2894136514742,805.4997855043484,810.9443694220427,815.2782895167549
1731655480.348387,819.5164816736625,805.1152654046818,811.7792132516579,828.2702811734589
1731655480.3520432,816.5511008558036,805.028020235901,811.6725119714249,826.7523492408648
1731655480.3522894,797.7196632910402,805.0933455629573,810.2918611561876,812.096071262086
1731655480.3553755,779.4883768264339,805.1523118813453,807.4287202825515,795.7158455375377
1731655480.356192,777.5827571533158,805.1399575707968,803.7184288705648,789.5061561310935
1731655480.3600943,793.6606715151496,805.0725553343626,800.6033264630548,796.0432609409486
1731655480.3639967,813.6720511223423,804.9912112587292,799.3049246675541,806.7365677857943
1731655480.3676093,819.3983606886545,804.922050573243,799.7024689816975,809.2882045080122
1731655480.3678994,803.659258535795,804.868447318478,800.2559727714602,798.0579750737916
1731655480.371802,776.6212002404275,804.8218945507598,799.1603648396863,778.7978392505566
1731655480.3734803,758.0663131036583,804.7740986109482,795.7933479650297,764.1615492444062
1731655480.3743036,761.9776640089908,804.7220439408004,791.3239414061813,763.9255653034704
1731655480.3757043,785.8380472344548,804.6668722050778,788.0915204677576,777.7938560194298
1731655480.3796067,813.0291852370381,804.6108030480634,788.2282863288085,796.2172227656051
1731655480.3831754,826.1964042704981,804.5551370082171,792.3679130216428,808.1653981500094
1731655480.3835092,820.7477611219508,804.4999713869777,799.1512416055724,809.4146116052882
1731655480.3874116,807.5838450618262,804.444830173982,805.824919146553,804.7591222787291
1731655480.391314,802.9361619965558,804.3892938107159,809.6723354093907,802.7083852143103
1731655480.3932314,813.9205341405805,804.3332358324427,809.4962716634244,807.518254100371
1731655480.3952165,832.1113289533124,804.2767422150913,806.2100195991477,815.5128255429847
1731655480.3987415,840.6908224450659,804.2199428310909,802.0759026424937,818.7208565322966
1731655480.399119,829.1208381748762,804.1629079339084,799.1375914333187,812.3760083798593
1731655480.4030216,802.8206060608458,804.1056370026135,798.0940338302138,799.5858030627248
1731655480.406924,779.5794395352704,804.0480995674056,798.3836992705438,789.1659637407632
1731655480.4082625,775.6241923790238,803.9902834370811,799.0569976787962,788.5880288103809
1731655480.4108264,792.8101486502964,803.932223397751,799.5065576208373,797.9511707385426
1731655480.4121592,817.3300722878196,803.8739928912485,799.6241975937712,809.8328190936919
1731655480.4143076,830.8811033395397,803.8156476695588,799.574985498278,815.0950070774269
1731655480.4147289,825.1947468331946,803.7571390060808,799.5354025783419,810.0889341940467
1731655480.4186313,808.1263980736663,803.6982705528011,799.5756234995068,799.55649459484
1731655480.4225338,796.3178488934124,803.638810302946,799.675976847868,792.7359953535959
1731655480.4264362,800.5773387827145,803.5787982970239,799.7903656719405,795.5932347791686
1731655480.4298737,816.4265014725111,803.5188644500859,799.8901059787994,805.560522189557
1731655480.4303386,828.0048327550123,803.4601105375177,799.9719113861139,813.4482537189405
1731655480.431087,822.0189088665257,803.4031509792565,800.0454631403451,811.2330220667965
1731655480.4342413,799.7404699988867,803.3465908154545,800.119967303557,799.2289866066579
1731655480.4381435,776.825152600731,803.286406240555,800.1986745486931,786.4389599531518
1731655480.4420462,771.1184618448742,803.2183251822248,800.2802461788126,783.56348078122
1731655480.443044,788.4624569279366,803.1437273978149,800.3622091220542,794.3132678145207
1731655480.44544,817.8145459557654,803.0751577385523,800.443149974685,812.1029217341469
1731655480.4459486,839.3607249121491,803.0329302494397,800.5229961320574,824.8543287088863
1731655480.449851,839.2468745569358,803.025957707637,800.6022990395701,824.167397672792
1731655480.4500148,819.661960702486,803.0237991195638,800.6815363771638,811.6520018173131
1731655480.4537537,796.6241310830842,802.949063863562,800.7608583986864,797.4261146053581
1731655480.457656,787.2193054557678,802.7286921977108,800.8401836741907,791.9949326351241
1731655480.4610062,796.3013533778551,802.4091254634641,800.9193851900402,798.0737644217392
1731655480.4615583,813.273191103544,802.2571808824006,800.9983990041792,808.9848095862618
1731655480.465461,821.5522141781686,802.6948244349979,801.0772317206483,814.8058199051145
1731655480.4689429,812.83914965741,803.984768650479,801.1559198018506,810.9755421535646
1731655480.4693637,794.1651496913925,805.8620621884621,801.2344936004207,802.0840499271369
1731655480.473266,781.7204344652434,807.5347646803203,801.3129658914382,797.7388532569126
1731655480.4765725,786.7024284377233,808.2283139030031,801.3913380979895,804.0467469635795
1731655480.4771683,805.2180722865263,807.8532349766397,801.4696102276758,817.8089586819784
1731655480.477826,820.8586889570138,807.1669386671566,801.5477861900882,828.28139503806
1731655480.4810708,817.973069635268,807.2739799427904,801.6258738009409,825.3273934382561
1731655480.4849732,794.7792805532156,808.8847930985555,801.7038824969409,807.7026292179945
1731655480.4878707,765.4504285428009,811.8268368594916,801.7818214960262,784.8665332501831
1731655480.4888756,749.137091076498,814.9824550457753,801.8596993020158,770.4811064677751
1731655480.4921384,754.5910720989144,816.613934370918,801.9375240930185,772.2785921954537
1731655480.492778,773.0375522624622,815.0672195906789,802.0153042254161,786.2438827617507
1731655480.4966805,785.561944656087,809.7661046024112,802.093048433389,800.0401624581123
1731655480.5005832,779.2398624177573,802.021446243457,802.1707657422094,803.1695624107326
1731655480.5044856,758.545819000824,794.9161056616318,802.2484653386658,795.529460788959
1731655480.5067985,742.1972686869196,791.9392944316902,802.3261566160558,787.1055759377349
1731655480.5077045,747.762884110682,794.9773415838736,802.4038494071515,788.9892263724269
1731655480.508388,776.6385512507825,802.913496323824,802.48155414736,803.3349990858361
1731655480.5122905,811.7009568023645,811.8668983440368,802.5592815595606,820.811534350556
1731655480.5126078,829.6731864031298,817.159004186509,802.6370416843092,827.7980364276095
1731655480.516193,818.5708958347681,816.005121220885,802.7148428215177,817.425917379362
1731655480.520095,786.6745611877008,809.2928311098171,802.792691815188,795.3235472547891
1731655480.5232708,756.1307893852334,801.1408405652828,802.8705970372697,775.2697830667526
1731655480.5239978,746.278103123191,796.3218390795789,802.948573290006,768.3652480653092
1731655480.5257263,759.7614535483405,797.2653137158666,803.0266440215515,774.7727686677113
1731655480.5279002,782.1287873856571,802.8191423179518,803.1048340512382,784.8391427958369
1731655480.531803,794.7368610515595,809.5832988525669,803.1831507756128,788.3035051248495
1731655480.535705,790.1684846308851,814.5124534436305,803.2615658814157,783.376726265419
1731655480.538837,777.6113604163996,816.5849973313517,803.3400248069391,777.8552263924206
1731655480.5396078,774.1471450800858,816.4755765540036,803.4185069910661,781.6558159910848
1731655480.5435102,789.5332229644945,815.1034064715847,803.4971166814329,797.5933550756386
1731655480.544654,817.2250946082014,812.7139348648726,803.57611281573,818.3449330119059
1731655480.5473895,839.0688872245906,809.2126887659344,803.6557537000806,831.8931102725586
1731655480.5474126,839.8770381689914,805.0256501000334,803.7359365801861,830.7039928590322
1731655480.5513153,820.01612290661,801.3211146108588,803.8158839593401,817.2627804600544
1731655480.5544033,795.5482108817855,799.2543870681864,803.8943946518633,801.8456663536623
1731655480.5552175,785.4339542291802,798.9791006227741,803.9710437286203,794.5109949591434
1731655480.55912,796.0929597429013,799.4228261404918,804.0478456813188,797.605255570464
1731655480.5630226,816.2446614323736,799.109542134451,804.1295774028836,804.5514159471672
1731655480.5635822,826.6294407559392,797.3810156410785,804.2205132472512,805.7579238618036
1731655480.566925,816.5781551149017,795.0377076795862,804.3175576216848,796.8853494242702
1731655480.5699692,793.4010692172999,793.8777398919723,804.4049755450176,782.8268954032054
1731655480.5708275,776.6182607015975,795.4349812352154,804.4604891904196,774.1571604111443
1731655480.57473,781.8937490518014,799.8068458785086,804.478918730104,778.8034975039734
1731655480.5786324,808.0242267511811,805.4266305979473,804.5021616639706,795.5087306146581
1731655480.5821717,837.5082569794428,809.9787711794546,804.61999235863,814.2773851150204
1731655480.58251,850.0227629098296,811.8231131492907,804.9007479404065,823.5692886676961
1731655480.5825348,838.0199064976374,810.9217280453031,805.2563819481085,818.7721139281869
1731655480.5855353,812.3159233412741,808.6566356150909,805.3409275772786,805.437801176565
1731655480.5864372,793.4336026621722,806.7637814581824,804.643328652341,794.7238928577243
1731655480.5903397,795.4602833235423,806.2133989974388,802.8312469451487,794.5452673644654
1731655480.5942423,815.1262629524506,806.8036377277484,800.1323698788611,803.454953820358
1731655480.5981448,834.9094869363169,807.6242074213337,797.3804576475809,812.2177970374898
1731655480.6011014,837.7453558398745,807.9035612389042,795.5809044178482,811.7886896865186
1731655480.6014378,821.2624191884119,807.5551247381968,795.3052810200094,801.0873598758008
1731655480.6020472,799.7168360947234,807.0787727177332,796.4311771528703,788.1569091555422
1731655480.6059496,792.0761275874036,807.0238557249131,798.4645829255398,783.8437484230308
1731655480.609852,806.2812197703079,807.516678855322,801.1458866638046,793.2600912033539
1731655480.6137545,832.7021045113114,808.1964804892474,804.7175149009757,811.881188757772
1731655480.6166675,851.9026299952311,808.5086188030442,809.4719849655795,829.124139602545
1731655480.6169536,850.0603212627535,808.0649101332035,814.9023993934022,836.2531895367712
1731655480.6176567,829.5308626731334,806.8549687094608,819.3343666449867,832.3554369959662
1731655480.6203656,806.3590219598997,805.2858572879654,820.6903631149029,824.0375762503569
1731655480.6215594,797.0453683537279,804.0930691128981,818.0466767395178,819.4989707718518
1731655480.6254618,805.321821280103,804.0978720629746,812.727946748988,821.8480181266934
1731655480.6293645,819.6800027157875,805.7693772445117,807.8032478509208,826.956601243886
1731655480.632234,823.7451278482752,808.7071778825574,806.0944153212083,827.4965716494863
1731655480.6332667,810.8597481830658,811.402782571301,808.1488627954003,819.7450776988427
1731655480.6371694,790.3763922936381,811.6999870416889,811.8012175696481,807.3308729941957
1731655480.6392934,779.9742238897978,808.0137601758498,813.7127415834872,798.5669432956121
1731655480.6410718,790.3310045954415,800.682073925222,811.7093253467848,799.4998952919219
1731655480.6449742,815.2295021293361,792.3866784246906,806.1918036021287,808.6056848095326
1731655480.6478,835.6862119796981,786.9997371048395,799.7346033420318,817.8164524056077
1731655480.648877,834.8995694089166,787.3919898724756,795.3765398116758,819.2606878844313
1731655480.6517355,811.813117154358,793.6966800218037,794.8912631279157,812.1538836298337
1731655480.652779,782.245441073999,803.2888380644524,798.0639817583432,803.8467035077416
1731655480.6566815,766.6554876962873,812.4170932348167,803.1447524313322,803.7092906013162
1731655480.6582215,774.3929086978889,818.1968057138813,807.9319704960033,814.7015807509287
1731655480.6605842,797.0961398926235,819.6234261829294,810.7605381165963,829.9418639341378
1731655480.663366,816.4517088895037,817.2979531973407,810.9567907137575,837.779835751559
1731655480.6644866,819.7153333431297,812.5758529047313,808.7619570229334,831.5597359620175
1731655480.668389,809.911816468975,806.9570195753453,805.0085722883888,815.7437905487716
1731655480.6722915,802.1501568579471,801.8890154249157,800.8183004866657,802.7706076588281
1731655480.676194,809.4384045237057,798.620875085628,797.3717881056214,802.9655835941355
1731655480.6771493,830.4476011380488,797.8472709606993,795.6354152220089,815.9458909819635
1731655480.6789322,849.8820171388718,799.3406452274834,795.9987530966698,830.7231055293772
1731655480.6800964,851.1842853244987,801.9772459089627,798.0018354068687,834.3579344473634
1731655480.6839988,830.8725071998326,804.2961215711899,800.4348728946816,822.1136528039785
1731655480.6865177,802.5281339311829,805.2775151770363,801.8900168594929,801.1504754419481
1731655480.6879013,786.9169684972386,804.8119775488732,801.4796302001193,785.0761020287233
1731655480.691804,795.8499315084769,803.5335455146338,799.2694859920724,783.6794005457797
1731655480.6944983,822.4909486675705,802.1594138812026,796.1926473095781,795.7109644902664
1731655480.6957064,846.0350535835556,800.8739612682606,793.5893536533416,810.1795652409438
1731655480.696077,847.580908847383,799.3024138422116,792.6861295348475,815.0896407621346
1731655480.6996088,825.0276376251206,797.1606297655871,794.19743304415,806.7448260092347
1731655480.7035112,795.1010553214422,795.0266229222733,798.0630716235542,792.2777245387045
1731655480.7074137,780.4479800634784,794.4051591623495,803.3450733119096,783.5129493186897
1731655480.7100646,791.6918804641895,796.7446051348988,808.4104203075858,787.295442009886
1731655480.711316,818.7099761625632,802.0595861460396,811.4931324304202,800.1675468339157
1731655480.7150047,838.2805763697994,808.411023141287,811.4976117414421,811.499776151927
1731655480.7152183,832.2416128994525,812.9417425676043,808.6347194083202,812.220715790392
1731655480.719121,801.9112902468743,813.7847762161787,804.4177853066361,801.9965901549192
1731655480.7212992,767.4359021238246,811.2697463134335,800.8567055690263,789.3193812168107
1731655480.7230234,752.5372237655912,807.4406197564684,799.2784874257875,784.7478797490172
1731655480.7256308,766.5309255063859,804.4352653590184,799.6208605146875,792.7595014625541
1731655480.726926,797.6106635509535,803.1845157778753,800.7959892466157,808.4699179400354
1731655480.7308283,822.5326314544761,803.3205923142874,801.8475942042701,821.5629364577236
1731655480.7339327,824.8235471351446,803.9562454788169,802.8736823804695,824.2190112024979
1731655480.734731,806.8360664586811,804.4426162312536,804.8494275005728,816.786342450614
1731655480.7386334,786.1478896823447,804.6080231268327,808.5060248513306,806.7691378070725
1731655480.7411969,779.9054296530608,804.5839545331214,813.3266126377429,802.1413994135952
1731655480.7425358,790.6774193968877,804.5470545155656,817.5944136980991,804.7019242650176
1731655480.7464385,805.5789219860696,804.5820256240687,819.4237940333992,809.0887230210327
1731655480.7503407,808.6069044668537,804.6808051580444,817.8779320301046,808.0843717841974
1731655480.7528608,794.9140070443616,804.800386915664,813.3928732266755,799.3449339389887
1731655480.7542431,774.7737231862724,804.9095773510342,807.46476606245,787.6204129094689
1731655480.756081,764.380044540716,805.0017339391272,802.0322798624521,780.7487871960818
1731655480.756763,771.7446201642286,805.0849073256147,798.8534624403309,783.2251159156743
1731655480.7581458,789.6477360891141,805.1684256249968,798.8968809808074,793.0069203994498
1731655480.7620482,801.491926288147,805.2563304069887,801.8384961934788,803.914920108089
1731655480.765951,795.2716965151632,805.3478585919245,806.0197947661818,810.7781188327772
1731655480.769853,774.1073549507888,805.4406516211795,809.1433638349138,812.5029184154456
1731655480.7717886,754.3284894192309,805.5331317063349,809.4457248591126,811.2012153929256
1731655480.772329,752.2363902905192,805.6250353300308,806.6203336406614,809.4792505533204
1731655480.7737556,770.3536885134832,805.7168212207678,801.8955024035924,808.6664727723852
1731655480.777658,794.8986202481336,805.8089641676846,797.2993781355791,808.7495092225462
1731655480.7815604,807.0695850357371,805.9016407258148,794.6743661522798,809.1580828730322
1731655480.7854629,798.9067409177139,805.9947798996762,795.0092712464944,809.4427480315647
1731655480.7878954,780.2582766332089,806.0882399919345,798.2562617746948,809.4880834079829
1731655480.7893655,770.7221721775771,806.1819306190163,803.4456350932927,809.3947681131314
1731655480.7907164,783.1548440725604,806.2758353886301,808.9134080349114,809.2935917807757
1731655480.790863,812.4733992622672,806.3699752444787,812.6936343380379,809.2466072420789
1731655480.793268,839.1081466775456,806.4643635047489,813.207311273541,809.2475629113451
1731655480.7971704,844.4535162597423,806.5589804743773,810.0959936599537,809.2647577694111
1731655480.8010728,825.8480450203269,806.6537763452859,804.6636420218163,809.2753599202488
1731655480.8034616,798.837073838558,806.7487034753566,799.406586558404,809.2746142586221
1731655480.8049753,784.701468666183,806.8437674413389,796.7064986528142,809.2685031928995
1731655480.8088777,793.3656358428246,806.9390592719237,797.4862210521585,809.2638801350502
1731655480.8096442,815.7494792740546,807.0347076165749,800.7739841738885,809.2636824249128
1731655480.81278,831.829882790995,807.1307176582236,804.4621502862063,809.2673223056231
1731655480.8166826,827.5888752081953,807.2267789673518,806.6525578578601,809.273064418004
1731655480.8190277,806.7533703475204,807.322277529604,806.6567861310363,809.2797727769041
1731655480.8205853,787.790357441238,807.4167637322641,805.1519131877776,809.2872853421492
1731655480.8244877,788.8534829606247,807.5108008252441,803.6219979988438,809.2959435394207
1731655480.825645,812.958337405019,807.606465824769,803.480741772518,809.3060358439924
1731655480.82839,845.0923484071855,807.7063141689265,805.2180233211313,809.3175699613013
1731655480.828572,863.3415562398379,807.8102753594912,807.906913508931,809.3304008722965
1731655480.8322926,855.333633395238,807.9122472899596,809.4620841878376,809.3445256204652
1731655480.8345938,827.4009352747324,808.0009390723766,807.7868018108084,809.360273070348
1731655480.836195,799.4591003350404,808.0693693348653,802.2814419461508,809.3781257845349
1731655480.8400974,789.5218846207524,808.1306833022472,794.6509259901467,809.3980952573178
1731655480.844,799.94110160827,808.2256441531738,788.2207959115365,809.4190217619296
1731655480.8475,816.3388044108001,808.3997612720964,786.0379625309669,809.4386967079846
1731655480.8479023,820.1316857513896,808.6427095604174,789.0367320301233,809.4556808363434
1731655480.85016,804.4036116806253,808.8271091723375,795.5800144319792,809.4724011892126
1731655480.8518047,780.0099409042031,808.7318158419369,802.6639927634745,809.496719345325
1731655480.8557074,766.8404039423232,808.2187515829503,807.8397417688153,809.5376719562945
1731655480.8596098,777.441350226937,807.4815329154505,810.4478235110956,809.5938527136132
1731655480.860427,806.4171796407766,807.0734220709052,811.4006719994919,809.6415661055479
1731655480.8635125,834.1835394078425,807.4876708615341,811.9171597726909,809.6396702639097
1731655480.8657262,842.002284208407,808.5697720284855,812.3535318128402,809.5662070143939
1731655480.866428,826.3046209868404,809.409215397101,812.0221685881668,809.4757408709303
1731655480.8674147,800.9826388774908,808.9487121657252,809.9485486417002,809.5215399525723
1731655480.8713171,785.8764904138116,806.78555060223,805.767294874253,809.8637633330491
1731655480.8752196,790.723779864266,803.4549676288719,800.028237178121,810.4460497974304
1731655480.879122,807.6720987149758,800.0233765260591,793.8724366294807,810.7911509297309
1731655480.8812923,818.5886746455346,797.4311546087249,788.5751436704062,810.1393161309903
1731655480.8830245,811.0337924696308,796.1258758729313,785.3277207012136,808.187109623764
1731655480.8853557,789.3199032391464,796.1190335175407,785.120921793591,806.1619906090193
1731655480.8869271,771.1938206395516,797.1720696062894,788.3994651134382,807.1554815233272
1731655480.8908296,772.8931760153315,798.8192557701345,794.5504934583054,814.3687091757744
1731655480.894732,795.1109934233996,800.3029277237763,801.7567547734277,827.4255877125934
1731655480.8952088,821.6001748972292,800.7489592690947,807.6237908887817,840.0050021970194
1731655480.8968585,831.7380031976563,799.7030893692817,810.3025289636222,842.9487127878955
1731655480.8986344,817.0044421111911,797.6702264438695,809.3010191468837,832.0342417160493
1731655480.9025369,788.0414310877618,796.0841266122618,805.4132217355168,813.1657309402904
1731655480.9042835,766.3399969030204,796.5067294369513,799.9902804988087,798.7696051167085
1731655480.9064393,767.0017756418328,799.5473968224436,794.3382403140565,797.7733951072692
1731655480.9103415,786.598791076252,804.3422688445847,789.7473880346032,808.1716310242456
1731655480.9124246,806.3366468171274,809.0423313973913,787.7965827218268,819.0128809486802
1731655480.9142442,808.0644591581461,811.9451461104114,790.0870700491164,820.1184810271997
1731655480.9181468,789.6657215515411,812.4184994657486,797.1223571079554,810.9221588967641
1731655480.9220493,766.7503582012888,811.0120343023187,807.1777125274582,800.6493182184887
1731655480.923211,759.2991113534121,808.8296594309787,816.4258263963878,799.7909525662919
1731655480.9259515,774.7416180861543,806.7249053226883,820.6908992449705,810.4820867788777
1731655480.927991,801.7274320862488,804.8675692804807,817.8033515295552,824.211467271513
1731655480.9298542,819.5568608757196,802.860793819044,808.9541360901314,828.7937173175267
1731655480.9299908,815.1979140611145,800.2089110615847,798.1448961783151,818.6245496978192
1731655480.9337566,793.8448024891223,796.7894387754845,790.0974588414034,799.6266063807765
1731655480.937659,774.4910327577306,793.0764751156178,787.8644328920208,784.8275998232575
1731655480.9415617,774.2024888874319,790.0395625117073,791.4402514491101,784.163436809097
1731655480.9421394,793.9090009419886,788.7732792069066,798.0489466139006,796.6725678012625
1731655480.9435568,817.3642255787393,790.0122324856928,803.871719902137,811.2918207645359
1731655480.945464,824.3147222586007,793.7821120379172,806.2023483833943,815.653486809811
1731655480.9493663,807.3040592456202,799.4209463112229,804.7720520156964,805.9397566874619
1731655480.953269,778.3934096274576,805.9643897132346,801.4824485198866,789.9476351237474
1731655480.9571714,760.157631608866,812.571189641562,798.8244528481546,780.8914581310637
1731655480.9591231,768.052721870945,818.6077881596646,798.1641305399992,786.9073171452108
1731655480.9610672,798.1410321013577,823.3493027185659,799.1186319614243,804.6356129682367
1731655480.961074,829.7568071573171,825.7032046002196,800.3355571213408,821.8525363475717
1731655480.9647727,840.9460889980484,824.4632315340409,800.8625074472482,826.85712153333
1731655480.9649763,824.7988684298768,819.1633285766711,800.8975236849278,817.1587958128929
1731655480.9688787,794.2628032126504,810.9349733274948,801.3633691152921,800.8304662772356
1731655480.9727812,771.850505684537,802.509646625678,802.8519190899251,789.7492069150521
1731655480.9746892,772.2861690508333,797.0490673779601,805.0256247162451,790.2326775846655
1731655480.9766836,791.7231824700823,796.4723797366678,807.0196725162571,798.509675735236
1731655480.979995,811.9978094197668,800.4611704390682,808.3056472970551,804.5394778844079
1731655480.980586,816.230447080813,806.8087830270489,809.0183818760283,800.9483167489462
1731655480.9844887,802.8160658067019,812.7215165271442,809.4431754107031,789.6688537444272
1731655480.9883912,786.2930618123487,816.093938911197,809.4030757281361,780.7143576431183
1731655480.9902554,784.6146023979674,816.1043405931015,808.4004381876439,783.9711487176569
1731655480.9922936,803.64143969698,813.1753757638653,806.3814263987882,800.6641698200617
1731655480.996196,831.7637854494511,808.6556785563166,804.1235451764636,821.4862202854613
1731655480.9989228,848.9880648409035,804.37451193096,802.6179533788029,833.0770008299569
1731655480.9995544,843.0131643504761,801.9987877648532,802.0394408998665,827.9631286768222
1731655481.0000985,819.3250915936086,802.277889683133,801.5103043269598,810.3573636537084
1731655481.004001,797.1637151819339,804.607847199916,800.0900962396744,793.2832109676235
1731655481.0058217,794.3909852931122,807.3600809818689,798.0692040861487,788.99402096645
1731655481.007903,813.2406474960673,808.8962243385212,797.1825904755277,799.8511367516453
1731655481.0118058,838.5501252473111,808.5657381057548,799.3212766042528,816.7288503381503
1731655481.0157084,850.1240898105282,806.9304575262478,804.7647291860034,826.3068775730619
1731655481.0178509,839.0802676413338,805.1218839025399,811.4824814095689,821.4854654309511
1731655481.019611,814.5007754782324,803.9711649450444,816.1816741625057,806.5162046914726
1731655481.0213876,794.9759644909844,803.6165752765229,816.3405428784573,792.8169675106572
1731655481.0235133,792.6463869983942,803.7157651877959,811.724107891626,789.2636980888288
1731655481.0274158,803.5693321205905,803.8728736721896,804.3691666639309,795.2418411646972
1731655481.0313182,812.2950452436968,803.8923513876405,797.2281959544688,802.0556213201236
1731655481.0343363,806.0771111381724,803.779118628829,792.5573602141127,801.0041470694918
1731655481.0352206,786.2248733644972,803.6186460976436,791.077216847031,790.9840822675898
1731655481.0367787,767.1065409909311,803.4767944548416,792.1411861868362,779.3052588268405
1731655481.036954,763.9461966595832,803.3695733774701,794.4267748530046,775.346993392929
1731655481.0391233,779.7253394313589,803.2814731901292,796.599658066353,782.5588359185717
1731655481.0430255,802.0897970761254,803.1930977384598,797.7823872367392,795.4704906559988
1731655481.0469282,813.0249139016908,803.0954895325943,797.8683070759922,804.1363384211458
1731655481.0508306,803.6136999668126,802.9897711936584,797.5813434323073,802.3007629072803
1731655481.05252,781.7741442826334,802.8806953302158,798.1141458342227,792.5110358778834
1731655481.054733,766.36151061307,802.771604974644,800.4572957567352,783.9631176886066
1731655481.0557065,772.1695172910886,802.6631487342389,804.8292309491051,784.918312908017
1731655481.0586357,797.912070645288,802.5544124993768,810.5201978936068,795.9952795252384
1731655481.062538,826.9039900593161,802.4443827529548,816.1233135074675,809.815553575073
1731655481.0664403,839.9322613931301,802.3326381861026,819.9812318279611,817.0966871520686
1731655481.068086,830.1182424849601,802.2192775038843,820.7732251810155,813.8796250154784
1731655481.0691185,808.0771816303152,802.1045638347258,818.1548331736316,803.8183421588748
1731655481.0703428,793.3535934387706,801.9886690725043,813.1230332847873,794.1406205949056
1731655481.0742452,798.8433445523689,801.8716205613242,807.6856956736926,789.6656713657931
1731655481.0746343,820.4485847399429,801.7533684328669,803.8189804669614,790.3123509106916
1731655481.0781476,840.3024545378888,801.6338642452959,802.3571481679588,793.103388361956
1731655481.0820503,841.3357617395382,801.5130973324591,802.6766898648693,795.3901088590345
1731655481.0836525,821.691163684209,801.3910904628301,803.4372985227498,796.3152929630505
1731655481.0859528,797.0280837927515,801.2678764695671,803.7145725093999,796.3496358902959
1731655481.0898552,788.1863680959887,801.1434728797984,803.5319321851244,796.2477479213782
1731655481.093562,803.8763338490895,801.0178656521484,803.4294408198487,796.4171322695928
1731655481.0937576,832.7881997415577,800.8910155691591,803.6439747913256,796.862252226691
1731655481.09766,852.1482504419901,800.7629001286866,803.7652550988781,797.4118064305217
1731655481.0992184,846.039721368246,800.633580285864,803.1571735546394,797.926073468749
1731655481.1015625,818.404672121899,800.5032339306996,801.6662569650525,798.3662475125171
1731655481.1039002,789.9058466068091,800.3720667314659,799.930156814414,798.7611679720288
1731655481.1054647,781.2283336915995,800.2400674684785,799.0283072661713,799.1507468493062
1731655481.1093674,796.6183782043889,800.1067559209271,799.7725744528842,799.5547324984108
1731655481.1124902,821.1385659479274,799.9712787711273,802.1390770936162,799.9718825836437
1731655481.11327,833.6468145579158,799.8331753988139,805.1623359940136,800.3927254308863
1731655481.1147845,824.4812585959247,799.6935891550744,807.3300461077613,800.8101887951016
1731655481.1171725,803.0785464868511,799.5557545324424,807.3242102387912,801.2226700732767
1731655481.121075,789.3689690986449,799.4230916105737,804.8077436728842,801.6319370048274
1731655481.1249774,796.4747492117523,799.2945037351136,800.8159121984955,802.0401155427951
1731655481.1288798,819.3700174432081,799.1600038062121,797.3642416613849,802.4481680014668
1731655481.1303508,838.8359997603869,799.0034622570673,796.3185790493172,802.85596964621
1731655481.131418,837.1462792787064,798.817926714462,798.178318212787,803.2630362377809
1731655481.1327822,812.4831283622897,798.6279125777231,801.6404444860656,803.6690825361381
1731655481.136685,780.5580252596634,798.4954851517455,804.3203573407843,804.0741425684398
1731655481.138682,762.430076933679,798.4797204044243,804.1635710461987,804.4783818639984
1731655481.140587,768.3968454228451,798.5464148400749,800.622011035029,804.8818498394453
1731655481.1444898,790.6929956214647,798.4926370907218,794.9412395662717,805.2843808803907
1731655481.1459167,810.552737220318,798.013441531021,789.5457297128124,805.685762180037
1731655481.1483922,813.6439623874785,796.996049742973,786.9240928752108,806.0861296343222
1731655481.1503458,801.1624766466014,795.8962262984536,788.46897848552,806.4862950218626
1731655481.1522946,787.5610665433978,795.7617017724668,793.7155074931517,806.8874823813842
1731655481.1561973,787.135106232538,797.578786907281,800.4380557930969,807.2901192590261
1731655481.1600995,801.1323661607748,801.3430900505449,805.7813531309047,807.6922041601996
1731655481.161483,816.5505490771394,805.8134442842802,807.9018645472419,808.0890558070777
1731655481.164002,817.6326805659834,809.3722927966304,807.0451804328998,808.4766295929651
1731655481.1679044,800.0653098429578,811.2586288643652,805.2646852549572,808.8583046643283
1731655481.1692736,775.5976983312128,812.026036090626,804.9814330543421,809.2498783027182
1731655481.1718068,763.0396304046684,812.85346830355,807.4214732116675,809.6731314806083
1731655481.173464,773.065950060231,814.4205777641788,811.9523846119205,810.1321601001553
1731655481.1757092,799.3176684272818,816.369543377135,816.6044740506933,810.5840153842511
1731655481.1770492,823.091094537944,817.7158517717297,819.2697313227342,810.9387760223548
1731655481.179612,827.9275844323994,817.6951645107928,818.7602881037358,811.1279648872957
1731655481.1835144,812.4183392822281,816.2696796241498,815.1616035053199,811.2324410591101
1731655481.1874168,790.8634561179146,813.9643231356075,809.4714560407516,811.5625217218185
1731655481.1882014,781.2264179766945,811.3169186193167,802.9887730238415,812.5097985455299
1731655481.1913192,790.339094755468,808.4791535743424,796.975031010397,814.0810717194287
1731655481.1926153,808.6949172824918,805.29031030202,792.6905310976267,815.3636676568557
1731655481.1952217,819.0843197373604,801.7011157436735,791.3878801707388,814.588173741845
1731655481.199124,811.5475666765223,798.1105227463106,793.825019638896,810.4277188690354
1731655481.2030263,791.8791782274498,795.2688559259526,799.4884311423025,804.0941160151806
1731655481.206929,776.689113469224,793.8420218931797,806.3327935654453,800.0571434464503
1731655481.2071297,779.4763163523668,794.0855846662561,811.6274488154269,803.2485508993483
1731655481.2081816,799.3256058529593,795.9346553445951,813.514671384087,814.1356176182423
1731655481.208246,821.1999775088876,799.3067866764525,812.1228972068897,826.5848625208959
1731655481.2108316,827.3841472456428,804.1299354822091,809.3505416651362,831.715481607321
1731655481.214734,811.1528793801697,809.9227563070293,807.4841995827933,825.0619219653761
1731655481.2186365,782.1983970637677,815.3674652323126,807.6743564220465,810.7219935325704
1731655481.2225387,759.5456230686773,818.5383620602466,809.3027171705239,798.4663094038002
1731655481.2237475,757.2105535400644,817.9403989765635,810.5726577083318,795.8994544422458
1731655481.2260573,773.7233078922786,813.6779519804177,809.8419517753242,802.3267309705906
1731655481.2264414,793.9519170913901,807.725812271103,806.7982773997234,809.7885366684845
1731655481.2303438,801.9250042106023,802.8585789642858,802.7103726353514,810.491363644195
1731655481.2342465,794.1781264286202,800.9108585446706,799.5721728564678,804.0662088268853
1731655481.2381487,782.4075720985261,801.7155874820602,798.7097998414248,798.108051319873
1731655481.2393138,783.0160058399423,803.6028710213423,799.8619114287548,801.3930293746397
1731655481.2420514,802.2264116990018,805.0278531714472,801.4491978929098,815.6291633056965
1731655481.243028,829.3422987820545,805.8785398295907,801.8423960937467,832.8532758179572
1731655481.244985,844.1722979875741,807.2829864436331,800.6509738014547,840.8584117552004
1731655481.2459538,833.1305419836431,810.1277667191855,799.0597914129041,832.5736946014905
1731655481.2498562,801.260512939824,813.7467369913662,798.989824151137,812.1640751176727
1731655481.253759,770.0677226542169,816.1240480574014,801.6970536877299,792.8702843849848
1731655481.25488,761.8904856300427,815.5236185477693,806.7576595031055,787.6623001785956
1731655481.257661,782.5666734037859,812.0524602371344,812.1043387807566,799.4801394894802
1731655481.2615635,816.3844832829062,807.6587907589949,815.1307396382151,818.7595703918846
1731655481.263913,838.0141373026013,804.4991339946038,814.2197111959274,830.6540330189382
1731655481.265466,832.2473695323279,803.1328626741008,809.7278525823016,826.529502425646
1731655481.2693684,805.6044593321893,802.1860482339068,803.7482803093344,810.5069062045696
1731655481.270446,780.4237046915057,799.8039891165654,798.8092292263667,795.7564453245485
1731655481.273271,776.5773241996861,795.5921387704115,796.4646264974817,793.7730903433549
1731655481.2771735,795.978295334897,791.2779345324587,796.773407017285,805.5361060165784
1731655481.2778096,822.1541953396886,789.4271998195155,798.8435585239804,821.4640449428047
1731655481.281076,834.3611695534247,791.2632007336725,801.699772458086,829.55635276134
1731655481.2828407,824.1112229067116,795.4635694970109,804.6275837927474,824.6952579663898
1731655481.2849784,800.8413808954135,799.0016988496499,806.911805516405,811.762262708721
1731655481.2860122,782.9027410102694,799.3474170682009,807.6355191945149,800.6281133707455
1731655481.2888808,781.9881486130923,796.2116100037182,806.0836092276867,797.5908370933362
1731655481.2927833,794.0630120472152,791.5233175100249,802.4618975292431,800.4622994524358
1731655481.2966857,804.0936956687892,787.9279217575569,798.1025914216772,801.3192834763566
1731655481.300588,800.1588125758748,787.2105800999974,794.7501386483954,794.4291432457707
1731655481.3015783,784.5764192609122,789.7034709923696,793.452979887039,782.323144148996
1731655481.3017688,772.2721340750985,794.5776808790205,793.9990379983021,774.4216729595934
1731655481.3044906,777.6410341599372,800.3495840166674,795.3201906739924,779.0429854130995
1731655481.3083932,801.1645150328578,805.3493895884463,796.4377644252746,795.5476382519307
1731655481.3122957,827.428209429468,808.3572165520608,797.1488119882512,813.5363181804416
1731655481.3125916,836.6621497273422,809.2936362356014,797.9900443971767,820.2093763341198
1731655481.316198,820.5946306986299,809.2817074508501,799.6441500655039,810.1876209084285
1731655481.3171446,789.6973684322782,809.6606614253654,802.3260616751418,789.9804788065401
1731655481.3201003,765.7211249042333,810.6310193796916,805.585572455272,773.4761284195577
1731655481.3206966,765.1590433432203,810.8800115930328,808.5707343830695,771.8363338519976
1731655481.324003,786.5917326624956,808.7854443710822,810.4719453383116,785.4999066015007
1731655481.3279054,811.9840646552339,804.2220077916438,810.837660933677,804.3294871218596
1731655481.331808,821.0339543041978,799.2360259695902,809.6576623868601,815.5781930532364
1731655481.3327107,807.2000468096381,796.8045071271288,807.3009066279848,813.3102045126906
1731655481.3357103,782.6099287773449,798.663073261672,804.4061772735689,802.0344384831993
1731655481.339613,768.0481564642292,804.0189331033779,801.7265790911977,792.2014560250997
1731655481.3396244,776.2514488104014,810.1094644227051,799.9014399112365,791.6476520654076
1731655481.3435154,801.858398368864,813.9955686892275,799.216687258298,799.824337531429
1731655481.3473735,825.6986835836059,814.1967141234193,799.4988599926003,808.9670027069166
1731655481.3474178,829.726524925175,811.2360782787048,800.2497138306401,810.8453638389486
1731655481.3482769,810.8876961212023,807.0902410767948,800.9591069618642,803.6329738108963
1731655481.3513205,783.3249662076928,804.0527857364774,801.370269341183,793.4848852970155
1731655481.3552227,767.3379116483837,803.5450709800305,801.5134522223153,789.4564030632095
1731655481.3585522,773.6684931186064,805.3546311236593,801.5502421455863,795.6703029116958
1731655481.3591251,795.4277665119009,807.748758359693,801.610438182979,807.237172519011
1731655481.3630276,814.1732077745827,808.5708823256398,801.7332086309345,813.8497741905064
1731655481.363843,815.3430529839276,806.7294762359833,801.895635096153,808.6098427108275
1731655481.36693,800.3989088814334,803.0412848778295,802.0628673689731,794.6751074862067
1731655481.3708327,785.5020946878976,799.7962845033264,802.2168414552034,783.5762322218144
1731655481.374735,787.7611553212207,799.3932216628946,802.3580387634688,786.074385540249
1731655481.37748,810.5827430840301,803.0042408176954,802.4946232959761,803.0850510449472
1731655481.3786376,840.3501227192195,809.9740075883602,802.6329621046058,824.3629822462424
1731655481.3794093,857.1088450466966,818.0332566041111,802.7746702901586,836.1828713673946
1731655481.3821554,850.4671256162292,824.1150553344163,802.9183089933575,831.8838388669654
1731655481.38254,827.8703386145966,825.6010199148824,803.0620230498549,816.9150174048001
1731655481.3864424,808.6195318808894,821.6803176904255,803.204934596778,804.3961726511619
1731655481.3903449,808.3760803581081,814.1001053621309,803.347131270947,804.6531945926346
1731655481.3942473,826.608167318393,806.5529217719856,803.4890579375036,817.0457836700068
1731655481.3949754,847.2916040928774,802.7558149850199,803.6310324982643,830.7730965214041
1731655481.396408,852.4746152463002,804.393419511518,803.7731178050103,834.1368857853357
1731655481.3981495,837.5354585033524,810.3857328009836,803.9152262208133,824.6197041378381
1731655481.4020522,815.2527798975309,817.9424822183807,804.0572574741379,811.218521978167
1731655481.4059548,805.0481060443118,824.427651933419,804.1991631655349,806.8938480835327
1731655481.4098573,816.3761763897357,828.527252304972,804.340939789157,817.4404179515766
1731655481.4105415,840.3677485182733,830.0573954203066,804.4825995850427,836.2219949345204
1731655481.4137597,856.8791352462758,829.0804747444389,804.6241571324284,849.2537058526098
1731655481.415336,851.0664415958825,825.5024945267344,804.765634546292,846.4089753080168
1731655481.4169374,825.7019432998896,819.5935394115095,804.907061490716,829.5488077646739
1731655481.417662,799.1325496723131,812.72934726088,805.0484463101044,811.0612438822698
1731655481.4215646,790.5994393579285,807.2650846721976,805.1897259954254,804.0999487834038
1731655481.425467,804.8560015613331,805.2324506194634,805.3307501444982,812.3681790866078
1731655481.4261076,828.5714549883363,806.795454534167,805.4713740416315,827.5748369495378
1731655481.4293694,841.455323593635,809.8952453080341,805.6116711970143,836.5316051204209
1731655481.433272,832.941634046903,811.6404611527913,805.7521126923742,832.0572504981214
1731655481.4342637,810.5720861773968,810.4405414021174,805.8934064751364,818.7017558919971
1731655481.4371746,793.1027812026599,807.1131662936568,806.0357783630405,808.570540799493
1731655481.441077,794.2385920152296,804.0406688842066,806.1779996680889,810.8163926006272
1731655481.4416738,810.8221164619854,803.1492352172905,806.3172394353276,823.6811447445482
1731655481.4449794,825.4749627148477,804.438746785346,806.4510503103313,835.7574528324225
1731655481.448882,821.4511184610557,806.1761138080925,806.5814315212308,835.347373137312
1731655481.4517193,797.2632966167657,806.3843009930392,806.7178177632267,820.1122616523041
1731655481.4527843,768.9153780276403,804.3099370062964,806.8732237101874,799.1639616050818
1731655481.4531915,757.7803587516663,800.8299594488601,807.0500681938647,786.0806749950857
1731655481.4566867,773.7593954816084,797.7526645139524,807.2225909627191,788.6081017974444
1731655481.45724,807.1079264282847,796.6937603992624,807.3368898830429,803.1997037992554
1731655481.4605892,835.4602587542602,798.2175737948427,807.3518593770367,818.417457527445
1731655481.4644916,840.5933592740773,801.5557429236899,807.3156542275286,824.0657503995033
1731655481.4683945,821.7636057881431,804.9372183648437,807.413277684837,818.5362479521322
1731655481.472119,795.2273795700213,806.4415158030655,807.8766670720538,808.6921061423105
1731655481.4722967,780.6951453777506,805.0775500653837,808.7020646533964,803.0282744026697
1731655481.4728062,785.8791900518011,801.491395853694,809.319063318491,804.2904715723748
1731655481.4761992,801.4407767482729,797.7058697802245,808.5950306064781,807.7090066526619
1731655481.4801016,809.8340172280141,795.8706453714565,805.5109371677203,805.9118487429043
1731655481.484004,800.302042023379,796.8165712325531,800.2382887188651,796.0067501488905
1731655481.4865012,777.7265453530272,799.5114053016016,794.6205970845141,782.7690538442428
1731655481.4879065,758.4503806630664,801.9085796112745,791.2574215575003,775.2357831792498
1731655481.4883723,756.8399861557651,802.5955148241791,791.6680307352764,779.39935335621
1731655481.4910474,773.6707172761265,801.9800731296609,795.0598231237246,792.9448801908089
1731655481.491809,795.789547847866,802.0636805414732,798.8591104494725,806.5847444780903
1731655481.495711,807.3111651083326,804.9082330606634,800.6840418118597,811.3556188984196
1731655481.499614,803.0359451459677,810.903818986011,800.1552882357831,806.0941920409603
1731655481.5035164,792.63355896612,818.1184603903174,798.9865003954754,798.5696929270656
1731655481.5039384,791.6877658577067,823.2256412446403,799.2507256852736,798.7154732101076
1731655481.5074189,807.072990026903,823.3907599102791,801.3797328592286,809.3538127973521
1731655481.5099752,829.4949562670197,817.9087349148807,803.7558931524306,822.5777397855164
1731655481.5113213,840.2439060632489,808.6539487197981,804.2920412582565,825.5628789913952
1731655481.5152235,826.9889552673812,799.1778915492406,802.4932172761647,811.4831415532044
1731655481.5191262,795.3877235568293,793.0151313674503,800.0205026743508,786.4448391270467
1731655481.5195043,766.4037215877746,792.1022643428573,799.2259317525287,766.23378509838
1731655481.5212831,760.8724017478671,796.086765609295,801.0570029146029,764.9037451974185
1731655481.5230286,783.3479828492455,802.79037633439,804.2437381790203,784.0103751448079
1731655481.526931,818.1376713941831,809.4700470731452,806.3845111923363,811.0704757290968
1731655481.528903,841.0129435400002,814.1330264526214,805.8350051082697,828.7199458364797
1731655481.5308335,837.6600289031417,816.2031763002732,802.7896310884022,827.5724444558223
1731655481.5347362,814.260241098901,816.262880650314,798.8733507724892,812.6570605092467
1731655481.535071,791.6117886347031,815.1856060384666,795.8448687348124,798.3196804973107
1731655481.5386386,787.5961098118199,813.3679564866814,794.5122025441815,795.8851422562051
1731655481.542541,802.5628157211303,810.639123092266,794.5051189798007,804.4251756217915
1731655481.5464437,819.7631171773141,806.814492853568,794.7919491946766,812.3073848129164
1731655481.5478308,820.1635818757601,802.2885103512764,794.434254192106,807.9485847710158
1731655481.550346,798.9205318071729,798.0710394936658,793.1533998521704,790.408948709061
1731655481.5506368,769.7903172462304,795.2443617729772,791.5212742246015,770.8415129845041
1731655481.5542483,754.1526469092188,794.3765149433526,790.7185669440153,763.7263643243598
1731655481.5560648,763.9225500048119,795.4236445794286,791.8820828654124,775.2714279888988
1731655481.5581508,792.1667424334472,798.1084769288209,795.2668630381281,798.4096688910716
1731655481.5620532,818.6587780502114,802.2372509594578,799.7247957169172,818.220183250635
1731655481.565956,825.6235114891847,807.4912696982649,803.0222582102081,823.2252289039454
1731655481.566203,811.0440754289602,812.8942899111338,803.0629054064264,813.576697641689
1731655481.5667586,789.1448530780794,816.7183053270321,799.3744762163411,799.9208160861409
1731655481.5698583,778.0760533893512,817.3183999233404,793.8200854529456,794.2470377331513
1731655481.5737607,785.0657850941836,814.3932694435616,789.8313120782504,800.2494004129445
1731655481.5776632,801.1615340268812,809.4793124970047,790.4360117423101,810.8442649750042
1731655481.5815656,809.6418923954307,804.9984251811994,796.3156707473072,814.5660130246653
1731655481.5817692,800.8290425824556,802.5357283794187,805.2682925006129,805.4126333148017
1731655481.585468,780.8035620769681,801.833808099771,813.507034415086,788.0716075678858
1731655481.5856867,766.727726049756,801.3444824704188,817.876312865735,774.347674259884
1731655481.5893705,772.6122945736262,799.7203495879819,817.4510290530955,773.7431666242761
1731655481.5908468,797.16362122026,796.8556762817783,813.5938457108667,785.7669326325023
1731655481.5932727,823.7083712594798,793.7080362137119,808.7446289063223,800.1573737882808
1731655481.5971756,832.6538067030342,791.3806148749705,804.9532379956046,804.9936000288794
1731655481.597335,816.9300770194928,790.5035387058387,803.0197584772366,796.380870094856
1731655481.601078,788.0873327924616,791.3534623771949,802.4888567924191,781.8968130819001
1731655481.6046145,767.6766195518434,794.188171847805,802.2516071968798,774.7216262550157
1731655481.6049805,770.2931016079264,799.0793044580813,801.3331273513207,782.9204038068431
1731655481.608883,791.883878998596,805.2935051773663,799.4566072720979,802.5895452427445
1731655481.612785,813.13735706583,811.0296282527444,797.0990282978993,820.6700665719029
1731655481.6129014,815.4328027640694,814.0965830329867,795.0449780997642,825.2833685692472
1731655481.6166878,796.2117116141696,813.1380450507088,793.8129051577243,815.1554351558518
1731655481.6205902,771.0713404686471,808.4116395616134,793.4438757683948,800.4832132574837
1731655481.6235423,761.0594196685129,801.5550505752507,793.7974420651992,794.6854680854348
1731655481.6244926,775.7987403342793,794.668572571358,794.9744163092954,803.7683474233322
1731655481.6256287,806.0446817651916,789.4565700601897,797.3425393770912,821.6844215459063
1731655481.6283953,831.269313199153,786.8492557274095,801.0727902101899,835.1819419461093
1731655481.6284676,835.899886502152,787.0093716449501,805.6502449026781,834.2926933578509
1731655481.6322978,821.2730871789058,789.4602698057121,809.8923614547986,820.2978382433414
1731655481.6362002,803.910258752395,793.2518800342666,812.5138774206267,804.8796740505728
1731655481.6401026,801.5419621093205,797.2446001564895,812.7635708832872,800.9389224990728
1731655481.64247,818.1269979754942,800.5072414645417,810.6625123985577,812.1933342350914
1731655481.6440053,840.1063013061258,802.6286297950112,806.8352874962915,829.8674070620086
1731655481.644034,847.2054883753281,803.727516317632,802.2873567480805,839.3104737263153
1731655481.6479075,829.2640557296393,804.1828117842578,798.3457750723237,831.4869667829961
1731655481.65181,795.4778916154548,804.3338339946722,796.5599168116604,810.3313819046422
1731655481.6557124,768.3542517406855,804.3589940385615,798.21438751149,790.1351039430235
1731655481.6596,766.8443771194964,804.3202387557657,803.4822918274571,784.8749870984601
1731655481.6596148,791.736450749326,804.2406983980644,810.7788459788786,797.6133227065969
1731655481.6604106,824.7024065623518,804.1393650143522,816.9947090247002,818.0653878097943
1731655481.661398,841.9183083142559,804.0320078189602,818.8134971085118,830.2782524638634
1731655481.6635177,832.0079862460432,803.9265420019458,814.5683702840408,824.6988277762875
1731655481.66742,804.5317130414699,803.8236581714049,805.5647839964822,805.3953086046076
1731655481.6713223,782.2021382103655,803.7208640100628,795.8695285918478,786.6923657171571
1731655481.675166,782.7003117164555,803.6159692390476,790.349149376692,781.7604786809569
1731655481.6752248,804.636441624094,803.5083169675758,791.9044890802879,792.3696504965375
1731655481.6791272,829.219725001813,803.3983300465296,799.6206662906226,808.2271079040612
1731655481.680326,836.2311829074563,803.2866338768209,809.1969345277529,816.2478720633155
1731655481.6830297,820.7546181503192,803.1735508806938,815.5574657344793,811.6131629364846
1731655481.686932,796.5685931568722,803.0590724043913,815.9642965513418,801.1253296843817
1731655481.6907322,783.7301936010837,802.9430539299356,811.5217257843723,796.3346580190373
1731655481.6908343,791.3609973815611,802.825384411408,806.1027805473823,802.8483636404629
1731655481.6947372,810.2605387032569,802.7060387109955,803.5763358455216,815.2506711903023
1731655481.6951926,821.1202842431165,802.5850471521051,805.3336957099605,821.8468373003158
1731655481.6986396,810.9650203745387,802.4624487492463,809.7276257782777,814.8988552867169
1731655481.6992538,784.083986243869,802.338266896881,813.5775848457371,797.5232746220493
1731655481.702542,758.7404930509363,802.2125097295931,814.4997434646237,781.4729529216443
1731655481.7062984,752.6324844639064,802.0851799467101,812.4100234895245,777.7488309303785
1731655481.7064445,768.9623990045969,801.9562812444951,809.277506830712,787.8991488049287
1731655481.7103467,794.2600188694762,801.8258189129926,807.4896995551605,803.1590105993395
1731655481.7142494,809.5056505944034,801.6937999440173,808.1188849019836,811.9281215127309
1731655481.7181518,805.3237012315831,801.5602381623073,810.3120052504244,809.1207526552512
1731655481.7181816,788.8627207796584,801.4251626579668,812.0846768736353,799.5899240570657
1731655481.7218645,777.0495593348983,801.2886181660798,811.777996735236,793.1383778899874
1731655481.7220542,782.1714902886316,801.1506437448642,809.1082640806433,795.7661286413096
1731655481.725957,801.752317962678,801.0112314943949,805.2077340402449,804.6363083698926
1731655481.7298594,820.7617528229181,800.8702994956684,801.8051072711526,810.7555767818975
1731655481.7299745,824.0171375786308,800.727737875072,800.1762895521258,806.9003321391697
1731655481.7337618,808.6167846883076,800.5835583037881,800.5226950335473,794.1949461622291
1731655481.7371094,786.5013961446662,800.4380667116235,802.1103806902407,781.952445012757
1731655481.7374308,775.1403858401652,800.2918387170479,804.0070656299807,780.7221079227284
1731655481.7376642,783.6185593498633,800.1452716334182,805.8224893454941,793.8582221998273
1731655481.741567,805.1008250016552,799.9978025593106,807.8209736364346,814.3074607614417
1731655481.745469,821.9309943446686,799.8474862593473,810.3038988982661,829.4831984587198
1731655481.7493715,819.7319327377835,799.692023736847,812.8872953188807,830.7180502295005
1731655481.7529967,799.3568689493153,799.5316706226206,814.4766706588183,819.8806678024376
1731655481.753274,776.7904635029103,799.3722910305207,814.0587655410578,807.7736772872222
1731655481.7560372,770.6685294063782,799.2243103089372,811.5539057775492,805.4851915125643
1731655481.7571764,787.2874962360784,799.0936484088552,807.8932306392206,815.5471306453379
1731655481.7610793,815.2423352265761,798.9671748555459,804.3200889516208,829.8885319069908
1731655481.7647564,834.182941968173,798.8065586825257,801.7060085472282,836.1784238122499
1731655481.7649815,830.8305830820067,798.5705795695342,800.5166924139622,827.6042039175204
1731655481.768563,809.484759118661,798.2711898974135,801.1918705373611,808.4584479376431
1731655481.768884,788.5171051504932,798.0265056545408,804.1765176518126,791.0840114745195
1731655481.7727864,785.5020502965808,798.0293220823182,809.2880789276388,786.3911247893037
1731655481.7749653,802.8814207521698,798.3639479171098,815.0179377438413,795.2891224821157
1731655481.7766888,825.8857138436961,798.7335984936216,818.7154533689962,807.8919646246438
1731655481.7805912,834.6478108173816,798.3673250253935,817.9513389366269,811.3622648573302
1731655481.7841291,820.7335881723296,796.453288012847,812.2580905949626,800.3190423803369
1731655481.7844937,794.3769148633861,793.084760609066,803.8867006757725,781.477827684473
1731655481.788396,776.195800965003,789.9329729564827,796.7703561869785,768.6615523397143
1731655481.7922988,780.1316187444241,789.5855206454896,794.2158981012425,772.0462151148098
1731655481.793893,801.854394903748,793.6357307686416,796.9060805393374,790.1948947573417
1731655481.7962012,822.3886819970901,801.1854447013158,802.648054553257,811.1999718513606
1731655481.7995384,823.9781627404988,809.2961486193584,807.9937432863524,821.9220995151829
1731655481.7996953,804.9911508564253,815.0130765731528,810.471840072565,817.8889615501739
1731655481.8001037,781.4619803689479,817.1097137521951,809.8483750077262,806.0523754867806
1731655481.804006,773.923509172496,816.177900731828,807.7305565016374,798.4766051217625
1731655481.8079083,790.4142411306241,813.3993288917521,806.087376248262,802.3633461154325
1731655481.811811,819.8291050666047,809.4750988832436,805.8764112574947,814.6751287934957
1731655481.812821,841.1850970945467,804.7405750014282,806.6279076100985,825.6029225313888
1731655481.8152616,840.9399100609188,800.0615006656847,807.0226106607114,827.5372643363532
1731655481.8157134,823.7106894895117,797.2176243643412,805.8988128242904,821.5554348536748
1731655481.8196158,807.5078561063202,798.0317929278701,803.0273075784075,815.8122503045952
1731655481.8235185,807.8794554888199,802.8880554223563,799.2398373693749,817.487331362547
1731655481.8274207,824.6217952320558,810.0391627066147,795.8671431713295,825.6229891968816
1731655481.8308277,842.1636149223864,816.4523466709614,793.8447536065936,831.3367107816865
1731655481.8313234,842.9683673580903,819.5760508096815,793.1149145546311,825.4230572371893
1731655481.8317487,822.572159803196,818.6863359135857,792.809684716726,806.9582629712608
1731655481.83432,793.9025359377423,814.9661315007589,792.1079625007388,785.5196282438832
1731655481.8352258,777.4716464071206,810.5346919885907,791.063946719812,774.7154122427899
1731655481.8391285,785.3311341437981,807.2739029947152,790.6674546527929,781.7901678185127
1731655481.8430307,811.5396145835318,806.1297490522943,792.0069953688477,801.5565856270688
1731655481.8463938,836.7528733915162,807.0045308961137,795.1661203041248,819.8456730916856
1731655481.8469331,843.356168994276,808.9932175661612,798.7654829478695,824.1271162692253
1731655481.8506763,829.0331196746791,810.7730761917894,800.635350396855,812.9344529343139
1731655481.8508356,807.8131772988875,811.1463432074244,799.2642551766914,796.4950450334809
1731655481.854738,797.8700692722198,809.667612214177,795.014364882017,788.1870553264533
1731655481.858641,806.3355010227339,806.9959186757985,790.1467137862007,794.0232321833525
1731655481.86196,823.7964739436833,804.574447457288,787.5278515439092,808.7367410571453
1731655481.862543,832.8164261853791,803.7228376457655,788.9088898970376,821.179101499831
1731655481.8664455,822.9716163542697,804.800471325482,794.0035622990321,823.940113179995
1731655481.869102,799.698304847992,807.1009012203716,800.9100656298988,819.0131527855166
1731655481.8696046,779.7930063261516,809.5093998825145,807.3527492229925,815.1379643988781
1731655481.870348,777.5686589132606,811.3286342042373,811.7428148932914,819.5309359070482
1731655481.8742504,793.1516300653153,812.625324314482,813.4854167442071,831.1948103906127
1731655481.877526,812.4764466327539,813.9162033739127,812.7131112770796,841.4986722579538
1731655481.8781528,818.9793991147866,815.5153986385295,809.9594955723853,841.5910952023911
1731655481.8820553,807.3840587330935,817.0515952449792,806.0432460063143,830.3756076535442
1731655481.8859577,788.0727735797846,817.5160157260992,802.0316287292687,816.078761522686
1731655481.8885324,778.2173759194703,815.876283505895,799.0402235044342,809.726128526338
1731655481.8898604,786.9910182645739,811.933511618851,797.8489798396172,815.833297967801
1731655481.8930922,807.3526562672207,806.8589256387827,798.5741413557021,828.2400173492201
1731655481.8937628,821.4902650799422,802.9092642044436,800.6469186720585,834.8039080118335
1731655481.8976653,815.5399543504915,802.2810363981329,803.1188559223756,827.1971979859669
1731655481.9015677,791.4011175672244,805.713634756489,805.082762162359,807.7767706598006
1731655481.903884,765.8484311165155,811.7995928905036,805.9704150923053,787.9842656140903
1731655481.90547,757.5507975123335,817.6156673288014,805.6398109069387,779.6508428416158
1731655481.9074602,772.3781886154766,820.3894279031089,804.3159509337585,786.103616000609
1731655481.9086585,798.7376213979053,819.1224947908404,802.4764014088918,799.9042546712354
1731655481.9093726,816.7846959207427,815.0600796310684,800.7107729829361,808.8573207831049
1731655481.913275,814.3861412815221,810.7107480699402,799.5392103934411,805.6508070105878
1731655481.9171774,797.0547188768293,808.1768743142819,799.2002618849702,793.6231527545315
1731655481.92108,783.4301945988565,808.0093254442502,799.4834771072105,783.8960564604079
1731655481.9242246,789.4635111604565,809.2787815191259,799.7319380274021,785.8496902035013
1731655481.9249823,814.1929225231252,810.5563854182042,799.1212145355892,798.6289859616281
1731655481.926388,839.3349010137186,810.9237070322195,797.1804554857946,811.0480081679068
1731655481.928885,843.6606044502155,810.3667960831889,794.2806198572592,810.4954097245782
1731655481.9327874,820.5511322431224,809.5083030577828,791.671830944108,793.6573343642184
1731655481.93669,784.136546924024,809.0063795456373,790.8563414780358,769.961809096271
1731655481.938666,758.7779939976937,809.0090833055816,792.5975509607907,754.6086011580524
1731655481.9397907,760.3791183580752,809.0022327234112,796.2590933578008,756.8143783917925
1731655481.9405923,784.5481035698431,808.2277209742593,800.0226275102851,772.8581693426353
1731655481.9444947,810.8423682171809,806.4569417973075,801.9132859347641,789.4131485793763
1731655481.9453158,819.3332819459107,804.4851645721882,800.9712166233376,794.2357389929062
1731655481.9483972,806.0501365659145,803.766144537096,797.8072347375585,785.5610597661921
1731655481.9522998,785.0263167329589,805.300179542544,794.219453084801,772.8942685929374
1731655481.9553568,775.6766704173142,808.6635270578033,792.1815699041543,768.9215952005195
1731655481.9562025,786.2571049646099,812.0984976404008,792.8796606208923,779.2849366832551
1731655481.9601047,807.2476590813753,813.6957680798354,796.3252190189502,798.3983587370693
1731655481.9640071,819.934467053813,812.689374808106,801.5768302463682,814.3131927699587
1731655481.964244,812.5692195099601,809.7758490633174,807.2134803053734,818.2716110276886
1731655481.9679096,790.3941972394075,806.3182403450082,811.7308900116446,811.1264313676179
1731655481.9709227,771.4535808074163,803.3443848838189,813.843954098571,801.8065412363418
1731655481.971812,772.0547344475425,801.2999977239215,812.8528305396987,799.5792334903398
1731655481.9734478,793.7945098660892,800.5428839252585,809.0386653624372,806.5675224738529
1731655481.9757144,822.2659773536743,801.679510256031,803.7449702298909,816.4133531493866
1731655481.9796169,838.1882142617244,805.0765210372645,798.8395472594868,819.9681844805342
1731655481.9831717,832.226288407114,809.9778970606056,795.7503379674416,813.3595203446461
1731655481.9835193,812.0259202709173,814.3438442839644,794.7507597729075,801.8375237545192
1731655481.9864893,795.8901474732512,815.9419774644521,795.0612162742906,796.0087762643012
1731655481.987422,797.9222903847776,813.9254559979848,795.6561751999743,803.1844359422221
1731655481.9913244,816.5291617711197,809.5089208620373,796.0742463079373,820.8535840374421
1731655481.9952269,835.8781108264906,805.1022981313978,796.5914743934237,837.9744402126889
1731655481.9991293,839.3604491492584,802.652219499983,797.7194930937806,843.472314748991
1731655482.0020554,823.8505054490714,802.5854697957442,799.530444778796,835.1259899286067
1731655482.0020995,802.6078501192436,804.0627333423541,801.3742775502915,821.3788927086955
1731655482.0030315,794.207190352955,806.0185258470696,802.2212503089506,814.3838947807203
1731655482.0069342,806.7348647858951,807.9299041793549,801.4373095603777,819.962709788207
1731655482.0082295,830.5216689657547,809.7887244862887,799.4858064479141,832.8121876567735
1731655482.0108366,845.6282326799375,811.592000953303,797.9758269557669,840.9413698585932
1731655482.014739,838.1349980831592,812.9490699199467,798.7982084472684,835.6326784842037
1731655482.0176215,811.9312925315273,813.0943033088048,802.7677280097744,818.6177818496336
1731655482.0186417,786.0999101016065,811.2416029288636,808.7563688337643,800.4991076742602
1731655482.021027,779.6057121128339,807.1133440657534,814.1483779062573,791.8325527168747
1731655482.022544,795.630744819926,801.4267854605121,816.4956073846402,794.5408761624907
1731655482.0264466,818.7001257583297,795.9855595316106,815.2151722954413,801.0451638235681
1731655482.030349,827.4446568229408,793.051244439517,811.9862304832885,801.7328385852857
1731655482.0331876,812.5957822120208,794.1057366626085,809.4468785031502,793.9591329682676
1731655482.0342517,785.0162616655306,798.7201679506871,809.1567390790364,784.428320482523
1731655482.038154,766.8425242271487,804.4385801698119,810.4353067837272,782.8599220164359
1731655482.0399551,773.1560306569245,808.0279632806123,811.0193586807706,792.7228146763011
1731655482.0420563,799.4808426086968,807.4354650642803,809.0122499439575,807.3064265808308
1731655482.0430117,825.2651212576743,803.1085100552086,804.5352931281591,814.5695835636773
1731655482.0459588,830.245111174613,797.6499114725029,799.7300390105152,806.7468943180819
1731655482.0487535,810.3944832943744,794.0097157209211,797.1112613734583,786.9353006513154
1731655482.0498614,780.8743863844268,793.5878886827438,797.6176892901202,767.4165491705438
1731655482.053764,763.9667624687847,795.6617180349011,799.9417410590993,760.9289207539676
1731655482.0576663,771.899530821146,798.3710170587728,801.6585987056668,771.5577593308699
1731655482.0588832,798.2755996377031,800.2088387730809,801.2070329221447,792.2542806277781
1731655482.0615687,824.3790879482274,800.7885289587462,799.1093500838966,810.7188312729523
1731655482.0643198,834.1780596987222,800.5823234896313,797.4784466913658,818.5095971430227
1731655482.0654712,825.1565084654959,800.2290400372686,798.2682685467007,815.776908978901
1731655482.0693736,807.0060370956901,800.0772504036389,801.7121499913744,808.5958131930345
1731655482.073276,791.6741968191878,800.1450936361972,806.1730455577439,802.8736336064757
1731655482.0771785,784.8518048572557,800.3012806400784,809.4242115404429,800.7215358299488
1731655482.0777934,784.9753215528137,800.4336005663422,810.2304307457866,801.0271825064056
1731655482.077811,787.5369130094243,800.5085632387058,808.9778715646792,801.847370736511
1731655482.0798862,789.2409222193966,800.5475666564162,807.0388277190514,802.0503814102677
1731655482.081081,789.2618177191475,800.5822661048097,805.6291251909981,801.5456707535035
1731655482.0849836,788.3158531733014,800.6289521421044,805.1430230198881,800.742053582067
1731655482.088886,787.3228653860763,800.6871285790676,805.2825577895244,800.0060584124213
1731655482.0927885,786.711737597509,800.7493872479926,805.5703934952595,799.4565961180155
1731655482.0954523,786.4311899466409,800.8099704579103,805.7223629951487,799.0317674737947
1731655482.096691,786.255269919283,800.8674199867017,805.7057916067539,798.6306667763508
1731655482.0967388,786.0240711513426,800.9230293821021,805.6135671991472,798.1987416005553
1731655482.100593,785.7060207798144,800.9784595568132,805.5335533116391,797.7355315398245
1731655482.1044958,785.3444943035432,801.034484630527,805.4962479218594,797.2642001430722
1731655482.1083982,784.98804911745,801.0910072307697,805.4883405025311,796.8036794413943
1731655482.1110184,784.657203020957,801.1476098845619,805.4859804572257,796.3593415425211
1731655482.1123006,784.3476764543102,801.203992313134,805.4756844988777,795.9274619863127
1731655482.1125753,784.0472812019025,801.2600864549349,805.456852296617,795.5028221608961
1731655482.1156666,783.7481218119188,801.3159611047316,805.4348001625564,795.082910644453
1731655482.1162033,783.4491582867745,801.3716957145867,805.41407034597,794.6680374449635
1731655482.1201055,783.1530243889614,801.4273197942699,805.3960388358556,794.2596200020521
1731655482.1240082,782.8623648225192,801.4828183669542,805.3798653141288,793.8587542581931
1731655482.1265843,782.5782544437641,801.5381623990193,805.3642860247703,793.4658011754276
1731655482.1279106,782.3005005545921,801.5933309495579,805.3486486843524,793.0806683037955
1731655482.131813,782.0285660645227,801.6483159423472,805.3329749489789,792.7032143480673
1731655482.1345944,781.7621822588151,801.7031165311113,805.3175658650982,792.3334535389891
1731655482.1357155,781.5014435594547,801.7577325467178,805.3026574072138,791.9715452367698
1731655482.139618,781.2466181590512,801.8121616053405,805.2883127723712,791.6176963666722
1731655482.1421506,780.9979545256622,801.8663994440811,805.2744837338581,791.2720871080802
1731655482.1435204,780.7556116157918,801.9204412364518,805.2611063228495,790.9348556153773
1731655482.1473572,780.5196951212334,801.9742824907612,805.2481514784412,790.6061230078542
1731655482.147423,780.2903232332138,802.0279196344015,805.2356246929858,790.2860239169522
1731655482.1513257,780.0676547169944,802.0813509312916,805.2235439550968,789.9747150298463
1731655482.1535225,779.8518504270285,802.1345775333093,805.2119221458573,789.672349813542
1731655482.155228,779.6429902983036,802.1876030452966,805.2007623483482,789.3790311088462
1731655482.157717,779.4410244700757,802.2404297439034,805.1900616384962,789.0947841866575
1731655482.1591303,779.2458651087063,802.2930521990992,805.1798161531106,788.8196103989881
1731655482.1630328,779.0576567865742,802.3454540933803,805.1700235408522,788.5536439538103
1731655482.1669352,778.8770609858891,802.3976172042263,805.160682757948,788.2973181055518
1731655482.1708376,778.7051596984733,802.4495457131103,805.1517928519803,788.0513121948409
1731655482.1724503,778.5426162391643,802.5012908522662,805.1433520730805,787.816067241351
1731655482.173283,778.388330431626,802.5529404766602,805.1353576839252,787.5910027346957
1731655482.17474,778.2388729069162,802.6045421494925,805.1278061909213,787.3741766964122
1731655482.1786427,778.090553563252,802.6559833236093,805.1206936127381,787.1634706381371
1731655482.1821392,777.9446105447612,802.706945867213,805.1140155972547,786.9595991405396
1731655482.1825452,777.8121153999502,802.7570996480458,805.1077674028867,786.7689891424394
1731655482.1864476,777.7110871293219,802.8065708699258,805.1019438424041,786.6021703416657
1731655482.1888492,777.6496752579708,802.8563687958706,805.0965392617865,786.4640618158734
1731655482.19035,777.6013788352807,802.9080953160121,805.0915475617377,786.3395251757371
1731655482.191378,777.4977613813385,802.9624082241802,805.0869622196795,786.1889067093275
1731655482.1942525,777.2724634731259,803.0168189132919,805.0827762629307,785.973300957822
1731655482.1981547,776.9605885736954,803.065143199781,805.0789821887954,785.7122414373135
1731655482.2020574,776.7824664596086,803.1015970539115,805.0755719097122,785.5329846820052
1731655482.204415,777.0693860741063,803.1297465494475,805.0725368611584,785.628638906931
1731655482.2059598,777.9298788011139,803.1697458803851,805.0698683456413,786.0652295441812
1731655482.2098622,778.7982819555122,803.2510862106061,805.0675579355559,786.5182250809261
1731655482.210306,778.3680636336057,803.3822238464587,805.0655974382515,786.2293340103352
1731655482.213765,775.5245871250471,803.5107161432277,805.0639779076562,784.5428000233679
1731655482.216921,771.2697759901916,803.5196771758426,805.062687891485,782.0233120897653
1731655482.217667,770.226195714704,803.3152806759496,805.0617124661883,781.3419593286192
1731655482.2199814,779.1902673992927,803.0031788710362,805.0610355258748,786.4576689443024
1731655482.2215698,801.5820301087823,803.0285373248935,805.0606463328518,799.4014794290432
1731655482.2254722,831.4558325549365,804.068488478873,805.0605464794824,816.7566826716838
1731655482.2292335,854.4164163678439,806.5954426985435,805.0607477063502,830.112759965804
1731655482.2293746,858.0864572736792,810.3893161974582,805.0612516396711,832.167312443095
1731655482.233277,843.9512232664359,814.4971720972832,805.0620169402634,823.8936041062798
1731655482.2355475,828.4173073861334,817.8057757552599,805.0629449425996,815.5555916040385
1731655482.2371795,830.2152641404957,819.7354405681037,805.0639292109619,819.3098412269425
1731655482.241082,854.4874698361747,820.3703878159648,805.064981785047,838.9910359448213
1731655482.2449846,887.5529029293006,819.9362906727374,805.0663543480725,865.804647503979
1731655482.2481618,907.179384737701,818.2593837865717,805.068471465572,884.1016835374401
1731655482.2488873,899.9645678637825,814.8545903522497,805.0715236759856,883.060064295321
1731655482.251114,871.7388858425135,809.5994109847691,805.0748607617959,865.047267782653
1731655482.251703,842.9326403922661,803.325223088154,805.0768021557359,843.9424231303344
1731655482.2527895,832.8952538515025,797.7076239029115,805.0756934559897,834.6835527335114
1731655482.256692,845.5581021287072,794.4459373297838,805.0723262082125,842.2858584513943
1731655482.2605944,867.5106006905312,794.3092293491137,805.0720116971934,858.9298747258783
1731655482.2644968,879.7302380195928,796.7278283614562,805.0828348894961,871.1360700999742
1731655482.26668,873.3185923014199,800.1918310319002,805.1075588176591,870.8648812514973
1731655482.2670896,856.2735957792243,803.1288305259551,805.1325225753694,861.3693126815214
1731655482.2683992,845.6856533086878,804.6353831440666,805.1256761027546,853.2783293567672
1731655482.2723017,852.0768828474698,804.6595537629519,805.0587052384363,854.7022205793302
1731655482.2762043,869.4755347340375,803.7372838702797,804.9529678740913,864.0442500075633
1731655482.2801068,880.0400339686348,802.6529127437101,804.9138266997109,871.6090134840952
1731655482.282246,869.5277175299335,802.1920543981404,805.0873887757525,868.3966079260913
1731655482.2840092,840.4792700406774,802.8545747362996,805.4974922400608,854.3459031484617
1731655482.2860174,811.7519458223824,804.492527756658,805.8345422963714,838.8937330384325
1731655482.286485,804.2976139602339,806.2131877481005,805.4192547953711,833.3224003903179
1731655482.2879117,824.3978641049877,806.8933401161016,803.5643975763477,841.2951233770534
1731655482.291814,857.9208561775246,806.0477840317537,800.2248150109334,855.551048018155
1731655482.2957163,880.702864688718,804.2461482110685,796.3735537203646,863.7177811576488
1731655482.2978122,877.2458201498414,802.5776748891135,793.5755275366389,858.5957112275795
1731655482.299619,852.7449993185935,801.6468691954581,792.9335838053692,844.2994928631374
1731655482.3035214,828.4086951765463,801.1515982618397,794.2663493677157,832.8843240164989
1731655482.3049452,823.7296020149297,800.5228184664342,796.2816947700004,834.1310606864896
1731655482.3074238,840.4285290123944,799.9475900874608,797.6683790043701,847.1644360199508
1731655482.3113265,861.4716200698902,800.599578578888,798.1863786677426,861.1362829279055
1731655482.3133783,865.7951910151351,803.6363605148246,798.7838760577577,864.4244408775551
1731655482.3152287,846.1818847765408,808.8031102427097,800.630943839024,854.4755664832779
1731655482.3191314,815.3736599804724,814.0473263335651,803.9617877667473,839.9359766582885
1731655482.321267,795.6286362341102,816.7597085037331,807.761126339258,833.3380181224559
1731655482.3230338,800.621025724204,815.7416547943506,810.4686945443799,840.5003924182537
1731655482.323873,824.5274934302403,812.1798364184217,810.9434158747337,855.3953353612395
1731655482.3269362,846.9852228679696,808.6781813718221,808.8996877827993,864.7175262448444
1731655482.3289447,849.7244131155385,807.151972817529,804.7814402313827,858.6099108214
1731655482.330839,831.3148598909934,807.4741116555846,799.566863848656,839.0224856878328
1731655482.334741,807.9606152950194,808.0740691464454,794.7100595435242,818.826187512797
1731655482.3386436,799.6474661387149,807.828780540471,791.8712479783959,812.0146866423328
1731655482.3425462,813.1854995497583,807.3434197155768,792.151798972316,822.6235035015486
1731655482.342801,836.4637361049724,808.328357156405,795.2462605768927,841.3417085714696
1731655482.3445108,848.8179653229182,811.6672629784525,799.3531287739032,852.7038040771856
1731655482.346449,838.7110842069865,816.1067119733666,802.1928566012025,847.0988855571691
1731655482.350351,813.7380857449497,818.965895964917,802.4818941287531,827.8991432481387
1731655482.3542535,794.5057531462049,818.350204960762,800.721269193152,808.1169636094149
1731655482.3560486,797.4720262844368,814.8778246522467,798.6765633685959,799.650099124517
1731655482.358156,820.9874051679664,811.3063117782906,797.9671137909377,804.114147090462
1731655482.360077,846.1654373775336,810.3223088060247,798.8422953290146,812.6478540599827
1731655482.361729,852.1109707443404,812.3798839311191,800.0335026610935,814.4329250994332
1731655482.3620584,833.1703672529628,815.3907249855565,799.7686345331277,806.4155331221516
1731655482.3659608,803.7861583710101,816.4423266132816,797.2083272084493,795.8124134504036
1731655482.3698633,786.412846455898,814.043346871645,793.2335521814216,793.2014397625271
1731655482.373766,792.3110759254178,809.0867017105957,789.933426007873,802.2481541430753
1731655482.375643,811.721441294354,803.92512416936,789.1102253307907,815.3357566924456
1731655482.3776684,822.2964200422484,800.5227751818704,790.9404412702976,819.4272421521063
1731655482.3806567,808.7583731407564,799.2333412124051,793.87742469509,807.4294879213984
1731655482.3815708,776.7480691011981,799.0071605714876,795.9123405780767,785.1903314155704
1731655482.3854733,748.8596645896005,798.5722149307036,796.2085635525611,767.7829714780802
1731655482.3893757,746.2739641153889,797.4730482530296,795.7987269163033,767.865582602208
1731655482.3908305,771.4667724080861,796.2008120929379,796.7413323423227,785.6260241200919
1731655482.3912091,806.1507291197638,795.5397034257524,800.3407602957581,808.4604184704281
1731655482.393278,825.8071753826738,795.879751920708,805.8418194678304,820.5427291719443
1731655482.3971806,818.8382895870303,797.1178920734901,810.7492576258051,814.6033050455369
1731655482.3995843,794.9591515823391,799.0762268545277,812.6629359534862,796.7254651362344
1731655482.401083,776.2360260201542,801.8074718234618,811.195354673532,780.699513264546
1731655482.4049857,778.2263902368389,805.3217704216839,808.3396402609013,776.797349474088
1731655482.4067752,796.9065060088811,809.0112973694513,806.9116648448731,784.1585737134742
1731655482.408888,812.4720816898235,811.548636201012,808.3511786558606,792.8043049218534
1731655482.4127903,806.9194266930875,811.6503328627226,811.7043112615597,793.1841321849607
1731655482.416693,780.3942317021647,809.1469835132424,814.5361968337404,784.9063472101104
1731655482.4185123,752.1400532907679,805.3084432631363,814.8695784766076,777.1719975610786
1731655482.4205954,744.9478852979195,801.960195012485,812.4980209274875,780.5631087584608
1731655482.4223416,765.9813772334139,800.0895052694832,808.732476370902,797.124505996685
1731655482.4244978,799.9153171794612,799.218122863199,805.0627807292377,817.1831576084047
1731655482.4256124,820.2871023473773,798.1713331551088,802.0776034171266,826.0043670396758
1731655482.4284005,810.2440078594225,796.5480209959106,799.5758999073555,815.4068405516806
1731655482.4323027,776.1433136691703,795.4482022355519,797.5520554419933,791.0342175565486
1731655482.4362051,742.8349982465724,796.6273525529035,796.8481503819988,768.8710575219047
1731655482.4374404,734.0119399028479,800.7323705298982,798.611122077388,763.0917859115643
1731655482.4379077,753.3423022612682,806.2460351982738,802.9502348682357,774.8318558056291
1731655482.4401078,781.8936224495792,810.240054072155,808.1296599699306,791.3636985212675
1731655482.4440105,794.164880029844,810.4289442052968,811.2947253565908,796.7992472027314
1731655482.4479127,779.4742022227434,806.8174310472149,810.3666588226816,785.5399634104726
1731655482.4518151,750.7571301503045,801.588473408439,805.6035437835263,766.9812493497241
1731655482.4534738,733.3980137143134,797.446154640355,799.5129811904424,757.2879653047374
1731655482.4557176,743.654155191806,795.8903861723418,795.1764035423832,765.225724033321
1731655482.4563682,774.9026722915756,796.7064856864004,794.3272415863014,784.2019039642997
1731655482.45962,803.085947076876,798.6810511011586,796.572494426043,797.3652241822992
1731655482.4603944,806.6292405865538,800.5963504747205,800.0688893281043,791.605513068112
1731655482.4635224,784.3141658422568,801.7287367648705,802.8670687445525,768.8822174168749
1731655482.4674249,756.3763914359453,801.8639081751356,803.9124171712364,745.3808707039944
1731655482.46904,747.7401641630362,801.2223656899757,803.2584501991486,738.8189790682964
1731655482.4713275,767.0067148393191,800.3986371757146,801.6928734279904,754.0525252460707
1731655482.47523,798.7259183822496,800.0987002258518,800.1783317955094,778.924067656449
1731655482.475296,815.8752854967305,800.6691475441386,799.358516899819,794.0873433886663
1731655482.4791324,802.5763265522296,801.8351877444188,799.2624074317692,788.805975990363
1731655482.4830348,768.1017676196059,802.9710872014238,799.3688573926407,769.5043262615735
1731655482.484606,740.1920373573769,803.6291476350469,799.1039060736603,753.9391814243008
1731655482.4869373,742.9101472171758,803.791098894627,798.4811832130395,756.0889600927096
1731655482.4908395,777.0704624326945,803.7092744528115,798.3027076962699,774.555342946536
1731655482.4942238,819.0369591506403,803.6283903821092,799.5814262081665,793.9653157943394
1731655482.4947422,838.7435260255396,803.6479488146123,802.5465758131648,797.8420167107255
1731655482.4951763,822.6460095886894,803.7464282522827,806.0855731903488,782.1989199649051
1731655482.4986446,783.7689996432399,803.8648945587496,808.2269256409897,758.9326793707585
1731655482.5001724,751.2562808899315,803.9655334745217,807.4455425684841,746.4642338268171
1731655482.5025473,747.7407674197846,804.0433586861437,803.8632191747016,755.1475680099836
1731655482.5064497,772.3052709951533,804.1106496420111,799.4025974564596,779.0430592250827
1731655482.510352,802.3976282285523,804.1794474882373,796.6673578111407,800.6355979124437
1731655482.5131516,812.894795154029,804.2541715667619,797.2665620585535,804.7396303186013
1731655482.5142546,796.6122711878304,804.333205312019,800.7821255296285,790.3663040388034
1731655482.5157385,769.5081213343732,804.4133484020115,805.1668398156851,770.9747415141645
1731655482.518157,756.6581952864892,804.4927196645275,808.2718179495934,763.0758915473187
1731655482.5220594,770.981266871289,804.5711804473259,809.2821694039586,772.6591286685814
1731655482.525962,802.3663923840244,804.6494277473245,808.9385831379784,790.4932618179765
1731655482.5298643,825.8938119647887,804.7280822284226,808.5243473717843,799.9091145727459
1731655482.5299582,822.0971343570365,804.807343885338,808.6660292290236,790.5399967164211
1731655482.5313046,792.6911811616161,804.8871068553854,808.9890674866398,766.8914001752172
1731655482.5320797,759.1826751620788,804.9671998478733,808.6916106179476,744.9261138516335
1731655482.5337667,745.5930691382517,805.0475303228692,807.2614643141275,739.4080771843888
1731655482.5376694,759.1944320742614,805.1280971685107,804.6806088566352,752.1093616873355
1731655482.541572,784.9235046466174,805.2089388842903,801.2104134670428,770.5004931461165
1731655482.5454743,798.3467053167697,805.2900864186793,797.2784747326804,778.3234333035318
1731655482.5468707,786.7639733502962,805.3715475832124,793.6604610696933,769.6301261818883
1731655482.5493767,760.7300083219367,805.453314974316,791.5635870369257,754.5070442338271
1731655482.5510075,745.7614792382598,805.5353791612262,792.1448834654477,751.1749522858181
1731655482.5532792,760.6424257489311,805.6177356413135,795.5950676483611,770.5346477237255
1731655482.5571816,800.4304290224405,805.7003840245478,800.566405751467,805.9297164512682
1731655482.561084,838.7628863781115,805.7833235786605,804.6761889615508,836.9714225867697
1731655482.5624368,848.1586124117811,805.8665502078954,805.973684305126,844.8049460526134
1731655482.5647402,822.0379450513004,805.9500582122879,804.3180979305803,826.7196420684435
1731655482.5649865,780.5271869978479,806.0338467612439,801.4942861821827,798.3496302697507
1731655482.5688891,755.0542034626282,806.1179260855763,799.8563749197258,781.5714178571069
1731655482.569935,763.8314142900701,806.202314182054,800.5745017658219,787.6543221540672
1731655482.5727916,797.8784150383558,806.2870171563845,802.9562806657786,809.1246817671869
1731655482.576694,828.9774161343366,806.3720007391557,805.3280032764051,826.8824256722289
1731655482.5780027,833.1402125229215,806.4571828057811,806.4984270598611,826.6540842341742
1731655482.5805964,810.2572678288365,806.5424854542251,806.4371845497773,811.0341761615691
1731655482.584499,783.6666142091714,806.6279497324356,805.8394214554227,796.9900528621173
1731655482.5884013,780.1759775443661,806.7138292506409,805.3479650578583,801.000228209476
1731655482.5888631,807.3266167439498,806.8004985958883,805.1817654008277,824.4554317435995
1731655482.5923038,846.6212662758476,806.888064060426,805.2348173984358,851.601975931764
1731655482.5935693,867.9488836252792,806.9758477034139,805.3257464311021,861.7214394010188
1731655482.5962062,853.3413227467848,807.0623267341842,805.3534875348341,845.6135167401095
1731655482.599522,811.244083483122,807.1462203161124,805.314445105729,813.2054330545974
1731655482.6001089,770.3340225769908,807.2286659746376,805.2491046731973,786.3350989723867
1731655482.6040113,757.8484264607156,807.3147671193402,805.1915868603733,782.3902067899464
1731655482.6077907,779.264102847447,807.4114276592245,805.1519559371243,801.5277534433162
1731655482.6079135,815.109574180902,807.5196957276696,805.1236513985365,827.3449656592212
1731655482.6091354,837.2985812084246,807.625461021192,805.0970713198815,840.2989032927321
1731655482.6118162,831.7523478284068,807.6998403048829,805.067311527162,833.0513690366013
1731655482.6157186,808.8210093647659,807.7215279751492,805.0345567696821,815.3826509628861
1731655482.619621,793.0447886553334,807.7177139565088,805.0010690134736,804.9144214757308
1731655482.6235237,801.2243734145669,807.7885809038944,804.9685948647588,811.7071056024675
1731655482.6247015,827.6838553731399,808.0575677965472,804.9375730529903,829.8092825206368
1731655482.626719,849.2353622083272,808.5199393466743,804.9076108031743,842.6681412011476
1731655482.627426,845.3557952452269,808.8709297672103,804.878207947878,837.4449503886998
1731655482.6313286,816.3161648222143,808.5239964785044,804.849135069817,816.0341983292623
1731655482.6343038,784.0085418653294,807.0073190989683,804.8204266580086,793.7731713420961
1731655482.635231,774.6859179582455,804.5954378617981,804.7922130593049,787.1938888926462
1731655482.6391337,797.6279853215057,802.5825751879156,804.7645881382246,800.9553365090406
1731655482.6402676,837.1093162714683,802.6311046892848,804.7375749715765,824.4485092165327
1731655482.643036,864.4450524205533,805.4215450076932,804.7111551122991,840.5734779987714
1731655482.6456468,860.673957897817,809.7098597513573,804.6853068885671,839.3695541079934
1731655482.6469383,831.5332075612201,812.8392931133575,804.6600236528803,825.3642825629142
1731655482.6508408,802.318961100933,812.6110987521889,804.6353120077003,812.7905330734784
1731655482.6547432,796.7069417795587,809.1446323386172,804.6111825306,812.9647718232917
1731655482.6558335,817.1280906177702,805.1207381473298,804.5876430684954,824.6667384406621
1731655482.6586456,843.116895755434,803.9690533870221,804.564697324305,835.6440526079117
1731655482.662548,848.8415049742699,807.2781539779613,804.5423466001115,833.6968357674808
1731655482.6645746,824.8883234774428,813.4821276940826,804.5205918065401,817.6474104806213
1731655482.6664507,786.1681084840316,818.9059759807718,804.4994343292701,798.8424863155699
1731655482.6690855,759.7754326307333,820.3237007089787,804.4788758605156,792.0059897089274
1731655482.6703532,763.1426941561326,817.0189714797317,804.4589178887701,803.0845769172417
1731655482.6714,790.3411307942091,810.9170401015309,804.4395613605044,824.0643922600094
1731655482.6742556,817.4253393085775,805.0080020333957,804.420806631064,839.0413740276642
1731655482.678158,822.2334847547849,801.4786055854674,804.4026535770413,836.7513559538038
1731655482.6820605,802.318940681059,800.8383012216524,804.3851017104441,819.4515886933034
1731655482.6835024,776.1768472744712,802.2835586875743,804.3681502119574,800.8560214372221
1731655482.685963,766.8147351753936,804.6407895222833,804.35179788341,794.7519461059452
1731655482.6869662,781.6968836082895,807.0922633047111,804.3360430725429,803.6931323130898
1731655482.6898654,806.2813817264134,809.3488076614966,804.3208836499648,817.143791550702
1731655482.6937678,816.6993142993342,811.4295498535989,804.3063171088355,820.5534244197074
1731655482.6976705,800.6181930452068,813.3770750164458,804.2923407776017,807.765845828944
1731655482.701573,768.3913373290192,815.0983123549192,804.278951979906,786.5176680788156
1731655482.7024302,745.0661200664671,816.3156186827092,804.266147847746,772.549149506742
1731655482.7025323,749.9854764102855,816.5503772141304,804.2539246116529,777.0208513194124
1731655482.7038677,780.7644333264117,815.1732000004016,804.242276714727,797.1469412571132
1731655482.705475,814.6266319939743,811.6621399617636,804.2311968095581,817.5016028200981
1731655482.7093778,826.1788200253095,806.0868441535545,804.2206778170083,821.4110000909967
1731655482.7132802,807.6316399101872,799.5015352497041,804.2107167933084,803.9850422773151
1731655482.7171826,775.1899037947942,793.7513285959934,804.2013173884104,776.4719687606855
1731655482.7180984,756.0272097691975,790.538949239081,804.1924854600732,757.8576292573919
1731655482.7210853,766.0572754840449,790.3040675596376,804.1842151477684,759.9176026436904
1731655482.7213583,796.6871394243445,791.8470589558843,804.1764730029828,777.8674864707161
1731655482.7249875,821.6414393646476,793.1593788280987,804.1692006752138,794.5836428779901
1731655482.7288902,818.3862570796614,792.913578006883,804.1623568720287,795.0357284447346
1731655482.7327926,786.660373347617,791.4506920847689,804.1559897031889,778.8534227762041
1731655482.7336645,749.1627124531284,790.4873385150956,804.150274557324,760.5631560524541
1731655482.7366953,734.0313206110051,791.794147586708,804.1454167373995,757.4912806457178
1731655482.7386496,753.1314674566003,795.8514121940196,804.1413810009191,775.5014209242104
1731655482.740286,793.1009493215314,801.4084257432401,804.1376115635161,804.2169059007904
1731655482.7405975,825.9694524207939,806.1721880758201,804.133136953226,825.4455646811784
1731655482.7445,831.0497478642303,808.120886874524,804.1274178128305,827.8510655407463
1731655482.7484024,810.9251487197614,806.6050408226935,804.1216907466045,815.8547386709911
1731655482.7492306,788.5978581167946,802.5802653665716,804.1195126509001,805.3119764085465
1731655482.7523048,787.7683962358813,797.9017450190088,804.1246535072485,809.4290957755255
1731655482.7562072,812.4405746652675,794.2654999060952,804.1358830401209,826.924754750401
1731655482.759214,843.2707894207091,792.5962230808487,804.1421079564583,842.9310135224391
1731655482.7601097,854.1550473830713,793.1795036146241,804.1253891810053,842.1642385399115
1731655482.7640123,835.0145149161509,796.0370386827128,804.0778918376141,822.9063883960807
1731655482.764797,801.1626575501045,800.8332293695925,804.0265664594001,799.3951514442607
1731655482.7679148,781.1353528070689,806.3333532520667,804.0398037728105,790.3761771700196
1731655482.7718172,793.2516754281787,810.2984520075372,804.1820626195372,803.6259628607739
1731655482.7734315,830.4585390698481,810.5338682813378,804.4121398255227,829.4965523368762
1731655482.7757196,865.7545966403613,806.5708013739206,804.4942897749768,848.6041863706112
1731655482.7781415,873.5122244279022,800.4852561201374,804.0563979991751,847.0874687148224
1731655482.779622,849.4508389274243,795.8497400282158,802.8686567241258,827.1414172463235
1731655482.780363,813.4293347380507,795.4177771794699,801.1729040242725,804.7165599860797
1731655482.7835245,793.0018122535378,799.3116781461953,799.7000904618418,796.4630800936482
1731655482.7874267,801.0568961701963,805.1019216421344,799.2324697856616,806.349343840677
1731655482.7913294,825.7870694543424,809.6051667275617,800.0527593612381,822.6614779030215
1731655482.795232,841.3144866245009,810.9068813100853,801.756403663911,827.9016126439351
1731655482.7959292,830.1198624604023,809.1470005603023,803.5218940938935,813.6376723544575
1731655482.7970695,798.3608258940073,805.8177666114995,804.556650365819,788.1268674641591
1731655482.7991345,771.1105810395676,802.501951835004,804.4414417301194,770.2951404512676
1731655482.8030367,771.520455708493,800.1016051221279,803.2995400103584,774.7932279530944
1731655482.8069394,801.3343178218004,798.8148244777873,801.7988006396839,800.1486105212108
1731655482.8082137,838.855665410954,798.4379142136266,800.9359680353281,829.5277207996172
1731655482.8108418,855.9636489538484,798.6163576368252,801.5611138206017,843.4958476292597
1731655482.8114953,840.3600785715796,799.0067952248601,803.7945882542433,834.6847977388256
1731655482.8147442,805.2247488020191,799.3884452927645,806.7245867093807,812.9231776447086
1731655482.8159976,778.6001158329688,799.6910791520967,808.7522519690358,796.986010971242
1731655482.818647,780.9177595859826,799.9400342519532,808.5345960139558,799.605914306373
1731655482.822549,808.634776984285,800.1816627869189,805.9341353444909,817.6602342592251
1731655482.8264518,837.3663423381608,800.4410164347736,802.2402622013624,835.3748960340188
1731655482.8270614,842.2790715215892,800.7178970836135,799.4179014696937,837.9173497092645
1731655482.8303542,819.1109975901071,801.0012385022304,798.8825486024643,824.1203278645761
1731655482.8342566,788.2115466775689,801.282177054405,800.6429810362013,807.6016420071019
1731655482.8349254,777.9053601472234,801.5583256652416,803.3350681968918,805.2010974940001
1731655482.838159,800.7851146445839,801.8315746863051,805.0375983446024,822.4137146745484
1731655482.8420615,842.5122901395093,802.1044775232912,804.3333846596031,848.0970785227416
1731655482.8426278,872.4211598163574,802.3782839786353,801.0605536954972,862.9790003095973
1731655482.8429954,867.5003084406386,802.6529098255504,796.436031337833,855.081125451014
1731655482.845964,830.6264035572865,802.9277574142999,792.5093180792398,829.5485641354727
1731655482.8498664,788.4826835188361,803.2023894929627,791.1544344844195,804.8624685567489
1731655482.8537688,770.6363605536907,803.4767192762322,793.041738968327,798.2737084288808
1731655482.8538532,786.3058229008292,803.7508739838673,797.1540789179,812.0033657995064
1731655482.8576715,817.4917915951385,804.0250026904897,801.2410943176327,831.4027158055475
1731655482.858194,834.1938063264997,804.2991787787519,803.0985335065885,836.8429906840348
1731655482.861574,819.4179600772419,804.573402547915,801.9649171981075,819.9192907358727
1731655482.8654764,783.4046756697883,804.8476460434707,799.0840515842367,790.7638041934403
1731655482.8693788,755.2175217997069,805.1218929085335,796.9131197961431,770.3052184494785
1731655482.872781,758.582437116573,805.3961584709251,797.417580675919,773.6060923429646
1731655482.8732812,791.9786370397397,805.6704910373228,800.6782121723871,797.7597791621438
1731655482.87376,829.4434359036699,805.9449515857393,804.8803687904472,824.0981365412563
1731655482.8771837,841.4493258992396,806.2195677978066,807.6620314405978,832.8388602110674
1731655482.877777,818.8155314240222,806.494280926466,807.7044523442996,818.3875881466593
1731655482.881086,780.229826840341,806.7689438400618,805.359865050841,793.197550493984
1731655482.8849883,757.3001389164873,807.0434395461274,802.055754957525,777.4069015204802
1731655482.888891,769.2715756291905,807.3179105993852,799.2301334154797,782.8673933739514
1731655482.889326,807.8940347952238,807.5929159229688,797.7015084384677,804.494129019773
1731655482.8917089,844.5814091347147,807.8691918948927,797.6974087737588,825.6262054546203
1731655482.8927937,853.771055319864,808.1468396819233,799.1128726210522,832.4625441513592
