timestamps,eeg_1,eeg_2,eeg_3,eeg_4
1731141877.2109225,811.2386049300621,801.0239961508798,806.8848653646766,794.8236809516595
1731141877.246039,817.3060659832995,801.9073536942799,807.3641199782217,798.8422833458184
1731141877.2811549,816.8567864722638,802.7673647567943,806.6276156748061,799.384215164361
1731141877.3162713,807.0144769469803,803.2676996199373,804.4406452303309,794.6733729342782
1731141877.3513873,791.245749610539,802.7518327017816,802.0231232185982,786.0857009780343
1731141877.3540344,778.811782255224,800.6344223462229,801.5705021440175,778.1967181557895
1731141877.3564303,779.1879939160734,796.9663515591787,804.8471677443251,776.2328251617629
1731141877.3579314,793.9875010806435,792.7246225376945,811.7005224472375,781.8540585682304
1731141877.3618283,813.4046416098075,789.4641342910089,819.7705729953856,790.7532062133454
1731141877.3657255,822.5143162063433,788.427201702416,825.9114055457238,795.1899873705069
1731141877.3696225,814.0118003819933,789.7131970978752,828.3010831482634,790.3845376356415
1731141877.3735194,796.2048848314134,792.1566010289632,827.4454764113191,779.3833496203358
1731141877.374808,787.533379168133,794.0407354412926,825.2571522129277,771.4425248941258
1731141877.3752851,800.8681869835244,794.1575073923075,823.195735246662,774.5175934813715
1731141877.3774164,831.0699673709004,792.5198897517092,821.2371168677914,788.0561739494718
1731141877.381313,857.4648643888453,790.2923866532359,818.4963102378616,802.5400165962906
1731141877.3852105,860.1599370353192,788.9702831236325,814.7302025921285,806.653165425441
1731141877.3865037,836.7802915821187,789.3064239522155,811.1907009286807,796.3778687558519
1731141877.3891077,805.2500193403179,790.7574939800585,809.9087093660204,778.4599063264908
1731141877.3903835,789.7410772163907,791.9920654121571,811.8699013266806,765.2295588880847
1731141877.3930044,801.1888505119464,792.1900064205079,815.6365006124557,764.9346269103496
1731141877.3941395,828.633923920801,792.0328732180079,817.8891894075833,775.5183039632875
1731141877.3969014,848.8043719772259,793.3275445785619,815.9323646436824,786.9908341023571
1731141877.4007983,846.0630142370983,797.3544416846224,810.3483442530023,790.4456302310446
1731141877.4046955,825.9183918720344,803.3392742151901,805.3513028484197,786.1353918239607
1731141877.4059591,810.4738583982356,808.5549742037175,805.9491767147464,783.5840008120625
1731141877.4085925,819.4074971211182,810.1674920567651,813.7855470206814,793.2783495026641
1731141877.4124894,852.465941875846,807.3252439076599,825.0708956249421,816.7553922999782
1731141877.412994,888.3030627500694,801.7695119939162,832.67902869745,843.6234032882888
1731141877.4163864,900.8130053691364,796.6044483924156,831.177707497205,858.5088392814705
1731141877.4202833,879.69405385651,794.3908137676743,821.0464858686282,852.6607725030569
1731141877.4215343,838.7753222716688,795.9941592424994,808.7587621818105,830.928651166242
1731141877.4216194,805.6566786719789,800.6558210672719,802.4708951128135,808.4090669668869
1731141877.4241805,800.8726202182994,806.7399277068004,806.3933919530923,799.282760626386
1731141877.4280777,822.7048443074863,812.4353711327341,817.9916003621704,806.5938885581693
1731141877.4318483,849.3091264251888,816.1785185751431,830.1144204240802,820.9774809763518
1731141877.4319744,856.4884998216568,816.9631531690621,836.3998579723368,829.142928155895
1731141877.4358714,837.1537225206353,814.63684268426,835.7097683944785,824.9739342821204
1731141877.4371102,806.8487449653863,810.0139398093404,832.134865468645,813.9603768592698
1731141877.4397683,790.6581317663561,804.5974305573078,830.839918159896,807.3596343535413
1731141877.4436655,802.1047362159266,799.9627586563444,833.5272671365321,811.3762619369935
1731141877.4475625,831.5675327016207,797.1242457696457,837.4108360749153,821.0450383092889
1731141877.4507031,853.9680011073727,796.2202035274667,838.2496328192444,824.3802482864753
1731141877.4514594,849.3143928287145,796.6399418012976,834.3847325914343,813.251940580678
1731141877.4526856,818.9912454852746,797.4683084053145,828.1267040473185,791.4445135634365
1731141877.4553564,784.4778353870169,797.985082217692,823.4944136579901,772.7332564658731
1731141877.4567356,769.9128707005037,797.9601219854151,822.5541263592993,770.3827313263815
1731141877.4592533,783.041962281465,797.6112122167293,823.6366105035091,786.7226292134671
1731141877.4631505,809.9626577820828,797.291906841067,822.9077142079676,811.2841740103404
1731141877.4670477,827.4594527155797,797.1504005342807,817.8563999532323,828.7839681079527
1731141877.4682612,822.3443312325176,797.0192928923734,809.6805156639264,830.2744717234252
1731141877.4695575,801.7586076478392,796.6108449038419,802.5433667621777,818.6364571711774
1731141877.4709444,786.151825563854,795.8275789929324,800.3668674298192,804.6897273867344
1731141877.4748414,791.1612687207322,794.8930446734583,803.8973969738191,797.9026836372935
1731141877.4787383,813.8308278566743,794.182199219359,810.4163373536828,799.5433038892829
1731141877.4826355,834.8265976746244,793.9172663012938,816.0581571850857,803.3576815144177
1731141877.483837,834.7515638850009,794.0048670132069,818.5361199076123,802.3467398947361
1731141877.4865324,810.8539627092258,794.150352267464,818.0979082296714,795.5156674316489
1731141877.488412,780.1986506740179,794.169620042204,816.4176166220335,789.0446122425835
1731141877.4904294,766.5320067701778,794.272243356758,814.8480856430099,791.0955175873021
1731141877.4918518,781.2172798024467,795.0406862489277,813.5460951907697,804.4632468611613
1731141877.4943264,813.4303314727493,796.9623469140663,811.8358493499022,822.9809890348596
1731141877.4982233,837.7989237575342,799.759228345591,809.1461735621391,834.9664625121746
1731141877.499412,834.0809621260576,802.1448945098074,805.6756873121515,831.7215065907995
1731141877.5021205,803.5210416705454,802.5001324400162,802.3446372880702,814.7733781511681
1731141877.5060174,768.4079576701095,800.1703821191944,800.1073555404413,795.7695162291968
1731141877.5072663,754.5814969096235,796.3196457028031,799.1539784308942,788.334731683833
1731141877.5099144,770.915008232283,793.4219128334872,798.738552377674,797.8781270481305
1731141877.513811,802.729834948341,793.6023414178151,797.9583590919757,817.5014327632256
1731141877.5149877,824.4783615709194,797.1347340056375,796.8563417427666,833.4553599758474
1731141877.5177083,820.7614428590481,802.3368636285779,796.6742305463634,835.8022435571502
1731141877.5216055,798.1313321590086,806.8857888598391,798.7927708835758,825.769763934124
1731141877.5255024,778.5807288816977,809.3792421452939,803.2790112574012,814.172958150746
1731141877.5261211,781.033211336157,809.9121334994198,808.4528311575352,812.4988864205025
1731141877.526968,806.2135418734783,809.4496744058791,811.8845240102238,823.7456082963205
1731141877.5293994,836.4909639216619,808.8016626749595,811.9122323146676,839.9082420872734
1731141877.530563,850.0896412786864,808.1375491697692,808.5318158716274,847.8577127401893
1731141877.5332963,838.2702146819303,807.2837444087311,803.3031169676522,839.2192375457546
1731141877.5371933,812.1484406442474,806.288851220923,798.604061584604,816.8759911888374
1731141877.5410905,793.7692546904334,805.6154830519998,796.5880865447202,793.0435341307701
1731141877.5449755,798.3321090474963,805.821198066492,798.0722288439083,780.2460373375907
1731141877.5449874,821.8454194159485,807.121542800739,801.8199289803877,782.3155831164938
1731141877.5461388,844.4973060911991,809.2391346767379,804.9238105289298,792.6735067537397
1731141877.5488844,847.1623375864236,811.5388302957109,804.5169059421983,801.0130157040161
1731141877.552781,827.362432843492,813.199898664452,799.8984334085218,802.330524934862
1731141877.5566783,801.3966019604562,813.3503529516006,793.4058215498426,800.5192467997982
1731141877.5605755,790.995971101109,811.3306223288282,788.9952002676534,803.8425623248396
1731141877.5617142,805.6361118897825,807.1384138970631,789.270166339203,816.6861949076507
1731141877.5620842,834.8713837675662,801.7539634022843,793.1820537257294,834.8628096692414
1731141877.56383,856.6726003576085,796.9444651973125,796.4240739245361,848.434565414206
1731141877.5644724,854.9998920131023,794.5037907228885,794.5783623472802,849.6891882037381
1731141877.5683694,832.6040371501703,795.3667476879207,786.7682353994121,839.6200463507685
1731141877.5722663,808.6661885118234,799.1589356384345,776.8402852815829,827.2954584984102
1731141877.5761633,802.876849031818,804.3885024174705,770.8419367192347,822.2676070775891
1731141877.5772898,818.875686658422,809.0388338026073,772.6089948137254,826.2559571022043
1731141877.5800605,841.0771284033528,811.2367538102359,781.040674771591,831.4193993987666
1731141877.5826845,847.9800197097353,809.9106064030846,791.3278874623885,827.1113525741575
1731141877.5839574,830.9335611236545,805.418683234396,798.9689511048587,809.5571296318989
1731141877.5878544,802.3561099392687,799.8020156063742,802.9708206727884,786.1263503253499
1731141877.591751,786.1607675296975,796.1105830173213,805.5376112822639,770.3909824442103
1731141877.5928652,798.1120100218502,796.7681719860401,808.9423364347849,771.9268911713625
1731141877.5956483,832.2369618627971,801.8956349967754,812.856262269473,789.0654519247474
1731141877.5972004,864.4582484752208,808.8917976926999,814.7205983918807,810.2208359210562
1731141877.5995452,870.7879920613824,813.8186916723595,812.6201888053598,822.5997013405685
1731141877.6015391,845.8943766298542,813.8195387709937,807.6872985126311,821.5741752793834
1731141877.6034424,807.3794729139541,808.9904192401733,803.572104739473,813.6168334492229
1731141877.6073394,782.0285542822103,802.425397342842,803.329349827242,810.4656253710002
1731141877.6084406,784.6094823114048,798.3331111534496,806.5327769519774,818.870061393063
1731141877.6112363,806.3955666515266,799.4136222851683,809.3494590423276,834.1542116212
1731141877.6151333,823.2805886463433,805.2311138378199,807.7623609618227,843.4211197402741
1731141877.6190302,817.0307380391906,812.6653558431354,801.3005836801997,836.4602083027282
1731141877.6203935,791.4974357994042,818.047334144401,793.9786927317798,815.3647887620751
1731141877.6229274,769.4431999737832,819.3919433301239,791.3473935779297,794.1656047032496
1731141877.6240163,772.4378467376356,817.2113734717798,795.8744245525803,788.0440453621426
1731141877.6268244,801.3126613022843,813.6258953835537,804.4904925355931,800.9365306006792
1731141877.630721,834.3922240412967,810.7532032368033,810.5496294137638,822.1831953542763
1731141877.6323166,845.3623165340572,809.6026953657617,808.8708808376872,835.3880534700196
1731141877.6346183,825.6810601666258,809.9456768313883,799.9210882104815,832.2078960182791
1731141877.6385152,792.4339345050657,810.7917357560897,789.7746702558139,819.3483847810276
1731141877.639248,774.6503874764218,810.9367792952485,785.7982259915951,812.5253008132797
1731141877.6395917,789.0753973534928,809.4289021526313,791.3632883041099,822.1542580194881
1731141877.6424124,825.4041160718095,806.034882208037,803.6157704482546,842.9104454688843
1731141877.6463094,853.5955408162577,801.5664143594607,815.8885864231087,856.5704480622185
1731141877.6502063,847.8440870413658,797.6746876780036,822.688965560568,846.511270572002
1731141877.6541033,807.7869341742198,795.9875177596241,823.2561814942552,812.0747169641727
1731141877.655167,759.4940959432483,797.0953228719085,821.0732260105169,770.7094488176165
1731141877.6580002,735.4207593437418,800.1736439745025,820.2407688195455,745.8905984670763
1731141877.6581025,749.6616472793653,803.5709827743686,822.1450146292709,750.4271057438438
1731141877.6618974,788.0557407970304,805.9062344665041,825.1421996084835,777.9595226418519
1731141877.6657944,820.0613587973817,806.8308362299281,826.9299904945988,808.3376925784837
1731141877.6674328,822.20907266714,806.9087722269704,826.9535018198276,821.9752272536974
1731141877.669691,794.9493267932012,806.7744295168543,826.6668252067593,812.5567308661205
1731141877.6707428,760.8161928331573,806.3272648556572,827.8432551511979,789.7771696270642
1731141877.6735885,746.2643526725255,804.7605796957686,830.8283538439287,771.2544757056673
1731141877.6769571,761.4582624654317,801.5472826403105,834.237510722464,769.937852871213
1731141877.6774852,793.376860897572,797.5348970154947,836.0063720218067,785.8548452423591
1731141877.6813824,817.1803810805942,794.9383306166972,834.6842143602217,807.5723934187068
1731141877.6852794,816.4850743722735,795.861946933426,830.0924250839222,821.6073025458659
1731141877.6863184,796.1007800692342,800.455766630868,823.2269147359266,822.2041564470245
1731141877.6891763,776.9985717489451,806.4331035063101,815.6844577189735,813.9444147018304
1731141877.6930733,778.0335019235127,810.5981487821307,808.8825868092897,805.7714021740996
1731141877.6958115,799.889940943287,811.1702703548378,803.3707747534817,802.2286273721018
1731141877.6969702,824.6009538126993,808.917068966481,798.684876048402,799.8383291027342
1731141877.7008674,830.863502037436,806.2218371025346,794.0443015361366,791.7557229879191
1731141877.7018938,812.3700487477661,805.0685569878838,789.5025844601702,776.2962319434963
1731141877.702549,783.9661359875918,805.716545975222,786.4893768442831,761.176799340607
1731141877.7047644,770.2544682502884,806.9684959444039,786.9116443616297,758.727149800346
1731141877.7086613,785.5042433167515,807.459503319879,791.252683731254,775.3173879858508
1731141877.7125585,821.2310953462973,806.7217665592893,797.3531151567461,804.069951574198
1731141877.714666,852.2348954068441,805.2970201710498,801.3754663694344,828.0616696232485
1731141877.7164552,856.8998187473364,804.1215781325037,800.6122460779106,832.495667932471
1731141877.7174692,835.1083844742088,803.8752622882579,795.834785663292,816.0685484263856
1731141877.7203524,808.3091456279345,804.7479253512367,790.8612630134131,791.740696050299
1731141877.7242494,801.2148259622522,806.5865054740419,789.3659054060867,776.0237900450704
1731141877.7281463,820.7306810696887,809.1228529583927,791.6163777066445,775.9308900037702
1731141877.7320433,850.3097151200099,812.0443110621087,794.1385665166221,784.6208920761262
1731141877.7330449,864.2494578550034,814.8853279666467,792.7674198533563,788.7811887871959
1731141877.7335205,848.9893092997149,816.9190705665304,786.4799536377379,780.5068813131994
1731141877.7359402,813.0974335895503,817.2944836575496,778.657394059323,763.2396212653969
1731141877.7376652,778.5496592789575,815.5004142289075,774.6061163768003,747.5123252534204
1731141877.7398374,762.5544086985429,811.8926688392454,777.3215222843477,741.5317044096412
1731141877.7437344,766.3840185748475,807.7923816437839,784.9663644177284,745.4555497069332
1731141877.7476313,779.1121891541123,804.8809336651017,792.1704527046833,753.4472506772638
1731141877.7486205,789.290260745842,804.2054696011044,794.1442411835061,759.7058954176515
1731141877.7515285,792.534783134227,805.5366022312847,790.2752960028029,762.213906955587
1731141877.7523751,790.8402550893948,807.6114984969126,784.3117907718909,762.1933984873987
1731141877.7554252,788.0030380012013,809.0843916014875,781.1087914764056,761.6698363387052
1731141877.7593224,786.3216314120016,809.4371420586805,782.7709037962347,761.8052390528923
1731141877.7632194,786.0470134733639,809.1781997730062,787.3883317032945,762.6830152528516
1731141877.764196,786.4038751550038,809.2685904773153,791.1545271605737,763.8770018808904
1731141877.7671163,786.6637218590972,810.3033682361169,791.6996663396951,765.0104074093418
1731141877.7710133,786.574558375391,812.0897130569542,789.663856136367,765.9638976445842
1731141877.7712295,786.2470966092801,813.8864429444584,787.4618626073288,766.8037424570606
1731141877.7727811,785.8789718234714,815.0461708258962,786.8386106709647,767.6348223643067
1731141877.7749102,785.5818143950646,815.5130545123521,787.6326231825025,768.51327790227
1731141877.7788074,785.3606360063919,815.7628910781781,788.5796439938694,769.4394047513744
1731141877.779771,785.1715817881175,816.2376289313861,788.8552332282534,770.3894895822395
1731141877.7827044,784.9772862662559,816.7829558643126,788.6615975037175,771.3444946291224
1731141877.7866013,784.7666130013439,816.6424730956031,788.639011230632,772.2994656827051
1731141877.790084,784.5467520857753,815.080574687961,789.1320758262794,773.2587763729531
1731141877.7904985,784.3283742832023,812.089023702673,790.0382057731903,774.2282560850074
1731141877.7943952,784.1170769574386,808.4921514164043,791.077289068357,775.2108970546617
1731141877.7953467,783.9128792322342,805.3074469085725,792.0518800141496,776.2067821420238
1731141877.7982924,783.7134923288434,802.9448081572571,792.918229070233,777.2148717837817
1731141877.8021894,783.5171690765385,801.0024549602523,793.7243048184922,778.234473389041
1731141877.8060863,783.3235919111265,798.8364708042249,794.5269925295471,779.2656559419373
1731141877.807897,783.1333627205,796.3096002608485,795.3513058893309,780.3089519784692
1731141877.8089385,782.9472104270998,793.9565983860865,796.1928913776774,781.3649393380864
1731141877.8099833,782.7655726323912,792.4497961852073,797.0374943028509,782.4340325840274
1731141877.8109224,782.588599987229,791.9964497492816,797.875525769476,783.5164950141182
1731141877.8138802,782.4163398525413,792.2629461126397,798.7054133347739,784.6125380297193
1731141877.8177774,782.2488815078243,792.745763673338,799.5300341784149,785.7223955197213
1731141877.8216743,782.086391822312,793.1225531469727,800.3524026802771,786.8463398761974
1731141877.8255713,781.9290789407295,793.3306112778791,801.1737317338582,787.9846615799776
1731141877.8264978,781.7771480044271,793.4516293727576,801.9937256092795,789.137645845786
1731141877.8277931,781.6307876126987,793.5762414435776,802.8116490091616,790.3055654105096
1731141877.8294685,781.4901893287403,793.7416165635445,803.6270617798779,791.488689898731
1731141877.8333652,781.3555752497339,793.9384964533219,804.4399507314729,792.6872992977509
1731141877.8372624,781.2271965454536,794.1433777386216,805.2505196566091,793.9016839176212
1731141877.841159,781.1052776120782,794.3412936248154,806.058963279803,795.1321188823251
1731141877.8420734,780.989926926058,794.5302878098785,806.865375512828,796.3788224716429
1731141877.8430135,780.881104810421,794.7152133066224,807.6697734867595,797.6419395135257
1731141877.8450563,780.7787689854756,794.9008141400617,808.4721577047723,798.9216060292132
1731141877.8466475,780.6832187300225,795.0888204886108,809.2725509701348,800.2181068664083
1731141877.8489532,780.5953985151586,795.2785836034717,810.0710021839419,801.5320191074951
1731141877.8528502,780.5166653997289,795.4688353896435,810.8675675208957,802.8641134158353
1731141877.8567474,780.4476473325058,795.6588319271882,811.6622878651525,804.2148355882324
1731141877.8576488,780.3866464219972,795.8485176875033,812.455179843185,805.5835650359396
1731141877.8606443,780.3293046259449,796.0381662214148,813.2462537673811,806.9684319332292
1731141877.8645413,780.2716920720702,796.2280203415543,814.0355582726493,808.3676994810338
1731141877.865502,780.2168682711851,796.4181569222305,814.8232218371775,809.7827775875863
1731141877.8684382,780.1799847115028,796.6085327310079,815.6094306077607,811.2206506880801
1731141877.8723352,780.182576016083,796.7990794422769,816.3942935154727,812.6914128651065
1731141877.8732245,780.2299966948542,796.989760429061,817.1776421346838,814.1980028408229
1731141877.8762324,780.2824458541071,797.1805756459169,817.958968939331,815.7227138151195
1731141877.8781295,780.2531967633904,797.3715411531434,818.7377762967774,817.2258110192627
1731141877.880129,780.0726985285571,797.5626705380893,819.5143731906703,818.6743305530724
1731141877.8840263,779.8127647795005,797.7539687623645,820.2905553743201,820.0992402083828
1731141877.8843565,779.7700792363888,797.945435195393,821.0690257554782,821.6355192427641
1731141877.8879232,780.3338281000122,798.1370687009844,821.8507265912127,823.4643221328406
1731141877.8888,781.5440387037007,798.3288704271296,822.6311916114453,825.6116829314036
1731141877.8918202,782.5739784723359,798.5208438635758,823.3999208096425,827.706908100619
1731141877.8957174,781.7932418417338,798.7129936863232,824.1476964206153,829.0009586107219
1731141877.8996143,778.1052891551801,798.9053247991408,824.8817393187855,828.9708376758889
1731141877.903211,773.352341023106,799.0978420542798,825.6370743156442,828.4329073564425
1731141877.9035113,773.8511074943768,799.2905504344753,826.4625557223748,830.2961525616527
1731141877.9043753,788.115576418933,799.4834553135959,827.3682600056719,838.6114117458642
1731141877.9074082,820.0136659895797,799.6765625816128,828.2594920078416,855.538534720517
1731141877.9113052,862.0308540173139,799.8698786258574,828.9356415670103,878.2302254934243
1731141877.913246,896.40047437111,800.0634102542506,829.2417625617825,898.9313018565118
1731141877.9152024,906.4155711801947,800.2571646329678,829.3556813707578,909.3437989579284
1731141877.919099,889.7210494414016,800.4511492600709,829.9747893476967,906.2211113127792
1731141877.919951,861.4420268490518,800.6453719613213,832.0032538262705,893.680550337467
1731141877.9220655,843.0545548062204,800.8398408878537,835.5480810231521,880.3104854612238
1731141877.9229963,845.5010807142963,801.0345645053029,838.817208707841,873.1107813454762
1731141877.9268932,860.6073135962383,801.2295515747732,838.3705923540031,872.6309530751047
1731141877.9307902,868.4850416736837,801.4248111304836,831.6275837218906,873.0921193753328
1731141877.9346874,855.3452567100823,801.6203524578493,820.0203826663088,867.8792414845586
1731141877.9355264,826.8524475433026,801.8161850729844,809.3725679976802,856.3241484251732
1731141877.9385843,805.09135285287,802.012318702801,806.099491315877,845.754221343573
1731141877.94092,810.7130598492957,802.2087632645948,812.0924995964878,846.0516774991207
1731141877.9424813,844.7278644126679,802.4055288445674,822.8378012120806,860.5767149308144
1731141877.9463782,885.4455395655341,802.6026256754263,830.5577144222274,881.3644613484842
1731141877.948362,903.9460010008344,802.8000641136379,829.8183334595367,893.6512944458253
1731141877.9502752,886.1920678417755,802.9978546170016,821.140105296484,886.935534315142
1731141877.951102,844.1597311079602,803.1960077228281,810.0443086994223,863.7449747633065
1731141877.9541724,806.9405775192422,803.3945340260658,802.6916245111784,838.5943352393316
1731141877.958069,798.7581859144311,803.5934441557157,801.6678419203497,827.4790635433227
1731141877.9597745,821.3106648186147,803.7927487479609,804.907731155199,836.1366585020611
1731141877.9619665,854.2667562268317,803.9924584169347,808.0722892216652,856.4661115764534
1731141877.9658632,872.9409096288323,804.1925837285373,808.160840932432,873.7782909343146
1731141877.9666774,868.2768760868811,804.3931351853475,805.5456224440013,878.5793198310622
1731141877.9697602,852.8017148084162,804.5941232252047,803.1396698288472,873.0581993294164
1731141877.9736574,848.3114980546849,804.7955582196605,803.7038787474,867.3557359083457
1731141877.9775543,866.3266648179042,804.9974504405271,807.5779407143674,869.5890610996598
1731141877.978629,897.881328111708,805.1998099672137,812.5046656431888,878.6349912160031
1731141877.9814513,920.7936629378121,805.4026465576792,815.4071086464653,885.6985451214824
1731141877.9822533,917.9228386539002,805.6059695893765,814.5618669249124,882.7686201067925
1731141877.9834783,891.2735542569876,805.8097882163626,810.5973390333033,870.2411976250299
1731141877.9853482,860.5772203054413,806.0141117689361,805.817379383882,856.992323630704
1731141877.9892452,847.5685793578747,806.2189501051623,802.5046885291242,852.8072460690703
1731141877.9931424,858.6613975198659,806.4243133087093,801.4053792821323,859.6916641758639
1731141877.9970393,880.2023291767453,806.6302102751079,801.4122019858161,869.7448933592331
1731141877.9974835,890.4672267951198,806.8366467378502,800.6858685601547,871.872026647148
1731141877.9978285,878.6906932044018,807.0436248324087,798.4133813510168,861.9453130015487
1731141878.0009365,855.1262785184774,807.2511468447334,795.768377256254,847.5858534846058
1731141878.0048332,843.2040792433373,807.4592232196346,795.0961895867955,842.8333418179627
1731141878.0087302,859.8155008647236,807.6678788130387,797.7950911067497,856.5161148131424
1731141878.0126274,900.0029910059534,807.8771459457201,802.6397010035021,883.845704741619
1731141878.013404,938.9947407206444,808.087036825266,806.1277259704375,908.4851863717057
1731141878.016338,950.3835444800682,808.2975080361781,804.8202779309313,913.8844460498461
1731141878.0165243,926.1896718583284,808.5084581767987,797.9619620075032,895.2229467211534
1731141878.0185945,883.067923033511,808.7198060302179,788.3325455484767,862.8727873475492
1731141878.0204213,849.7738614195918,808.9316424468954,780.53845225002,834.8681078245409
1731141878.0243182,845.5567655503964,809.144332914265,777.8681810789056,824.1635794731377
1731141878.0282152,866.2848814565806,809.3583562800017,780.0644662589262,830.3104047560971
1731141878.0289795,889.1521113765958,809.5737640638836,783.8873307794032,841.6817971443472
1731141878.0321124,891.9845390547414,809.7895430436221,786.183923235835,846.0183016214972
1731141878.0351925,871.2113581163921,810.0036794092298,786.8692221533531,840.3842077996258
1731141878.0360093,843.6664100109864,810.2147618989834,788.9603494585837,832.3236914795469
1731141878.0399065,831.0647946070733,810.424835034009,795.3374859449455,831.724514157286
1731141878.0438032,840.7423084159819,810.6410132575576,805.1544713346605,840.9623987205506
1731141878.0445547,859.2560747019401,810.8718665426534,813.5111996061831,852.132534361895
1731141878.0477002,864.124517878762,811.1168981037082,815.1045943157783,853.6139508078942
1731141878.0515974,843.3895676060445,811.355253728814,808.765459333391,840.0078062987794
1731141878.0537107,806.3222304266943,811.5490778272933,798.8098946673759,816.9211206791914
1731141878.054047,776.3834094081236,811.6761321283362,791.9172567023305,796.8224927701168
1731141878.0554943,772.3244872852831,811.7832780105011,792.1035226057187,789.5840345485894
1731141878.0593913,792.8998830678654,812.0113691357151,797.8599449867387,795.249596734386
1731141878.0601306,817.7682524846318,812.5193417632988,803.6302966533294,804.5112222144621
1731141878.0632882,824.1683607007415,813.2899757864093,804.3072689353833,806.3584498428417
1731141878.0671852,805.9037034602804,813.960692328227,799.141408128149,796.8596436865182
1731141878.071082,778.6959697065366,813.9595420512217,792.0509928438108,782.0918907978235
1731141878.0729015,766.9059269492343,813.0184713829923,788.2651000678995,772.828544378682
1731141878.0749793,782.45146294874,811.5836320988932,790.1711912095462,775.3531447297785
1731141878.075706,813.8280701791738,810.4953513094858,795.7579789888987,786.0624203709825
1731141878.0788765,834.8195104277991,810.0691725296992,800.7088399187643,794.3078990029716
1731141878.0827732,825.7584816363078,809.5340048812442,802.0713825631511,790.9296844570495
1731141878.0866702,789.6284851878133,807.552544344733,800.282946558386,775.3441386473329
1731141878.088827,749.8648740278709,803.4690440170467,798.0840523517808,755.6808407899488
1731141878.090567,732.0178226918381,798.1907104214179,797.713630033923,742.4118541528544
1731141878.0912817,744.293296179477,793.9240737789934,799.0814060746377,740.8643887752943
1731141878.091756,772.2517447118679,792.9493583427453,800.391918216711,748.2877410884205
1731141878.0944643,791.3255617938271,796.3020409084469,800.3624451251319,757.2506482696926
1731141878.0983613,786.8676655317968,803.1651208298289,799.8572783394701,762.2964418746266
1731141878.1022582,765.6748775382806,811.2104096199889,801.3766992693428,764.3107715889396
1731141878.1061552,749.6621667353711,817.5855377122837,806.7001622785245,768.7554166090201
1731141878.1068573,756.73915186181,820.0276982396033,814.6135486781507,778.9792868826547
1731141878.110052,784.6967633900574,817.6696362273415,820.8111670972946,790.5125409012979
1731141878.1106105,811.8081715531392,811.2978502140901,820.5058281090443,792.2160537196263
1731141878.1139493,814.0614647864855,802.9942856495387,812.046300110182,774.5903653414485
1731141878.1178465,784.9654783480245,795.269006295908,798.7198336160527,738.9122247525388
1731141878.1217432,741.6421490630815,790.0276899222671,787.0559302158979,699.2463663890018
1731141878.1224325,712.201687263981,787.8890112839657,782.6429220190428,674.6478967149079
1731141878.123943,714.4917095214118,788.2337718863657,786.511352215427,676.7382870460103
1731141878.1256402,742.9058155501738,789.9074183826914,794.7476162028541,701.7774552166021
1731141878.129465,773.3482228638755,792.0464240623536,801.5088058459656,733.2532747635723
1731141878.129537,782.3607560106866,794.4530520540037,803.0987710900094,753.3008019492011
1731141878.1334343,765.5202725109212,797.3492507181512,800.1524595846465,754.6485263710715
1731141878.1373312,740.5671527182454,800.8410980059375,796.541385469532,744.2432149727911
1731141878.138008,732.4885485583666,804.5980035986732,796.0607523011334,736.0371291613329
1731141878.1412282,752.4097456452743,807.9882818752232,799.4964282351497,739.0288311637903
1731141878.1451252,787.75200548396,810.4883839288943,804.2380561841495,750.4243116221999
1731141878.1483195,812.1966231431721,811.9753193246117,806.5914985410122,759.25465217882
1731141878.149022,807.4087087438012,812.6705778430561,804.896290281789,756.7980895474392
1731141878.1529193,778.374878585992,812.8526522208688,800.9928519682047,744.5884366289683
1731141878.1535835,749.4831323394237,812.6615055164114,798.8687839103269,733.269686370783
1731141878.1568162,744.6111347681082,812.1778950222882,801.4597102237632,733.5235250669143
1731141878.159059,767.6994416442963,811.6066257946134,808.0371756382842,746.8377733997112
1731141878.1607132,799.6652015332552,811.2265898513281,814.3172822836592,763.835724171398
1731141878.16461,813.99972353278,811.051206183748,815.4771813042984,771.6611126867045
1731141878.167174,798.279370150068,810.6007722899745,809.9722333221335,764.5881094918799
1731141878.168507,764.1908740995332,809.2209737322843,801.1515353631969,749.2664689036981
1731141878.1691592,738.023957278546,806.798270918468,795.1116251085891,740.0085932140721
1731141878.1724043,739.3996975185964,804.1402083295554,796.1744934146666,747.4097266130611
1731141878.1763012,765.6071507547498,802.4877518387389,803.5293122017342,769.2856916176597
1731141878.1801982,794.3676837580639,802.5201195253767,811.9158714232783,791.5596939347414
1731141878.1840951,802.6105877904041,803.8073846158053,815.9528358336984,798.8915153421939
1731141878.1847346,785.5255722083006,805.2327944877574,814.5047081550701,786.7307146760112
1731141878.1860285,760.0505997631192,805.9074442349978,811.3113658975572,765.0243892291163
1731141878.187992,750.1204048690846,805.6552942264152,811.3510216282231,750.4725031687815
1731141878.1918893,766.1859336221993,804.7102895903773,816.2182610802822,753.4973877785659
1731141878.1941752,796.0704118809346,803.1476165514866,822.6641803213074,770.3321368142363
1731141878.1957862,814.7197149459752,800.7851484155779,825.5463013941643,786.4843445981121
1731141878.1996832,804.8707800018013,797.6593858870907,822.4358802773356,788.7167171907049
1731141878.2003102,771.6894813044889,794.4553229550753,815.6812423647256,775.8654990217673
1731141878.20358,739.2144648775696,792.2677271991598,810.1121632394455,759.7376169880731
1731141878.204883,731.2424426906895,791.7940894258272,808.5827301338628,755.3653307825715
1731141878.207477,752.2097662613371,792.721970117526,809.5215762663827,768.6456477020421
1731141878.2113743,783.9046517325725,793.9607534784072,808.7800660371172,791.597596030345
1731141878.2152712,800.819675978609,794.5803327584376,804.0461973159579,809.0836134624838
1731141878.2158856,791.2905208832738,794.6394207307228,797.6434587045808,811.1475089690347
1731141878.2191682,766.7081075978532,795.1680070887752,794.9778767615336,800.5202406393167
1731141878.2230651,751.3818576913319,797.3122862348446,799.9146344030449,789.3457371593424
1731141878.2237377,762.0284927237119,801.3500958688038,811.1917073939513,788.5575270458731
1731141878.226962,794.1023178630508,806.335351167882,823.0143016991215,799.1383076635008
1731141878.2292914,825.7743568732101,810.5719893597169,829.2503296823796,812.0663335994387
1731141878.2308593,835.6361315372077,812.5133088269554,827.6580255859802,816.0877661096059
1731141878.231461,819.5512820838995,811.5093002671692,820.8554172888497,806.4898692529737
1731141878.2347562,793.3788496356369,808.0631333662259,813.7004285110897,788.1537106259563
1731141878.2386532,779.7518302614575,803.5691774017041,809.6030704011397,771.2470895912294
1731141878.24255,789.6678320111847,799.6815910490224,808.7185651164071,763.5070195071331
1731141878.242592,813.7317394941444,797.564584387626,808.9792857915256,765.1432281110223
1731141878.246447,830.1895999458987,797.3686618593629,808.5128297728272,769.9184693905484
1731141878.2470367,823.2913522400851,798.2455417865062,807.2046305929015,771.0759054417588
1731141878.2503445,796.9795586062107,798.9384831628869,806.3461534022741,767.1736908310766
1731141878.2542412,772.5876833924133,798.5976738604197,807.1004748806687,763.1880774412386
1731141878.2581382,772.2280408225822,797.2922429400678,809.3203030831564,766.1258527956574
1731141878.2614465,801.1193465664921,795.8965170195098,811.6392165337646,778.7727730285621
1731141878.2620351,842.8428550287645,795.4577033739449,812.5530443493705,796.6774847105144
1731141878.262612,871.2068614348196,796.4757736732399,811.5078873445945,810.9408259608241
1731141878.2644076,869.5829300676711,798.5493831746343,809.2094060792957,814.824510419304
1731141878.265932,843.0287990856965,800.6037706970151,807.0525787202905,809.0515908504555
1731141878.2698293,814.0032088695924,801.5670753651066,806.1347012797953,801.4174437175242
1731141878.2737262,804.8865996763244,801.0636694665959,806.4970265422006,800.7064795420208
1731141878.2776232,820.8166259560955,799.6322649968447,807.0979478603866,809.6860512080164
1731141878.2781878,846.4344091729338,798.2758432269126,806.6209577982988,822.9900721709862
1731141878.280301,859.210570202425,797.6646638014281,804.630444066491,831.6654347218919
1731141878.28152,848.4499616978554,797.624160383523,802.1402256389119,830.3724294804111
1731141878.2854173,824.2230865230993,797.3283190659148,800.921057201922,821.0318414698909
1731141878.2893145,808.7731218172453,796.0407226561592,801.9862773898294,810.2515052962399
1731141878.2932112,817.5815589853663,793.8056816145504,804.6929357706573,803.6751057206102
1731141878.2937632,845.8748715008929,791.5454078281242,807.3911075950256,802.5774255577124
1731141878.2971082,871.7507701174009,790.4755484348055,808.853075819424,804.750461775197
1731141878.2991557,873.417472333611,791.2497254026147,808.991057138856,807.406024767479
1731141878.2995238,846.6946985219254,793.4634332041637,808.4611825615057,809.0970619356679
1731141878.3010051,808.7945083666398,795.9368513622662,807.9198163270406,809.8159519169151
1731141878.304902,785.2122663077146,797.6231947535483,807.6427081619249,810.1652454240681
1731141878.3087993,789.9223302976667,798.426134549184,807.5792706077003,810.6290438552437
1731141878.3093388,814.7059793461971,799.1879015133106,807.5733635082433,811.3367809428916
1731141878.3126962,836.4526168546026,800.8027353791018,807.522048013856,812.1842585377475
1731141878.3165932,836.583449021278,803.2619820134629,807.4098991331072,813.031965032019
1731141878.31801,816.37339708468,805.5765875045122,807.2688508574965,813.8124856687122
1731141878.32049,795.2058965180958,806.7027052340757,807.1312730052786,814.5316563833956
1731141878.3243873,793.3656979827699,806.5790214355005,807.0095066069564,815.2233025730967
1731141878.3249142,814.2450486530732,806.2188373564376,806.899574587483,815.9123007952314
1731141878.3282845,841.1828721591181,806.7116924152796,806.7929702181879,816.6042959618927
1731141878.3321812,851.4551342169882,808.0922201782394,806.6845535137268,817.2933006896908
1731141878.33464,835.3956204134089,809.2087007581486,806.5738413225555,817.9722329562342
1731141878.3360782,804.5725418798432,808.7709232235942,806.462651774603,818.638131821204
1731141878.3368645,782.330518081589,806.6124032174965,806.3526533668195,819.2918238814975
1731141878.339975,784.6268722612709,803.9810377356551,806.2444044350638,819.9354087896091
1731141878.3404896,806.9645006403179,802.5611211445249,806.1376339214884,820.570377086642
1731141878.343872,828.1903294596816,803.0651107717547,806.0318813553392,821.1971827018879
1731141878.3477693,828.1165407054683,804.5952211202679,805.9268922332442,821.8157237242984
1731141878.3516662,804.4595685371572,805.3069535721284,805.8226603097058,822.4259268810115
1731141878.3555632,774.9912677801354,803.8383646342643,805.7192879594818,823.0279999160097
1731141878.355719,763.0023945640082,800.3876144334214,805.6168507213172,823.6223299928703
1731141878.3560653,778.0619155796184,796.6403704155724,805.5153478613967,824.209219717592
1731141878.35946,807.9093597523974,794.6456173090677,805.4147313707931,824.7887046693629
1731141878.3633573,828.0752484963903,795.4897191041374,805.3149713348614,825.3606657954793
1731141878.3672545,821.4149299901405,798.691772970617,805.2161104247834,825.9253030079319
1731141878.3697562,791.9141902453907,802.6588612976742,805.118258184284,826.4836993709749
1731141878.3711512,761.8275183017354,805.7733941748462,805.021489444806,827.0377958121519
1731141878.3716407,754.3836466263606,807.2895430772877,804.925677223908,827.5890734126616
1731141878.3745737,775.5742487309163,807.4683540891773,804.8304086343016,828.1361697162353
1731141878.3750482,809.3330543184275,807.0542308957758,804.7352059204403,828.673482263997
1731141878.378945,830.0985455272385,806.6625053649464,804.6401310481181,829.1940896645826
1731141878.382842,823.0225518453803,806.5191962224943,804.5464041314611,829.6984626685993
1731141878.3867393,795.6231078531758,806.5582305963361,804.4561575183952,830.20397955492
1731141878.3872163,771.240821003021,806.6346310109872,804.3705382647125,830.7424810357016
1731141878.3906362,769.5978393526678,806.6618391240588,804.2867268734784,831.3335537897162
1731141878.393428,790.6626162166737,806.6330646938528,804.1967679158271,831.9401800244506
1731141878.3945332,815.2657380645921,806.5802385765728,804.0923148957701,832.4478191141282
1731141878.39843,821.7267997604174,806.532051451101,803.9762352862758,832.7283707971241
1731141878.4023273,804.3784834638961,806.4979020198621,803.8733005888818,832.8085049636187
1731141878.4027915,778.5267360147748,806.4730386167035,803.8231914654044,833.0357043354813
1731141878.4048724,767.7922054376636,806.4496064765179,803.842476666855,833.9963821744876
1731141878.4062245,784.287454259287,806.423333606771,803.8695252685366,835.9724456395943
1731141878.4101212,818.0037325599017,806.3941653742346,803.7493190464303,838.1023982119154
1731141878.4122825,844.4488379994142,806.3639017564674,803.3317128892472,838.038766990201
1731141878.4140182,844.6720405667601,806.334022491135,802.686306687955,833.1481878091137
1731141878.417915,821.1992465474808,806.3049518805286,802.2624512054275,823.2174191994313
1731141878.4183674,796.1942519914909,806.2764021083835,802.6895002994261,812.2628703786496
1731141878.421812,792.8504175291203,806.2479663450929,804.1380606772916,806.2882338961994
1731141878.4257092,815.5194378512924,806.2194492090771,805.7567272637026,807.6391896789827
1731141878.4296062,845.5665840036495,806.1908772273337,805.9415034938635,811.5491807505097
1731141878.431137,856.6562758980973,806.1623626709761,803.5009880755747,809.4569450546242
1731141878.4335032,836.6379294999897,806.1339861250399,798.7936259958468,796.7981769388861
1731141878.4339428,797.7879872867087,806.1057601669083,793.7754374522217,778.0798923967782
1731141878.4374,767.1332807230635,806.07765772151,790.7766201742472,764.2867552944632
1731141878.4399886,765.0030121996622,806.0496645573702,790.8765617517962,764.4396340318239
1731141878.4412973,789.2371323553543,806.0218191089915,793.0946146715742,778.21034352324
1731141878.4451942,817.5978264672101,805.9942075106648,795.0343815659143,795.7957091362954
1731141878.4490912,826.2125767096227,805.9668927032088,794.5672298403432,805.449398228809
1731141878.4495182,809.0219568153437,805.9397998983146,791.371159190465,802.743412952197
1731141878.4499917,782.3562929596324,805.9126590254724,787.2112321498047,793.9198066748371
1731141878.452988,770.7965781477359,805.8851541064975,784.739364695781,790.333311548322
1731141878.456885,785.9449000060474,805.8573328356939,785.6739196832729,798.4650499299429
1731141878.460782,815.9106184693404,805.8300268453595,789.6790402759877,813.9607500472575
1731141878.4646792,834.6351652068507,805.8046882102068,794.7400816299166,824.8954261888134
1731141878.465094,823.5578438793933,805.7821070397815,798.7095565622012,821.6122730768733
1731141878.4685762,787.6576044040002,805.7603903793912,800.8027925150361,804.9059775378208
1731141878.468846,752.5362233471229,805.7341601801514,801.8383470804364,785.8207437603127
1731141878.4724731,744.7894960183744,805.6977531316718,803.0246983528125,777.3240865565139
1731141878.4751048,771.295988008624,805.6530799527442,804.3991200188085,784.5355802183101
1731141878.47637,813.6953629681853,805.6169024711539,804.4982569516809,801.0824558199134
1731141878.480267,842.3394336944758,805.6161848880085,801.8322693233298,814.2911556442938
1731141878.4806693,838.9300475254803,805.662479412706,796.9208740187877,815.166025326057
1731141878.4841642,810.2948827647484,805.7148386241685,792.7434555649114,805.3802290997257
1731141878.4877005,782.4607590377273,805.6701597643525,792.6365536780105,795.6610011609603
1731141878.4880612,779.5582649087344,805.4320354983327,797.1533709368844,796.7129586228657
1731141878.491958,804.3636072672695,805.06416047278,802.8327372622731,810.0873263271077
1731141878.495855,836.3288933312177,804.9235932192629,804.5131417153152,826.7661122323838
1731141878.496245,848.8273420255085,805.5723158214757,799.6462730897898,834.8217681938556
1731141878.499752,831.3683800864617,807.3596628741626,790.9354887503209,829.6166339518206
1731141878.5036492,798.3417075442918,809.9321117152749,784.7643903962771,817.7296879459095
1731141878.5065553,777.2036347976979,812.2010832303291,786.4847024667725,811.2915273020949
1731141878.5075462,786.1252473610704,812.9722580952812,796.4442480404449,817.6650807419868
1731141878.510221,819.4646411344904,811.7598371509201,809.997338675624,833.15698708724
1731141878.5114431,852.5541520328783,809.1137906163208,821.1969251927388,845.852711106318
1731141878.5118203,861.517830967578,806.259589398263,826.7765058126415,845.1950104924858
1731141878.51534,841.9896577530225,804.3887137035682,827.3098017625103,830.6339724773846
1731141878.519237,811.778331948737,804.0926787471523,825.4616177084301,812.4397527106105
1731141878.5231342,795.6242893960059,805.2240951483369,823.5968780609327,803.9028486333139
1731141878.5254097,804.8342120574574,807.1371379195159,822.6554799357872,811.0351959152877
1731141878.5270312,828.7676463191899,809.0632218966618,822.4365423081692,828.064623241955
1731141878.5273955,845.0845867094858,810.4141292456346,822.3935450236878,842.4076591341185
1731141878.530928,839.6525765772976,810.9426890172076,822.1791167773356,844.9647013705849
1731141878.534825,818.8628614461697,810.7528317122581,821.7505544440155,837.1574896379099
1731141878.538722,803.9229945354668,810.147163510543,821.2234431634856,829.0291032314501
1731141878.542619,812.3300908513538,809.370117786866,820.7093903934654,830.3668053341127
1731141878.5429714,842.4106418710978,808.4395315704921,820.248620890309,842.4361803276712
1731141878.544264,873.744701404561,807.2520101408553,819.82555955619,856.9361610295794
1731141878.545337,882.9669538439656,805.8925765965417,819.4103794873997,862.655348069301
1731141878.5465162,862.2448393988769,804.808451429839,818.9857602207421,854.3861214632542
1731141878.5504131,825.8491642756959,804.5771054028239,818.5505728888776,837.2012367181466
1731141878.55431,799.4855607367405,805.4262690920577,818.1113464767409,822.768972405457
1731141878.558207,800.4908300185618,806.9931844143473,817.6738145975263,820.3792712747153
1731141878.5585468,824.5497952323011,808.6070544589468,817.2397788243485,829.6498863488338
1731141878.562104,849.8531116010863,809.8194844611562,816.8082171208046,840.9898569229568
1731141878.5631185,855.5549973368654,810.6412640905453,816.377524335286,843.8048065972449
1731141878.5660012,839.2936461837536,811.2857639341673,815.9468393459371,835.7275950009405
1731141878.569898,818.9656378738337,811.7520035440455,815.5161503778909,824.8369132860788
1731141878.5737953,817.0772036197924,811.7048744553949,815.0858093394379,822.6348304682391
1731141878.5741224,840.8013663825884,810.7576132883075,814.6560955954268,833.6616814156525
1731141878.577692,874.6000066847398,808.866175831038,814.2270735565301,850.7400432452665
1731141878.5804532,891.7925767041147,806.4802781750152,813.7986655400505,860.1084531256228
1731141878.581589,875.831585246255,804.3408157100638,813.3707716348883,852.3636821105505
1731141878.5819733,834.1954295385385,803.0903623815539,812.9433348769678,830.3234994600851
1731141878.5854862,793.6558192419187,802.9465029853563,812.5163421978331,807.3810886260844
1731141878.5893831,780.2535873247613,803.58126960905,812.0897971793505,797.4314154714625
1731141878.5896978,799.3782136345351,804.2250269995095,811.6636977200693,804.1657143294185
1731141878.59328,831.6672791735502,803.9752881644494,811.2380297749976,818.302320187262
1731141878.597177,848.3845452767418,802.2541603261622,810.8127719240935,825.2635495128603
1731141878.6008277,834.4235436695376,799.2217501383504,810.3879017496113,817.323845912796
1731141878.601074,800.5060985804877,795.8382802579853,809.963399015619,800.2441541189551
1731141878.6049712,774.4870371572314,793.4111042815292,809.5392454968054,788.6800946341436
1731141878.6052735,778.6925196356129,792.8530509779431,809.1154234865429,794.0294477498232
1731141878.608868,811.8066216556481,794.1661776612783,808.6919146846708,814.857122164608
1731141878.6127653,850.0179672283723,796.5303210021722,808.2686999600386,837.8441126321281
1731141878.6155694,866.1337051994896,798.9056228693993,807.8457596513848,848.2574574925159
1731141878.616662,850.7715250681771,800.6696307225482,807.4230739183101,841.0851449353495
1731141878.619682,818.5680681758172,801.8310043741942,807.000622894512,823.8383288184112
1731141878.620559,795.0058410667921,802.7395412049235,806.5783866654374,809.3056767893794
1731141878.620849,795.2269030462495,803.6019893132788,806.1563452153384,804.8384611012178
1731141878.6244562,812.3943574509104,804.2102498183247,805.7344784620044,807.224196439168
1731141878.628353,824.989149766773,804.0697194207123,805.3127663847134,807.0599123676732
1731141878.63225,816.5363071099059,802.8003073004556,804.8911891219618,798.2081164352164
1731141878.636147,790.7456628433525,800.5063081736994,804.4697268563668,783.5861693440698
1731141878.6364243,768.9469318326501,797.8544440667331,804.0483594206318,772.175687625452
1731141878.6385365,771.8676857272676,795.7942615213467,803.6270658899232,770.6106207302971
1731141878.640044,801.2247058384845,795.0759899885941,803.2058247875101,777.7935156561706
1731141878.6439412,836.798751393553,795.8480641548881,802.7846154562704,787.1924966646604
1731141878.647838,851.7026691496012,797.5781580020824,802.3634201795588,793.1114079503365
1731141878.6506855,833.5133388317721,799.3571324847921,801.9422249929638,794.2588845957923
1731141878.6517353,794.192933333009,800.4210983898953,801.5210163034986,792.647651641002
1731141878.652,760.8580510038048,800.5863044633287,801.0997727040942,790.7333438492851
1731141878.655632,754.8176558960304,800.3139491637127,800.6784575433334,789.7186966377355
1731141878.6573913,775.5684596463884,800.3277257871217,800.2570240861223,789.5459762522819
1731141878.659529,802.3980791693185,801.0221263905813,799.8354424960029,789.6613089203843
1731141878.6634262,812.1176223272751,802.1099030408272,799.4137383908399,789.6467111625749
1731141878.667323,798.3283693187257,802.8228852990969,798.992002303201,789.4047297938997
1731141878.6675754,776.2277792948607,802.5262396874699,798.5703177223579,789.0368401145583
1731141878.67122,768.946725986603,801.2251107967516,798.1486043419698,788.6666582933456
1731141878.675117,787.0926452492068,799.5341706075335,797.7264919219533,788.3500468460358
1731141878.6762457,819.0422999694916,798.176507861882,797.3034487601495,788.0787871211628
1731141878.679014,840.3067396939493,797.4806254891531,796.8793157794477,787.8221910605295
1731141878.6829112,834.0215334984404,797.2793462848451,796.4550079048045,787.5590256804729
1731141878.683151,805.3306090092699,797.2130686757903,796.0325850594693,787.285327749837
1731141878.6858015,777.671884485748,797.1161523378918,795.6137533275154,787.0069712301262
1731141878.686808,773.9194335809103,797.1593032454695,795.196892598596,786.7303223097366
1731141878.6907053,797.6706115757826,797.6548857152371,794.7749766063818,786.4579104300329
1731141878.694602,829.9395628302708,798.6953512387362,794.3385918173119,786.1889653318743
1731141878.6951,844.2129263477375,799.9216246093515,793.886427476547,785.9217223155423
1731141878.698499,827.9485859729658,800.6341994490652,793.4378891669837,785.6550581859755
1731141878.6987264,793.1155977229098,800.2092092809808,793.0322886283459,785.3888096287224
1731141878.7023962,767.001641074738,798.5398554427078,792.6978946709182,785.1232862472147
1731141878.706293,770.5049145245969,796.1860461095347,792.3955912367429,784.8586845931176
1731141878.71019,801.3932477995162,794.1199892576668,791.9845494846322,784.594812099541
1731141878.7139544,835.9905198806357,793.2394000228522,791.2865189560772,784.3312240478308
1731141878.714087,847.8037130135849,793.9654635565796,790.2784104252977,784.0676853595835
1731141878.714302,828.1498629534458,796.1527058860592,789.2797426222164,783.8046699195941
1731141878.717984,792.6361285989594,799.2906165536049,788.8462358214367,783.5433714793265
1731141878.720918,768.7662630445136,802.7641943083215,789.2763315244002,783.2847034126236
1731141878.7218812,774.5878363427751,805.9410027541854,790.2060377057389,783.0274490688125
1731141878.725778,804.9850364931264,808.0831826552932,790.9306074127526,782.7671036392467
1731141878.7296753,836.1815033087142,808.3414878978231,791.3238830956407,782.497970345645
1731141878.7298777,844.8486410598514,806.0922707091715,792.4000711920123,782.2197591410668
1731141878.7328093,826.6214164417346,801.5394137449842,795.7831717452547,781.9450671731472
1731141878.733572,799.0160938437434,796.0890339759264,802.362484636886,781.6980448284221
1731141878.737469,786.1772907363187,791.9679212435168,811.1481308467681,781.4945010099772
1731141878.741366,797.9965401026237,791.0862963933135,819.2504233152493,781.3077487999681
1731141878.745263,821.3133621655644,793.8540952106674,823.2104749129501,781.0509231187534
1731141878.745453,831.0752995561857,798.8571440399569,821.0696247475181,780.6233203974618
1731141878.74916,812.3023354940938,803.7059885461607,813.9642798197657,780.0383128071476
1731141878.7516634,774.1218880200853,806.4728213771077,806.0173451382083,779.5550694237462
1731141878.753057,743.551704397843,806.7080760803126,802.1323939476308,779.6275573265847
1731141878.756034,743.7644260942884,805.3932815511617,804.7720280104371,780.5022821835962
1731141878.756954,774.8135164876433,803.9917543086049,811.946998748105,781.5826693957945
1731141878.7608511,813.0946027599427,803.3813275168322,818.2502812421396,781.1717473829062
1731141878.7610283,830.4131937202543,803.4625386484877,818.6330412235279,777.4604900298727
1731141878.764748,817.0185768443926,803.6380581441915,812.2357293195124,770.9512306435068
1731141878.768645,789.2568099925431,803.6145091835151,803.1585245639452,766.6161646690359
1731141878.770518,775.2353374889694,803.7198423534006,797.3435092240314,772.4502967630985
1731141878.772542,790.6241019140291,804.4326722534471,797.982868401076,793.0788889780135
1731141878.776439,825.2405289416165,805.6499597401044,803.1926109736171,823.1635593990892
1731141878.776604,851.739730965674,806.5456374482334,807.8294027778749,848.4167247393041
1731141878.780336,848.7073678955296,806.2922446124934,807.8607433994562,855.6971295928432
1731141878.784233,818.4441702275587,804.9673609189693,803.6138624476799,843.798570438321
1731141878.78813,784.8604851390438,803.6659379124251,799.2613380500509,824.8170561946396
1731141878.7893724,773.9594688159648,803.6012654004433,799.1106261665162,814.4938455449578
1731141878.7911503,793.3802575332573,805.0485245234014,803.9290214194194,819.7828468788358
1731141878.792027,827.2780322016886,807.1736216961028,810.4429025988252,833.9855851326788
1731141878.7921796,849.8431815314079,808.8380406020468,814.3829006322915,843.0921159846131
1731141878.795924,846.0553755648265,809.4826691778632,814.3233810943627,837.7831421083248
1731141878.7998211,823.0275581079579,809.3049824787942,812.8123579144752,821.27455976599
1731141878.803718,803.1066408400504,808.8268661697954,813.722614300247,806.7364771934358
1731141878.807615,804.6625188633026,808.4353891735096,818.2956555106744,806.4014062933893
1731141878.807755,826.5345932166049,808.2346769087715,823.6522009117912,821.169195092727
1731141878.8082273,848.9930624919377,808.1476650898564,825.2457387764007,839.1881348779517
1731141878.811512,850.2126284338054,808.0693531571284,821.0207802629553,844.69019564691
1731141878.8154087,824.4348121960867,807.9489303635517,813.4804788814613,830.1047586895025
1731141878.819306,787.0130701238273,807.7908254903411,807.8275621111636,801.9346980294761
1731141878.823203,762.6731408508186,807.6205156809025,807.8165812522607,776.0183905360307
1731141878.8233306,766.7093470569134,807.4566373094311,812.7982466977585,766.1793359122993
1731141878.8262663,793.7107528180615,807.3032594788747,818.2785618374827,775.015573218415
1731141878.8270817,821.9680787270614,807.1556607068658,819.4200734800229,793.3236665061233
1731141878.8271,829.8860505578979,807.0083030764812,814.698790191316,807.8503071136381
1731141878.830997,812.161596872916,806.858769348796,806.9576756858673,811.1571812128275
1731141878.834894,783.6483270774501,806.70750512467,801.15779766453,806.3116918888134
1731141878.8387911,767.6552184584402,806.5559191126645,800.6320671217579,803.1902463243689
1731141878.838906,777.2969813682325,806.4049647098823,804.7340303443522,809.5129695334589
1731141878.842688,804.6277309723484,806.2548147400622,809.616079554669,823.8673802596389
1731141878.845936,826.8421841991359,806.1052092854128,811.3828937818698,836.5680968928323
1731141878.846585,825.0891174072518,805.9558754802654,809.047995181166,837.8555314742346
1731141878.850482,800.5547810919244,805.8067159153271,805.0070843255381,826.6037062869215
1731141878.8543787,774.1536810108836,805.6577798476428,802.8214548026752,811.9410361871222
1731141878.8544817,769.6070470652422,805.509159047439,804.2396750491748,806.0549177532868
1731141878.858276,793.6854556621506,805.3609163633568,807.8669623364036,814.0692374000332
1731141878.8613827,830.0058993722506,805.2130730286584,810.426190207266,829.5904632136098
1731141878.8621733,851.7575504476232,805.0656291403052,809.4413937966884,839.8875740541196
1731141878.864791,843.2134957240847,804.9185854770645,805.1384655655951,836.581907338398
1731141878.86607,812.487089284403,804.7719520354012,800.1249113758929,822.8859090306642
1731141878.869967,784.7896749209514,804.6257453790413,797.2490095279453,810.9560868643289
1731141878.870057,781.3733816005736,804.4799830817185,797.4501349792017,811.1399442221169
1731141878.873864,801.6587630920646,804.3346811779561,799.3029226949922,822.2440516484126
1731141878.8777611,823.9841542149621,804.1898553908903,800.4836227390845,831.7905045338656
1731141878.881658,824.7426835619015,804.045523050784,799.8307321374222,826.8168830448174
1731141878.8836453,799.5131452864447,803.9017017199466,798.3169711729197,806.0827011881632
1731141878.885555,767.6743505673203,803.7584031593059,798.2406642478455,782.6202531988957
1731141878.8856325,756.2337583677325,803.6156269372167,801.3219297735296,773.7574692895382
1731141878.889452,776.6630720561068,803.4733634330778,807.1277699169323,786.8504826414794
1731141878.8933487,814.5297492279543,803.3316143436232,813.0102722901382,812.8932168135347
1731141878.896499,840.7280947433532,803.190423699581,815.7559043229761,833.4371901152073
1731141878.897246,834.9488788025167,803.0498879119654,813.9159147871468,834.9770725045637
1731141878.9011433,802.0446651674315,802.9101023220293,809.0710329309908,818.9445113758095
1731141878.9012082,768.0430294772403,802.7710377793373,804.8160210743166,799.4905641389723
1731141878.9024997,759.238761768079,802.632433931946,803.973953600213,791.4382615163731
1731141878.90504,781.367868694246,802.4938865761447,806.2008947573153,798.5287250298518
1731141878.908937,815.6054174291205,802.3552595621313,808.1232064728655,811.3449888477215
1731141878.912834,834.4192624638154,802.2172531679013,806.142946044214,816.1091684126408
1731141878.916731,824.1569849210744,802.0815108349902,799.6530548088114,806.6924474414585
1731141878.9167836,795.7926522917631,801.9494985660758,791.861819194406,789.7704212664624
1731141878.920628,775.1694385170515,801.8201635929424,787.4237236041166,778.9738629116906
1731141878.921354,781.132671937914,801.6881741160736,788.883598454703,783.1340247628717
1731141878.924525,809.7792335915151,801.5461238485211,794.957737956584,798.5312240281854
1731141878.928422,837.628667927951,801.3929223562363,801.9263049548655,811.5590991863211
1731141878.9316149,840.8472938488983,801.2448914264628,806.5833387392753,809.6272182726302
1731141878.9323187,814.7906070371187,801.1386000847865,808.0804283438717,791.5771934170733
1731141878.9323592,778.1235027421582,801.1151992678574,807.5470358603815,769.3536153175395
1731141878.936216,758.1974413081272,801.1931078943097,806.5561984329878,759.440072877265
1731141878.9401133,769.3112367740756,801.3539172091762,806.010972410043,770.4174861528339
1731141878.940209,801.2779487112182,801.5564864294716,806.0019209235396,796.1496718322321
1731141878.94401,827.6544958107501,801.7642566632403,806.2267110397331,820.090379400762
1731141878.947907,827.1774425645782,801.9609162269097,806.4072426822751,827.7121859988906
1731141878.9479346,801.0404129060346,802.1475656187072,806.4509652321711,817.4657252213646
1731141878.951804,771.8263301985542,802.3316211412821,806.4033567955995,801.5239235894596
1731141878.955701,764.9044365379372,802.5184245525297,806.3409544207285,795.6805058689341
1731141878.9590633,787.5646771822063,802.7090385119222,806.3058719541889,806.6500380573088
1731141878.959598,822.9892584255722,802.9020068290913,806.2991313264437,827.0809458300383
1731141878.963495,843.9264664850616,803.0956957825981,806.3034614435962,842.0481788654614
1731141878.96351,834.9278546680307,803.2894147112396,806.3045244137261,841.3426330254673
1731141878.9667313,805.2237015839885,803.4833092748008,806.2982051953147,827.4695276190213
1731141878.967392,781.8267653308363,803.6777930860098,806.2873568437204,813.1584187316423
1731141878.9712887,788.0868388497609,803.873135810767,806.2760474119733,810.7439671758478
1731141878.975186,824.5444877453233,804.069375802901,806.2663278785798,822.1094636550445
1731141878.9779177,867.526204620848,804.2664267585035,806.2581033896685,837.2688724799359
1731141878.9790833,887.1752604019144,804.4642010575667,806.2504190068984,842.7069274389639
1731141878.9790857,870.9283629486063,804.6626631806007,806.2425499352073,832.6860231919254
1731141878.98298,833.538077965264,804.8618197746943,806.2343258553803,814.1995744549064
1731141878.986877,805.2786963515201,805.0616889135506,806.2259224969775,801.4091036413708
1731141878.990774,807.7814143985444,805.2622798368691,806.2175542523112,804.1568350650084
1731141878.994661,837.1443197809834,805.4635897523226,806.2093180512229,820.0742323977053
1731141878.994671,867.8249451845027,805.6656092807315,806.2012034997114,836.6729699785211
1731141878.996772,873.6649531816952,805.8683271600876,806.1931710365282,841.4486189033361
1731141878.998568,848.746471757611,806.0717313223129,806.1852072950322,831.6483452826901
1731141879.0018473,811.542319088211,806.2758094998933,806.1773233634196,816.0012303793554
1731141879.002465,789.6253842842704,806.4805534127521,806.1695132096984,807.3571181117841
1731141879.006362,797.6211844948596,806.6859655754334,806.1617198563368,812.2927624720634
1731141879.0102367,826.10801895157,806.892060223847,806.1538620502498,825.9179966860966
1731141879.010259,850.08987675992,807.0988473802122,806.1459403143261,835.8991595943733
1731141879.014156,849.7519201226711,807.3063002761304,806.1381582063003,832.428368328627
1731141879.015627,826.2924853921332,807.5143317434001,806.1309000659178,816.1417893652241
1731141879.0180533,799.9364866582379,807.7228263076264,806.1244116932758,797.5955882793991
1731141879.02195,792.2601548437564,807.9317555047352,806.1182587989058,788.7128515476081
1731141879.025812,808.0043491358163,808.1413191957251,806.1110575518277,793.2034245659938
1731141879.025847,831.5639481737044,808.3519418354769,806.1012293491061,803.8370952497233
1731141879.029744,840.58078975702,808.5639366320238,806.0890400399898,808.7359880141895
1731141879.0336409,824.772418117265,808.7768852421189,806.0786623125913,801.3228224392395
1731141879.034481,794.3477792907371,808.9892574234387,806.0772938335172,785.637274247349
1731141879.0369637,771.5546530274933,809.19914191285,806.0887078154362,772.78894515386
1731141879.037538,772.7220237189381,809.4065001816696,806.1032265244575,771.7190341987765
1731141879.0413878,795.4043276671199,809.6156870002844,806.0939492415249,781.9914470484638
1731141879.041435,820.7781802719838,809.8349277290615,806.033018099323,794.4932595329157
1731141879.045332,829.1757293410953,810.0694755000122,805.9308673563788,799.343430721229
1731141879.049229,816.0623750017111,810.310012726915,805.8719194927683,794.3115452378676
1731141879.053126,795.2837218588357,810.5268518045408,805.9902204938585,786.577274398182
1731141879.0533357,786.8326133562244,810.6860666961782,806.3410587091599,786.2736874922193
1731141879.0569632,799.3922782609949,810.7932230972058,806.7181303209842,797.3024548537236
1731141879.057023,822.4103950105183,810.9378272834114,806.6126251873213,813.3073684972384
1731141879.06092,834.4461354199155,811.2750777290429,805.5444709301826,822.3479143600105
1731141879.064817,820.8915469877377,811.8890328374592,803.687606195026,816.4864268635222
1731141879.068714,786.4908798073045,812.581126363043,802.1995709558859,798.409132275005
1731141879.0720797,752.5018248262149,812.7805190837533,802.6344470687012,779.6628663167323
1731141879.07219,740.7280625778149,811.7848835337965,805.6186489971105,771.8978427794639
1731141879.0725386,756.8498059602709,809.2634926964467,809.8808323403555,778.0402117607795
1731141879.0726109,785.9120446149291,805.6187669276737,812.7424456851829,790.2932634672095
1731141879.076508,803.6530324861568,801.8422335916614,812.0938531201791,796.5162648841044
1731141879.080405,795.3052053501812,798.956787157459,808.446285808802,789.9973970354712
1731141879.084302,767.2895799545295,797.5387381285897,805.118511431011,774.8574139600389
1731141879.0881145,742.1302474539959,797.7089705867156,805.8534378837769,762.620713595971
1731141879.088199,740.1810134146991,799.452593382579,811.485419955625,762.596834986776
1731141879.091045,762.9627021212477,802.7552985880468,818.5707462411378,773.9406308575535
1731141879.092096,792.0461337865406,807.2992790551226,821.5728383778155,786.0404912343217
1731141879.095993,804.5240068581726,812.0815121091363,817.1418052794121,787.0437828148905
1731141879.09989,792.1403152227945,815.5463894474572,807.0199952135823,773.6155219981517
1731141879.1036897,768.1688854988605,816.3383855988415,797.0972827753756,754.0436688902603
1731141879.1037867,756.4893410231018,814.1244549815514,793.2916800572838,742.1855332232388
1731141879.107196,771.9486555424937,809.8409805854017,797.4573142689957,746.9586356277136
1731141879.107684,807.9616487173414,805.2093755676763,806.3643461096754,765.4906200151884
1731141879.109899,841.319161809145,801.8561146895265,814.310906475963,785.2575000111991
1731141879.1115808,850.4477803020652,800.5038820207641,817.2174277372346,793.6988540328906
1731141879.115478,832.5705997642928,800.6191196024544,815.1076787835221,787.8948299989962
1731141879.1192653,805.7834673757571,800.7663919215992,811.2719325360246,776.5519098450341
1731141879.119375,794.0464654917095,799.5970617611962,809.0642873480266,772.5789462160261
1731141879.123272,807.3162005212063,796.8829860374077,809.1523671137653,782.4032223640424
1731141879.127169,833.4931030070486,793.77437538019,809.5203317438736,801.0158791281245
1731141879.1287537,849.0608332219396,791.9762958766903,807.9851619970418,816.68313334426
1731141879.1310658,839.3518653961977,792.4759628567319,804.7001808626336,820.8057873013797
1731141879.1348407,811.2283366895346,794.8752023390887,802.2323579286149,814.33117312456
1731141879.134963,787.6168136916846,797.8148985273193,803.163318305709,805.8332776412699
1731141879.13886,788.6697245273452,800.0068285348189,807.47793262023,803.8980341354563
1731141879.142312,815.1975230770176,800.9792702432194,812.1458546024015,810.790032228383
1731141879.1427567,847.8070505666255,801.0736889707249,813.3133344991513,822.187693135964
1731141879.146654,862.3052665081808,800.9233546130679,809.3098158537413,831.8746488966891
1731141879.147608,848.9377098674295,800.9389100567255,802.0651440838424,836.4572603289529
1731141879.150416,820.0370566629219,801.1314775692607,795.8243256049825,836.5074716919131
1731141879.1505508,799.8793571022352,801.2701033835948,794.1105400464176,834.582992881782
1731141879.154448,804.8450144860549,801.1677618898841,797.2063835458678,832.8328668183535
1731141879.158345,830.0507374245677,800.8540469511231,802.0565942602504,832.0125237326596
1731141879.162242,853.5950195144757,800.5167290817697,804.6565969694241,831.8469636493168
1731141879.1659918,855.0576094105227,800.3169236871666,803.0521269117504,831.8033238958444
1731141879.166139,832.8694629536427,800.2802055891716,798.6316436213851,831.5751667222811
1731141879.166463,805.9970494970196,800.3326251893973,794.8366203893983,831.1462665287307
1731141879.1700358,798.494072964558,800.3920284310085,794.4700132478749,830.6357524647873
1731141879.173933,819.6768579209592,800.4202812612837,797.71646551035,830.1466669623927
1731141879.1774282,856.1039407588606,800.4207627305299,802.215302268831,829.7108243643642
1731141879.17783,881.74203868226,800.41217820594,804.9140520857019,829.3095828816986
1731141879.1815672,878.0814604797182,800.4079971803294,804.253319462992,828.9142887726867
1731141879.1817267,848.2543012338709,800.4109746973604,801.1619765022508,828.5099122145332
1731141879.185317,814.1480980246151,800.4175201514837,798.2514560671225,828.0966919386652
1731141879.185624,798.9726291108468,800.4235497479012,797.8725784097868,827.6813000547693
1731141879.1895208,809.2452000195478,800.4273136169207,800.5113095060393,827.2690231007965
1731141879.193418,830.6480199248732,800.4291540367143,804.7002521466073,826.8612667025088
1731141879.1971428,840.9897961646737,800.430094962175,808.3445527254142,826.4569099401474
1731141879.197315,829.4120487231311,800.4308103371903,810.2092862619061,826.0544696241474
1731141879.201212,805.7457719305561,800.4313998785085,810.3991627073765,825.6532577165284
1731141879.2041717,792.1631904044247,800.4316521452522,809.7790112906298,825.253374364539
1731141879.205109,804.0943100179255,800.4313527113559,809.1441119781018,824.8551951932596
1731141879.2090058,836.2879108964519,800.4304189155446,808.8185495963538,824.4589631387095
1731141879.2125444,865.6442305893991,800.4288753220334,808.739454202332,824.0647055146098
1731141879.2127182,868.8283172753399,800.4267756017377,808.7227884057781,823.6723863438561
1731141879.212903,840.7400156378683,800.4241506457433,808.6493317876916,823.2820875871387
1731141879.2168,798.9951531812959,800.4210022588121,808.5028324187952,822.8940309744587
1731141879.2206967,770.4730060244589,800.4173228667063,808.321648270452,822.5083545510796
1731141879.223026,770.452016277769,800.4131143562305,808.1437034191349,822.1247541769052
1731141879.224594,791.3030850990905,800.4083894931647,807.9830558939401,821.7423535544763
1731141879.228294,810.194220445885,800.4031544646299,807.8347240306745,821.3602646215669
1731141879.2284908,809.3106686877799,800.3973868263356,807.6886530538305,820.9789058406994
1731141879.232388,791.2080741058522,800.3910358429123,807.5388866863057,820.6011533212592
1731141879.236285,776.0004974438019,800.3840692623963,807.3849480014601,820.2314327950278
1731141879.240182,782.9327449506034,800.3765555197741,807.2290091294701,819.8713495025765
1731141879.241881,812.4802724538887,800.3687073786042,807.0730196031739,819.513621810748
1731141879.2438693,844.4827840664359,800.3607731904639,806.9176115500272,819.1408879267416
1731141879.2440789,853.9627270829405,800.3527329656963,806.7624529446011,818.7375831302513
1731141879.2476606,831.5368018960339,800.34398282334,806.6070023454614,818.3149588657952
1731141879.2479758,791.7697864281727,800.3334511089901,806.4509636535645,817.93030738932
1731141879.251873,762.6146924290748,800.3205496929744,806.2943264612368,817.6647628440066
1731141879.25577,764.0703823639022,800.3066851759143,806.137202827367,817.537011810916
1731141879.2594447,792.7460916983096,800.2958757589377,805.9796811715256,817.3933703258263
1731141879.2596667,824.5651738315789,800.2923904922535,805.8217843032899,816.902783440912
1731141879.260735,833.6784062312072,800.2948921915441,805.6635025863688,815.803545464631
1731141879.263564,812.7638826676159,800.2909584313952,805.5048336862505,814.3780649531444
1731141879.2674608,778.5806739723565,800.2604407573452,805.3457813119946,813.771292841643
1731141879.271358,758.2856463949877,800.1944840572576,805.1863131424767,815.4925960024264
1731141879.2750204,767.4882660160425,800.1232731479465,805.0263267983523,819.7729754319295
1731141879.275255,797.7028932184858,800.1235690847225,804.8656950054335,823.742558993587
1731141879.279152,823.1817483651721,800.2677182092581,804.7044202212295,821.8322276883848
1731141879.2795897,821.4670138917513,800.5089230156018,804.5428070755365,809.9391695686077
1731141879.2827766,791.2290028229751,800.5797822790926,804.3814197808905,790.7371632581562
1731141879.2830489,753.4106980797874,800.053127678691,804.220601702041,774.3592087017167
1731141879.2869458,734.9372678969146,798.6425857231618,804.0596775843904,771.7838723636581
1731141879.2905958,747.8443628067661,796.5481519763248,803.8965793123914,785.5071444553254
1731141879.290843,780.3082442116109,794.460389884048,803.729001511545,805.7747552876632
1731141879.29474,806.7794628705,793.106750225806,803.557435948692,816.6967118754889
1731141879.298444,809.0652067155071,792.7302571426803,803.3881653061591,808.271765070906
1731141879.298637,791.0017631388973,792.9896635471229,803.2318101590233,784.8220433094234
1731141879.302534,774.4156131664297,793.3656638897215,803.0936427153762,762.539144497715
1731141879.3061714,779.7774969083505,793.7176076593693,802.9588269371718,757.417538043209
1731141879.3064308,808.051218943481,794.4939952559345,802.7873120192587,772.8858721878014
1731141879.310328,839.2240654941909,796.3315184793341,802.5386107371588,797.074397337999
1731141879.314225,848.6975411432128,799.2938906339051,802.2300940393951,812.0227621146213
1731141879.317299,827.6438238000966,802.43566312121,801.9885451604598,807.4388860486473
1731141879.3178928,790.4357014919375,804.2466229699495,802.0111658106914,787.9861382855344
1731141879.318122,763.3061547616791,803.7914692937331,802.3728442602003,768.5414266361771
1731141879.3217468,763.7489879987894,801.624762846434,802.7566569192372,761.7758648976761
1731141879.3220189,787.3443299915182,799.5942909863404,802.3998064186253,768.4802061055403
1731141879.3259158,812.3763738668185,799.5524231810531,800.5899430820145,778.3762286116925
1731141879.329813,818.1208939763972,801.9997310089964,797.5810852187835,780.1398589148947
1731141879.33371,801.61660032569,805.8047217460812,795.0407626231469,771.6625617306244
1731141879.336153,779.1305398874537,809.1844863182848,795.1402184518524,761.6814150297836
1731141879.3373225,771.4088375933611,811.0037181256893,798.6776578817739,761.5846551077409
1731141879.337607,785.4445440919601,811.2972936371224,803.9217703633847,774.6911789035029
1731141879.341504,808.2995012200448,810.8227736964924,807.527668286906,792.336258589739
1731141879.3454008,818.1384373310475,810.3127685777383,807.0372302149736,800.1967743689222
1731141879.349298,803.0393576648968,810.0816322961957,802.9113311616198,789.7101946328411
1731141879.352898,771.7308536051778,810.0829678127851,798.2839813158816,765.3439000814204
1731141879.353009,747.3011549321799,810.1493364370956,796.5240707828846,741.9342893810929
1731141879.353195,748.9856993359957,810.1675352594091,798.588550059866,734.1894081970047
1731141879.3550076,776.7626959971462,810.1189465420495,802.3902977815219,746.4082957249003
1731141879.357092,811.2313910156514,810.0374230786491,804.7425139056666,770.1233010162149
1731141879.3609889,829.0753830983941,809.9582845840966,804.2432957242395,791.2052172586912
1731141879.3648858,821.742354864826,809.8954405673426,802.5907803654092,800.6587497015475
1731141879.3684733,801.9370459730414,809.8449225036372,803.0968322782717,800.505786117694
1731141879.368783,792.2586488654764,809.7975686109894,807.5936721241281,800.2904271187308
1731141879.37268,805.3785184180058,809.747719435469,814.4119409699967,807.6815311197835
1731141879.373862,832.6822512050318,809.6947663334491,819.2973738539828,821.5772994637912
1731141879.376577,851.2867589985191,809.6406606740103,818.6742425229505,833.5655086264286
1731141879.380474,843.626509154949,809.5872433195659,812.6496537570082,835.9381437904289
1731141879.3840487,813.0729991842779,809.5351656158988,805.2816133793136,828.7926874200182
1731141879.3843708,782.4278239184398,809.4841687462774,801.787319114522,820.024685091535
1731141879.3881252,776.3622074332643,809.4337722960739,804.7786119919806,818.5631056467984
1731141879.388268,801.8913966339392,809.383708060001,812.3620515337412,826.8984269954806
1731141879.3921647,842.4240471765547,809.3339727381725,819.5029677631674,839.142164613993
1731141879.3927166,870.1529186586441,809.2846837910776,821.6110752802882,846.0084515337991
1731141879.396062,867.2352460320121,809.2359418292687,817.7095969314715,842.5480512853726
1731141879.3996243,839.3294949949641,809.1877840346007,810.8975171405225,832.4337881269336
1731141879.3999588,810.854556027142,809.1402074897236,805.7906668438812,825.336541203736
1731141879.4038558,805.5399664471253,809.093205894725,804.8523043172752,829.282771465545
1731141879.407753,827.5292015225178,809.0467812787879,806.4398129986243,843.8812549875712
1731141879.411571,858.0716474251058,809.0009278424958,806.2239206814825,859.8605056791798
1731141879.41165,870.5374935561268,808.9556137329862,801.041226913967,865.6387820205997
1731141879.4152,851.8585687503299,808.9107957729154,792.1293703665034,856.1855018524412
1731141879.415547,813.3442230535608,808.8664816252949,784.9116170256507,837.4331859091786
1731141879.4194438,782.2607939651325,808.8228008043703,785.1638783386697,822.5762317711453
1731141879.4232414,780.80340483347,808.7799874223167,794.4620122679715,822.60102477001
1731141879.4233408,809.0543186168936,808.7381829325358,808.613319675175,837.9596936529257
1731141879.427238,845.3642959432711,808.6971094640659,820.4609921244635,857.8516338645076
1731141879.4304256,863.7621655329309,808.655918949356,824.8899339802014,868.0548560627325
1731141879.4307754,854.3939745601353,808.613671038928,822.0853950593817,861.5930686729359
1731141879.4311347,830.5128300760935,808.570578687123,816.603182912049,843.9916293901075
1731141879.435032,816.4190536388335,808.5292284382753,813.2914558467207,828.8567403296518
1731141879.4389288,826.4393839270916,808.4939675783393,813.6032863335579,827.2065145649876
1731141879.4428258,852.6025762987916,808.4669171013704,815.2608905823205,839.1738353135532
1731141879.4463513,871.4140381054159,808.4419297620364,815.1395503563177,854.7854641215332
1731141879.446723,863.9170378139023,808.4025479854215,812.4328319181215,862.847401206298
1731141879.44928,831.9946739959985,808.3322282961411,809.1778443010794,860.1264158006177
1731141879.45062,797.2646401422936,808.2382167573065,807.9121452215674,853.014121951143
1731141879.454517,783.6840815792197,808.172401714198,808.9311348602757,850.5928499850174
1731141879.4583576,798.3581031731808,808.2145909792739,809.8161689727724,855.5178008780679
1731141879.4584138,826.1963117638364,808.3919715314518,807.6525106860457,860.9679204916085
1731141879.4619265,842.6067312394448,808.5650030615841,801.9101884849258,856.616056033499
1731141879.4623108,833.8028007262241,808.3944081189144,795.4519132800177,838.6010796706812
1731141879.466208,808.0803453426756,807.5242530452927,792.7613460322631,814.6088775832899
1731141879.4681346,788.6320780757125,805.9553813233346,796.7161034964528,798.9541892171351
1731141879.4701047,793.6762250772657,804.2896899233936,806.3084303309141,801.1624786813869
1731141879.474002,820.5826889328227,803.4561127504111,816.9811970499816,817.6404258913423
1731141879.477502,847.7199632376738,803.9832318586497,823.3766879485395,833.930564770976
1731141879.4778988,852.7598062365473,805.475502089473,822.6414473203101,836.15604285688
1731141879.4817958,831.8680877041699,806.8850765528584,816.076517296654,822.2432549318784
1731141879.485693,803.2793839158088,807.3717135485296,808.0563787283578,803.4993485389408
1731141879.486989,792.1431153840743,806.9046875730869,802.9912648119034,795.1790253161386
1731141879.48959,809.4137252331928,806.0345642061535,802.4348424214006,803.8227196881875
1731141879.4930775,842.3315565364554,805.1396590185218,804.3286424293146,821.7155918202163
1731141879.4934738,864.2888023721245,803.9752313502537,804.873020813006,832.8804602147832
1731141879.493487,856.1740534419936,802.0050826601455,801.6299345607791,825.5518214643004
1731141879.4973838,822.1133402609997,799.1831374044335,795.5175395708635,800.8264863370335
1731141879.5012808,786.7825298273629,796.4002452068222,790.1173812075659,770.7136576842156
1731141879.5051775,776.0298135744346,795.1179794184399,788.776957706377,748.2739519147882
1731141879.5058436,796.2608827343341,796.4322509567468,791.8438170034149,739.0289407839787
1731141879.5086527,829.5499104184889,800.2752209454321,796.4065121908689,740.0293297328736
1731141879.5090747,848.7001698705027,805.3266524053092,798.8760281716173,744.8908186314746
1731141879.512972,839.705966074411,809.6696145537011,798.2211514598248,748.9086634506967
1731141879.5168688,812.7024451582611,811.7450553721112,796.9375811889684,750.7338875040324
1731141879.5207658,792.3607929684766,811.0355138365157,798.727766702243,751.2033714878445
1731141879.5242286,796.3030705380736,808.1419005145549,804.8369311034329,751.5382997558495
1731141879.5246627,820.042057086977,804.3065189987103,812.345070703864,752.3514948834547
1731141879.524698,840.8538958831239,800.7335728034723,816.1374232054417,753.6079606387407
1731141879.52856,836.8452292501256,798.1089327686341,813.0914160509891,755.0150057820028
1731141879.52859,805.2873664069672,796.530261988906,804.9873261482632,756.351694754114
1731141879.5324569,765.4738903308576,795.7738875391235,797.5393145205165,757.5658626424262
1731141879.5363538,743.9676999694833,795.6326516681324,796.0849057566036,758.7104412065577
1731141879.539804,753.9225678357446,796.0696108867778,801.3240461145393,759.8504489897061
1731141879.5402508,784.8153084957719,797.1178192109642,808.6494863315561,761.0154705054963
1731141879.5435526,810.9211363964605,798.6744692106028,811.768959973529,762.2013751870855
1731141879.5441475,812.0487547777691,800.4248931853951,807.7474101574716,763.3921257030369
1731141879.5480447,789.8799316008818,802.0111330897083,799.3435768240487,764.576594307544
1731141879.551942,766.3483308561648,803.3087188912253,792.7487610164281,765.7527245999241
1731141879.5553796,765.0701254709883,804.5072512652852,792.6793485667648,766.9236504961801
1731141879.5558388,791.0725764516973,805.8093084967838,798.899546343063,768.0927805848862
1731141879.5597358,825.7178646041605,806.9472052163452,806.8733895726765,769.2615115562392
1731141879.562407,841.1791509447952,807.0381999394933,811.69626144429,770.4295108473609
1731141879.5636327,822.7492967947413,805.1520190485717,811.8541944922134,771.5959411806356
1731141879.5637062,780.994786164843,801.3150840295738,809.7873916415924,772.7603270812618
1731141879.56753,744.0224141228114,797.0609388762672,809.0984854634106,773.9226973143386
1731141879.570955,735.9337794999986,794.7671952535808,811.0381509829672,775.0832679569321
1731141879.5714269,758.4740218446914,796.0135967164365,813.3610406659196,776.2420822109693
1731141879.5753238,790.4544824569783,800.2347630555992,812.4890616915318,777.3989121448221
1731141879.5792208,805.3871711216107,804.9266094474013,806.9889491374612,778.5535402623881
1731141879.5812616,792.9102318985432,807.4028180468121,799.1863746875849,779.706284844753
1731141879.5831175,766.322587231007,806.6994266442258,793.4026702806806,780.8583031504803
1731141879.5865304,750.1535699653285,804.0650654787427,792.3867635677518,782.0110154959287
1731141879.587015,758.631659626467,801.7285227646238,795.1770001887454,783.1643953534361
1731141879.590912,783.5326129595271,801.0909726181748,798.2671920718293,784.3151327476992
1731141879.5948088,801.534017157793,801.8309127321227,798.8888052387646,785.4571616399912
1731141879.5987058,794.4009257445326,802.4850339778644,797.4135969328698,786.5869004250645
1731141879.5988224,764.7783140963157,801.8437641018065,796.8975248155449,787.7118280349343
1731141879.600116,734.5991986959426,799.994649930114,800.3728601274701,788.8543526384336
1731141879.602106,727.6695763322001,798.2858345430725,808.1991081271908,790.0391085342675
1731141879.6026027,750.6027672014962,798.3495539741688,817.4612598412884,791.2601674426455
1731141879.6065,787.3961198348513,800.9527428245831,823.7760935271718,792.4491831825379
1731141879.6103969,812.1292974184258,805.4676428850067,824.2180709218413,793.4920071894195
1731141879.6142938,809.7277011059728,810.2484872887353,819.2668224521509,794.3338942718525
1731141879.6176815,787.8398661638875,813.56682790648,812.2595383310183,795.1378059789022
1731141879.6181908,769.8123899874569,814.4643017116576,806.8144877821292,796.3358981756204
1731141879.6189706,774.4816107267426,813.0744906341116,804.512306014467,798.3569603387589
1731141879.6220877,799.8205159294677,810.36832604807,804.6489371102593,800.9940405512723
1731141879.625985,824.3828343582002,807.5492202780474,805.6246772668891,802.8476934951109
1731141879.629882,825.4627480134354,805.4162790099263,806.301516271267,801.734407967074
1731141879.6332572,798.8077158254808,804.0360030653935,806.4012641049662,796.6849756526425
1731141879.6337788,763.4348601648277,802.9565207641278,806.1729753311978,790.5466173808139
1731141879.6339386,747.3800464570165,801.8359529051285,805.9314645046768,790.1067679334907
1731141879.6376758,765.6684508250491,800.9349224582196,805.8214044668196,801.3889658544556
1731141879.637825,808.0250593763161,800.9315505425261,805.8233922560369,823.0206661294693
1731141879.6415727,846.2345683410277,802.1333692131573,805.8594506697885,844.7969045346932
1731141879.64547,855.6727835832578,803.8495886077188,805.875096100113,854.7475078292258
1731141879.6488326,834.1817528282148,804.6659194914838,805.8599732014098,849.1409109198146
1731141879.6493669,803.1765977508737,803.5214795600644,805.8291641969098,836.0462055757966
1731141879.6532638,789.9147538256095,800.6492977616093,805.7992650641571,828.6448327276313
1731141879.6566796,805.2968393117416,797.5178860667421,805.7771579422927,833.8612317806343
1731141879.6571608,835.4332785023515,795.8397815332349,805.7612551196798,846.2539920235326
1731141879.6610577,853.7898738859285,796.5115447256223,805.747326021155,852.5925360291365
1731141879.6644082,843.550831157235,799.252746590883,805.7326530902573,843.2852618261749
1731141879.664955,811.5804924170599,802.9840702047057,805.7168726281877,821.0055098157598
1731141879.668852,782.8039972411995,806.4617262950158,805.7008653522715,799.3532454608488
1731141879.6690545,780.1487351815002,808.7583864801119,805.6855018864258,792.7448471985709
1731141879.6727488,806.559721916127,809.5160844241041,805.6711097525786,805.7483688349627
1731141879.675534,843.2347448323744,809.0310544958853,805.6575835189141,830.1770506900463
1731141879.6766458,864.9211739847756,808.1287429515413,805.6447025660063,851.7921061635072
1731141879.6799836,859.7739340658321,807.7475511556278,805.6323395395717,860.91495744474
1731141879.6805427,837.9915655385792,808.350236237096,805.6204915677602,858.5179935862652
1731141879.68444,822.4959056270069,809.5424962738174,805.6092157908934,853.3737764568938
1731141879.6883368,829.3828626335845,810.2559987379923,805.5985640435869,853.275000232554
1731141879.6922338,854.333275562817,809.4492687892758,805.5885579833874,858.1300515268173
1731141879.6943886,876.3787653758586,806.8277503255171,805.5791971428861,860.847152909199
1731141879.695559,875.9147923366036,803.0442240198354,805.570476100076,854.9132543376558
1731141879.6961308,851.794075276461,799.2795984398756,805.5623948374881,841.5916806473834
1731141879.7000277,823.0502919826503,796.5890990890198,805.5549596990642,830.0259330841185
1731141879.703925,813.6637591411426,795.4778854080746,805.5481797059595,829.8827519397787
1731141879.7041707,832.8817816684815,795.8570436022392,805.5420631778495,842.8030581199125
1731141879.7078218,867.2484665991806,797.2192616145519,805.5366165953278,860.0478196504165
1731141879.711135,890.8948327229671,798.8479922447999,805.5318451351803,868.5397324442745
1731141879.7117188,885.8294225625475,800.0356009547036,805.5277535885601,860.6205855121094
1731141879.713243,855.914378834488,800.3513454032862,805.5243468671824,839.9216697564771
1731141879.7156155,823.2690585097666,799.8664819025156,805.5216300122424,818.8079025806617
1731141879.7195127,810.0497491935209,799.1065311647277,805.5196079808613,809.2681475120776
1731141879.72341,820.6197160336202,798.6238430936804,805.5182854710897,814.0734442281779
1731141879.72671,838.9628049946826,798.4610901628964,805.5176668791374,824.9371520045165
1731141879.7273068,843.3914904251351,798.0352037368718,805.5177563478387,829.2277427351446
1731141879.7312038,825.766800790482,796.7096350830304,805.5185578213554,820.1544696312234
1731141879.7320976,798.5887321009224,794.6356984004517,805.5200750431036,802.3571526426297
1731141879.7351007,783.9559979721282,793.0094144047449,805.5223114871428,788.207709220805
1731141879.7389977,794.0735359495276,793.3043304340006,805.5252702789795,787.5983361205864
1731141879.739287,820.0253357678763,796.0350145180644,805.5289542134682,799.5424302925271
1731141879.7422855,838.3247107967493,800.1743270272756,805.5333659564934,812.6813301989206
1731141879.742895,829.9251898354983,803.8181931244671,805.5385083629643,814.4910157686985
1731141879.7467918,796.2291734933629,805.5368847980646,805.5443845932576,801.6580028005235
1731141879.7506888,759.0347551524677,805.2344757120288,805.5509975890442,783.0072481291645
1731141879.750952,744.149874450976,803.8688504276217,805.5583488207651,772.5176528062879
1731141879.7545855,761.4495503103905,802.4804679798801,805.5664371602804,778.1494442170307
1731141879.7578611,797.1465957444437,801.5135178276818,805.5752596804796,795.5545687672492
1731141879.7584827,824.5231337653614,800.9246809565362,805.5848157714977,811.6187422539011
1731141879.76238,824.7843117324092,800.6963614815444,805.5951129852754,814.8170901643232
1731141879.7662768,801.6097890754563,801.060010195424,805.6061684013428,804.0742431107898
1731141879.7698066,777.8919639973158,802.2140889624444,805.6179975839464,789.2544946740288
1731141879.7701738,777.2419127709936,803.9403205859894,805.630590719928,783.1725531264588
1731141879.7734368,804.9148077594629,805.595343081796,805.6438936173295,791.626851207551
1731141879.7740707,843.2686034251781,806.5045162987923,805.6578276317373,809.2614088484534
1731141879.774403,865.412792075665,806.37599315187,805.6723711894576,824.237965805232
1731141879.7779677,856.3344197459171,805.3862261686331,805.6876661051057,827.707907374333
1731141879.781865,824.7124442478117,803.9363183502921,805.704027028165,820.4110050740627
1731141879.7857618,795.7967851594624,802.3578809170563,805.7217117805519,811.21381017033
1731141879.788661,790.8809684676761,800.8374108337548,805.7404692548782,809.0429528110443
1731141879.7890122,810.0497356662346,799.5907671269861,805.7592270144817,815.1137321137991
1731141879.7896588,832.5730618171867,799.0604991334976,805.7765580449977,822.0835348768162
1731141879.7935555,834.8571664813456,799.8413022327445,805.7922817108886,820.9012976974271
1731141879.7974527,811.0368075166833,802.2634694510455,805.8093761715805,809.5236813541597
1731141879.80135,778.7662895380467,805.9311025063236,805.8338353352655,795.8915600436513
1731141879.8045876,765.0393374396039,809.6613395652398,805.8699516059439,792.1929775319738
1731141879.8052468,783.671890893117,811.9898695236321,805.911813875156,804.7282605320624
1731141879.8075156,823.1440186502848,811.9351719880185,805.9383590185082,827.6643486376952
1731141879.8091438,854.9942964634245,809.5182449223213,805.9238829849006,846.2827664276668
1731141879.8095193,856.1781592028747,805.7696775756774,805.8692350670635,847.876503638004
1731141879.8130407,827.4261444770748,802.3045314604624,805.8357725162065,831.9336426514716
1731141879.8169377,792.6619844067374,800.6694823730669,805.9363379681513,811.0747518909861
1731141879.8201632,779.6848897087558,801.6311557696847,806.2392431133128,801.270070760644
1731141879.8208349,797.7191990834818,804.6514826359229,806.6090616607195,808.9352322090067
1731141879.8247318,830.3807970852154,807.9521579320601,806.6306913799698,825.7155655605898
1731141879.82637,849.9966065636878,809.4266228731383,805.8339856206832,835.595822899595
1731141879.8286288,841.2008701827817,808.0475384468468,804.2802057238537,828.386810252744
1731141879.8325255,813.795141411597,804.793643772225,803.1041501756605,808.1145231806595
1731141879.835739,794.0926999530408,802.1967675704991,804.1758692611965,789.3855273268368
1731141879.8364227,802.3713537481589,802.5721659052945,808.5260948128561,785.1893115352949
1731141879.84032,835.6049698484607,806.145381941504,814.7258392815831,796.5481831822394
1731141879.8442168,869.675087033813,810.5798507075333,819.2088741717736,812.2665303054034
1731141879.8446355,878.718384318645,812.43682889093,818.887360368962,818.316305919833
1731141879.8452246,855.488187577115,809.587268148726,813.8385843884115,808.8189587673269
1731141879.8481138,816.4912147028502,802.8057881430767,807.4103461235388,789.9979759487288
1731141879.8513143,788.2963028249407,795.3685634234855,803.4279830865777,774.5655028929839
1731141879.8520107,786.3198187505922,790.956027087173,802.9464635602831,771.5318617296929
1731141879.8559077,803.1862005419086,791.3730802923436,803.5440128985801,779.6916429488114
1731141879.8598049,816.0539565771613,795.6585009988023,801.9284674229762,789.7866738026598
1731141879.8637018,806.8290893076497,801.0584177357144,797.5402229719176,793.159640692803
1731141879.864079,778.32940341491,804.9549220362101,793.7182642944924,789.3554955806966
1731141879.8668897,752.6566325974275,806.2675428902722,795.0671049451087,786.1599505245332
1731141879.8675988,753.0135500647143,805.4863416679808,803.188205015148,792.1921574081251
1731141879.8714955,784.1724361131526,803.6863269327041,814.6402899828325,808.5986340635594
1731141879.875393,827.7640036426194,801.546344780586,823.1519017682778,827.0528424174531
1731141879.87929,856.0380964478336,799.1118608405596,824.3414943974487,835.8357399456706
1731141879.8797517,852.7351302378921,796.2591448584445,818.9744715031028,829.1167391569708
1731141879.8824651,824.5368795926286,793.2688184700042,812.0883273460984,812.0608072576695
1731141879.8829336,794.6259113787498,790.9397166826178,808.8406807641809,797.6372554762881
1731141879.8831868,783.981074810864,790.1236250318946,810.5377828001355,797.2697743558883
1731141879.8870838,795.2337147294515,791.0605280742775,813.9449783939432,812.2239017740353
1731141879.8909807,811.6859514624894,793.076523742629,814.2197003683865,832.4454180669717
1731141879.8948777,812.2100768688184,794.9250567532936,808.9596594506231,844.158120149917
1731141879.8980408,789.9633763582614,795.5275549212336,800.104181263237,840.547222497699
1731141879.8987749,759.2809977476758,794.5550421689949,792.2668485727606,826.948841340695
1731141879.901788,744.4178852799412,792.4571576043008,789.0065074044412,816.1489988842283
1731141879.9026718,759.0341027412364,790.0138991099407,790.1869137889993,817.6070713992332
1731141879.9065688,793.6424535142606,787.8355121684443,792.5815218429744,829.6222735445618
1731141879.9104657,822.0504608316318,786.2007124641643,793.0755158400983,840.9910497958855
1731141879.9136162,822.0067025582823,785.2788282026114,791.589183266779,840.6554798336966
1731141879.914363,793.2791146656363,785.4283848308675,791.138154642984,827.1791640530245
1731141879.914868,758.4165252410734,787.192688580631,795.0043661203285,810.1801770462569
1731141879.91826,745.5157901800699,790.8968228980859,803.5294388110715,802.5982065205486
1731141879.9206426,766.6323720905074,796.166978230172,813.3262165987315,810.1560169488914
1731141879.9221568,808.7308032816411,801.856926519835,819.5906667740524,826.633851059965
1731141879.9260538,844.1287903685718,806.5671038959479,819.621048670299,838.9235829859623
1731141879.9291918,852.0877329375296,809.4070028888141,814.7589267249173,837.8550996187778
1731141879.9299507,834.3468094469376,810.4019571274092,809.3217495591228,825.7839178344243
1731141879.9338477,812.1888236127689,810.2635970129074,807.4508816411089,814.2985758080889
1731141879.9377449,807.7154992266153,809.8058691652756,810.275987088218,813.7326099922251
1731141879.939497,825.165291027738,809.5074433887702,815.3724211923494,823.5296430565577
1731141879.9416418,847.9943283609396,809.4522427476646,818.673676706373,832.1515756808631
1731141879.9447672,853.9038251077856,809.5178461770798,817.2931117851389,827.0258249614845
1731141879.9455388,834.7140189267558,809.5747736081554,811.3146425995255,806.1382915180751
1731141879.9494357,804.1033522318622,809.5731001321698,803.5623120610375,781.2272483392081
1731141879.949984,786.7464633590733,809.528853265326,797.7390524459489,769.5641116422968
1731141879.953333,797.9924504717869,809.4765917495253,796.2050593464436,780.8389610638746
1731141879.95723,830.860058211803,809.4373249484827,798.7205936029645,809.6039464103904
1731141879.9583516,860.941698909238,809.4131510341491,802.8683383820663,839.0732738395708
1731141879.960343,865.3096900257597,809.3967557816743,805.8849148034757,853.0777922761871
1731141879.9611268,840.3810240077436,809.3813720799747,806.6693415608624,846.9745898887032
1731141879.9650238,804.5101199730229,809.3647171452801,806.4415237262925,829.6303785675506
1731141879.9689207,783.1718898686291,809.3478819512043,807.4075701923756,815.6505236786586
1731141879.9728177,788.5903725860347,809.3327451902809,810.447196112523,814.2287905283978
1731141879.9759183,810.2914504502818,809.3203690203538,813.8753518332773,823.0704454297187
1731141879.9767146,824.1989695849232,809.3108193126743,814.5815157769749,831.5047714145895
1731141879.977206,812.7003500364195,809.3037105359972,810.759075162192,829.703319348875
1731141879.9806118,779.3041913020563,809.2987214577037,803.8742645760967,816.5216358147399
1731141879.9845088,746.2739339583122,809.2957756207235,798.0199836076691,800.1447937560844
1731141879.9851005,737.5180608695302,809.2949645231153,797.0088486534812,791.6957949138629
1731141879.9884057,760.4292393935805,809.2964084018336,801.5390418454007,797.1830724418887
1731141879.9914937,800.5406608590765,809.3001785502937,808.7607440123874,813.6744738487905
1731141879.992303,832.5060430773776,809.306296693557,814.5745455846383,831.7296800356854
1731141879.9960606,838.5370136722522,809.31476854512,816.710347357225,841.5614370552005
1731141879.9961996,820.2546788501951,809.3256074985715,816.0022786558176,838.4542476765331
1731141880.0000968,795.3423563594258,809.3388309674164,814.8627540568194,824.2373458555625
1731141880.0039935,782.2075239561754,809.354440022376,814.4689437218636,804.5600152630429
1731141880.007069,785.214209431532,809.3724103323889,813.3985249061582,784.4407860402348
1731141880.0078907,792.5068624435228,809.3927212171634,809.1348431414027,765.548880829518
1731141880.0117877,787.9675356263278,809.4154211839918,801.0619740392004,747.1502532901761
1731141880.014915,766.7813065983453,809.440675629779,791.9601955313169,729.4204819543422
1731141880.0156846,740.817723229371,809.4687019703653,786.3057337953531,715.5015709870825
1731141880.0195818,728.7698488839316,809.4995389545951,786.7193106544046,709.6963027497715
1731141880.0202162,739.3674857662229,809.5327677186981,791.7293651943087,713.0542242104069
1731141880.0226448,762.362410825289,809.5675270260156,796.8731112322358,720.7127568119038
1731141880.0234787,775.718398222253,809.6031906082603,798.2060959258331,724.3624591581461
1731141880.0273757,763.6985574919189,809.6405996749098,795.2591458630358,718.5769837826376
1731141880.0312726,730.8656603749637,809.6827948796802,791.0567661748613,705.7143248363758
1731141880.0337696,699.7460912314522,809.733519371682,789.3344725229867,694.7097616230196
1731141880.0351696,693.2427802588369,809.7927116278719,791.3782206429647,694.1775123153528
1731141880.0382204,715.9360505191162,809.8515446794066,795.1105634541273,705.3472483565802
1731141880.0390668,749.9734011367375,809.8936141844758,797.0763435451813,720.8192437169265
1731141880.0429635,769.4329806117605,809.9086824138896,795.5239827197961,730.3935223510797
1731141880.0468607,761.4999925920313,809.9155852722145,791.9168764530489,729.330421562734
1731141880.0507576,736.8461310539826,809.9729448933246,789.6487097353967,722.2898545125178
1731141880.052624,720.5765856422917,810.145284200686,791.1638092743516,719.6006111854059
1731141880.0537958,731.3504035231382,810.4126283308157,795.9540054068125,728.6670790395415
1731141880.0546546,765.9344848980037,810.5738444882471,801.0179212619972,747.3490877091245
1731141880.0553324,801.7246256710962,810.2568746995304,803.2783643722521,764.8682361727356
1731141880.0585518,815.0404364536372,809.1203942923661,801.9749242084367,770.0147201038559
1731141880.0624487,800.2947192467552,807.1677698939591,799.2172887685219,760.4090375823824
1731141880.0663457,774.4151612189938,804.9205631780634,798.3529673593963,745.152295005311
1731141880.0693717,762.7956691325315,803.2313036713532,801.4102065292658,738.1081486011946
1731141880.0702426,778.2560064779823,802.8009228767402,807.5207692913982,746.8416484587154
1731141880.0714786,810.5091096293896,803.7629543385439,813.4903992143692,766.3522376178709
1731141880.0741396,835.0691776213201,805.6824670408474,816.0904447873428,783.1641939638001
1731141880.0780368,834.2408201548939,807.9500755230823,814.365658144403,786.6960521561916
1731141880.0819335,812.5516104192834,810.1832513126408,810.2693802353981,778.4868725194459
1731141880.0849469,793.5491820968642,812.2784254427394,807.219383249199,771.4117821238337
1731141880.0858307,800.4356803954636,814.1555628604475,807.6813412263857,779.2468791978538
1731141880.0897276,836.3897801207773,815.5453433520288,811.4929361033243,804.9089530107476
1731141880.090333,880.6276145021912,816.0563558027477,816.0299184405225,836.8757522213923
1731141880.0904486,903.5763863694486,815.4173213935859,818.0683377912851,856.9335839104027
1731141880.0936246,889.4608344449216,813.6489174920293,816.1190612484043,853.6045648877425
1731141880.0975218,848.7526508854302,811.0829129382158,811.6332810489945,831.0282852456843
1731141880.1005225,810.5575203503744,808.3091370332999,808.0630046871557,806.2094902857446
1731141880.1014187,800.5030509782432,806.0692876469626,808.2167125331346,796.3908905382211
1731141880.1053157,821.375709533052,805.0068924353498,811.8564872276875,806.3092653629554
1731141880.1091876,852.041312746441,805.297427260997,815.6719033172291,825.5553491375334
1731141880.1092126,865.575166604886,806.4305368928862,815.993025627603,838.1208729057118
1731141880.1131096,851.6177913844662,807.4279287917606,812.1049535876281,835.9835840994552
1731141880.116098,824.3923434379133,807.4359601852818,807.1794826014819,825.2178927397275
1731141880.1170068,810.0091930378937,806.2706034947329,805.7707753549828,819.7695452911876
1731141880.1209035,824.1813558960005,804.503890600623,809.9223184123595,828.7537540611095
1731141880.1248007,859.1195363945856,803.0475804645347,817.2686574128377,848.3629231802903
1731141880.1255648,890.0167502906475,802.5552115186237,822.798583742383,864.9609018458667
1731141880.128042,895.0907814332392,803.0463318438012,822.7951831267321,866.2828509815662
1731141880.1286976,872.6392034020982,803.9681831183307,817.6918975591988,851.3133009468492
1731141880.131673,841.7584717502374,804.6280263584243,811.5623894696951,831.0528220300253
1731141880.1325946,826.6841096868144,804.7076929336682,808.728203683708,819.8932923444041
1731141880.1364918,837.4986113739885,804.5055412053547,810.2876585602081,824.6122388915514
1731141880.1403887,862.6552959522114,804.6987182128214,813.4385564127485,839.6888981376244
1731141880.1442857,879.2538101078225,805.742357659525,814.1610778041675,852.509638238417
1731141880.1468966,872.4925457095858,807.326309087652,810.9390159014308,853.9865336155619
1731141880.147249,848.032595128894,808.3466154321834,806.2119453679842,845.7006855501368
1731141880.1481826,826.9161941746717,807.5321451747317,804.1864224415066,837.7403566391897
1731141880.1520796,827.4408175855201,804.3750088603296,806.8922388592524,839.3738578282968
1731141880.1559768,849.4016683096188,799.6966270134678,812.0190253562706,850.6738186578709
1731141880.1598735,873.9936248612084,795.3377409943587,814.5531351825585,862.1602405841728
1731141880.160681,879.4092511779878,793.0768383382484,810.8864338773195,862.6542215376411
1731141880.1628244,859.1275100387082,793.5242485713567,801.8943758526715,848.7976137345725
1731141880.163771,827.7656601948561,795.8316625310588,792.3787975131489,828.4444178120594
1731141880.165751,809.5175868154091,798.4261051597401,787.3724587841127,815.0073793407166
1731141880.1676676,818.2913439532708,800.1261550073452,788.4027357258601,816.9531638946456
1731141880.1715646,845.6446905815371,800.7084408124459,792.7679479278072,830.6872999540853
1731141880.1754618,866.8604947461721,800.5628379516335,796.2929704813113,842.8406099674627
1731141880.1784,860.968524178452,799.9595053919792,797.0761327128674,840.6778667542233
1731141880.1793587,828.5824524079628,798.7620785650394,796.9277725422413,822.4964710691387
1731141880.1832557,792.4328888524994,796.8579025211716,799.2802976957762,799.4113448760573
1731141880.1846056,779.4996378338999,794.7589248978448,805.5264843753845,786.8083032751904
1731141880.1871526,799.1800107691959,793.6178348699408,813.167429397879,792.3631839497767
1731141880.1910496,835.5221743448216,794.4934225990179,817.5230925199984,810.3747373245308
1731141880.1939754,859.9441498315246,797.4719423352348,815.5613453348014,826.7903209021797
1731141880.1949468,853.9719093454896,801.4559606793473,808.5258648992065,830.4860922848173
1731141880.1957972,823.5544587682416,804.8750556064807,801.1186744739107,821.572038908353
1731141880.1988437,793.7167719837596,806.7523992933862,797.9661649734085,810.3569026201607
1731141880.202741,788.3231517485798,807.2269294137698,800.3079188502845,808.3253858892828
1731141880.20346,811.4246635333275,807.1190908163791,805.4796035116848,818.7035162726579
1731141880.2066376,844.9239458664075,807.0109557922359,809.3437235209027,834.1972207785717
1731141880.2095509,863.8930032524154,806.7452868879469,809.5237222925201,843.5301888514944
1731141880.2105346,856.7304498503506,805.7940533777432,806.9177051542596,841.2492199120661
1731141880.2144318,833.758357134665,804.0533945902531,804.5587900811355,832.5965742945488
1731141880.2183287,817.6189651086024,802.1992075446277,804.992734909494,829.3033993368871
1731141880.2222257,823.857440375264,801.213846843253,808.3128607394165,839.7109071026896
1731141880.2223146,847.9105726646779,801.5596259399127,812.2372966888548,861.3881327646623
1731141880.2251265,869.0120667463336,802.8233386778611,813.933606766326,882.3691377682625
1731141880.2261226,867.4158972863937,804.149551272568,812.093663987782,890.073716711543
1731141880.2300196,840.6957304645708,804.9843937340773,807.8173802714192,880.8164622085847
1731141880.2309134,806.0352833720292,805.3990395809628,803.84064226849,862.4302001818663
1731141880.2339168,786.8540732937224,805.7639341987106,802.6948566313216,848.0155039234666
1731141880.2378137,794.5185495158446,806.2125146314291,804.9636416528208,845.798134536103
1731141880.240702,819.713013956533,806.4668598867635,808.7683392021609,853.1468453173591
1731141880.241169,840.4212692378946,806.1391987844283,810.951083382097,859.5297107087723
1731141880.241711,840.1806991033276,805.1380486693681,809.299658285833,855.9590857654381
1731141880.2456076,821.6709307212299,803.7889075817334,804.2390190367571,842.9836111557543
1731141880.2495046,804.0835260625922,802.6374647789385,798.5967942602199,830.2554924057833
1731141880.2534018,806.0892332136864,802.184693075568,795.4911313800998,827.7917574733871
1731141880.2562776,828.7493095154068,802.7516746832488,795.9887034983069,836.4609100798951
1731141880.2572987,853.3082044681037,804.4445237952024,798.4590833075158,846.2925531113424
1731141880.2600236,856.3341583796876,807.0881048365399,800.1411128010101,844.5574419975076
1731141880.2611957,829.7615170265922,810.1186691390882,799.5320804995254,826.8797039095649
1731141880.2650926,788.984614128433,812.5966918932347,797.5075977573247,801.6948536772313
1731141880.2660296,761.9520655443827,813.4957350422713,796.2601697373134,783.9127773719395
1731141880.2689896,767.8034249710199,812.205791998308,797.1875085227651,782.9206015509033
1731141880.271853,802.0971221913263,808.9484158098859,799.793403108294,795.033352692472
1731141880.2728868,840.3867814738427,804.7680123637003,802.4623920780009,806.8532269295727
1731141880.2767837,857.2339033210437,801.0180718343631,803.9862733689943,806.7773897178486
1731141880.2788782,845.4260145355473,798.6490240914712,804.2716539747445,794.9058300176799
1731141880.280681,820.0859075598523,797.7978152052411,803.9373593248752,782.8604161578946
1731141880.2845776,804.7744138580632,797.9413206488446,803.5990891165378,783.6152021748542
1731141880.2874286,811.575925919542,798.3981204484923,803.5116562070061,800.0494749506984
1731141880.2884746,831.9221614196263,798.7379274471019,803.6237240495044,822.0210457705716
1731141880.2923715,845.238172490091,798.866991528936,803.7871059980097,834.2910058440127
1731141880.2962687,836.8439965603042,798.8816881547665,803.9054479125832,828.2685893781568
1731141880.2977326,809.0811096013535,798.8956193943807,803.9651657282143,807.6704593024548
1731141880.3001657,777.0878800412854,798.9574043479557,803.9968362991178,784.1767377869737
1731141880.3011458,755.35781075109,799.0568803433279,804.030947610635,768.1034710981414
1731141880.303004,748.2424038498439,799.1648008948645,804.0789147973123,762.4228119532456
1731141880.3040626,750.8455375478633,799.2619221647262,804.1368313288519,763.7030016773163
1731141880.3079596,755.8815837791299,799.3452876814875,804.196652844958,766.8489457503393
1731141880.3118567,758.9894294295575,799.4207638204106,804.2535891255698,768.7561535309612
1731141880.3157537,759.5946902636875,799.4943225894334,804.3072479461124,768.9494004286173
1731141880.3165872,759.0460399724586,799.5682305020907,804.359378771669,768.3265665964478
1731141880.3185794,758.6554153832619,799.6417267898723,804.4115648364512,767.7972133014379
1731141880.319651,758.8925320718197,799.7132072432152,804.4643351110897,767.7019650439807
1731141880.3235476,759.5694432156048,799.7816906079865,804.5174414422719,767.9222891832347
1731141880.3274446,760.3322690507408,799.8470603420562,804.570463341146,768.2158305646743
1731141880.3313415,760.976714125823,799.9096289380743,804.6231757060316,768.4383219463699
1731141880.334155,761.4903762563719,799.9696833020087,804.6755848773607,768.5778104946368
1731141880.3352387,761.9510831570808,800.0273060601,804.7277995989995,768.6867381505598
1731141880.3354416,762.4268348239232,800.0824271285298,804.7799116390958,768.8125265259174
1731141880.336262,762.9389443009566,800.1349420415694,804.8319551477946,768.9708824004762
1731141880.3391356,763.4753699197901,800.1847850467323,804.8839252454454,769.1541421081183
1731141880.3430326,764.0172895106283,800.2319370927002,804.9358104477485,769.3494616693932
1731141880.3469296,764.5547615727436,800.2764008480461,804.9876107707172,769.5498727818182
1731141880.3497305,765.0879100603801,800.3181771640199,805.039338360446,769.7553641583818
1731141880.3508267,765.6211465587055,800.3572568701071,805.0910102105405,769.9689998466421
1731141880.3542962,766.1580099533414,800.3936242910203,805.1426420213386,770.1933297288798
1731141880.3547237,766.6994959177524,800.4272636083136,805.1942463790856,770.429168462752
1731141880.3586206,767.2449302884063,800.4581624731177,805.2458339217874,770.6761554056501
1731141880.3625176,767.7933901943828,800.4863121827487,805.2974150524205,770.9337301707639
1731141880.365306,768.3444725465714,800.5117062722226,805.3490008089532,771.201677200213
1731141880.3664143,768.8983015313701,800.5343393061528,805.4006028202783,771.4801447225245
1731141880.3703115,769.4552040292184,800.554206512688,805.4522328886934,771.7694259030118
1731141880.3713782,770.0154452351891,800.5713040084721,805.503902664607,772.0697746615853
1731141880.3731506,770.5791562649492,800.585629136656,805.5556235559794,772.3813517934054
1731141880.3742087,771.1463909097458,800.5971806411089,805.6074067870549,772.704260998073
1731141880.3781056,771.7172028864192,800.6059586597141,805.6592634763686,773.0386006934755
1731141880.3808815,772.2916811746809,800.6119646424972,805.7112046660918,773.3844889845657
1731141880.3820026,772.8699395741247,800.6152012873464,805.7632413039261,773.7420598900121
1731141880.3858995,773.4520881090466,800.6156725218442,805.8153842077248,774.1114494220056
1731141880.3897967,774.0382182921076,800.6133835123469,805.8676440366298,774.4927893720037
1731141880.3920052,774.6284222127595,800.6083406708367,805.9200312749016,774.8862148690512
1731141880.3936937,775.2228402724834,800.6005516446669,805.9725562232089,775.2918775244469
1731141880.3964572,775.8216966591194,800.5900252960053,806.0252289905095,775.7099455849205
1731141880.3975906,776.4252565494434,800.5767716925764,806.0780594832572,776.1405746446828
1731141880.4014876,777.0336688721983,800.5608021281579,806.1310573922657,776.5838560945604
1731141880.4053843,777.646774883243,800.5421291632574,806.1842321789044,777.0397911091841
1731141880.406494,778.2641158139373,800.5207666326564,806.2375930618477,777.5083620960462
1731141880.4092815,778.8853911952511,800.4967295457265,806.2911490046433,777.9897260557844
1731141880.4108596,779.5112980547784,800.4700338643042,806.3449087037992,778.4844094682232
1731141880.4120326,780.1440356212283,800.440696300157,806.3988805770446,778.9932228795241
1731141880.4131787,780.7862980335713,800.4087344321262,806.45307275162,779.5166473799849
1731141880.4170756,781.4382136800253,800.3741673742772,806.5074930526424,780.0538842507192
1731141880.4209726,782.0939564771163,800.3370167304744,806.5621489916487,780.6025023555495
1731141880.4248695,782.742519800228,800.2973068020683,806.6170477553918,781.1599885409687
1731141880.427608,783.3770495379378,800.2550627291722,806.6721961949153,781.7274713283985
1731141880.4287667,784.0105224346725,800.2103064982554,806.7276008148971,782.3130874257163
1731141880.4297142,784.6833949808333,800.1630537598767,806.7832677632618,782.9296231004968
1731141880.4326637,785.4414515832998,800.1133171262904,806.839202821069,783.5822643611712
1731141880.4365606,786.2765205275747,800.0611197185217,806.8954113926942,784.2511424678355
1731141880.4404576,787.0669765361249,800.0065128319301,806.9518984963283,784.887144821523
1731141880.4416103,787.6042235765666,799.9495774678381,807.0086687548031,785.4446808263998
1731141880.4431837,787.7806725313717,799.8903860655741,807.0657263867502,785.9528029405385
1731141880.4443543,787.8800480141613,799.8289272308757,807.123075198097,786.5722047055007
1731141880.4482515,788.6833441565936,799.7650537559589,807.1807185739161,787.5365980046115
1731141880.4485686,790.9906052789295,799.6985603499165,807.2386594706778,788.9106057610892
1731141880.452149,794.4749459966745,799.6294501057407,807.2969004089689,790.2736191381593
1731141880.4560456,796.6370901347484,799.5582526646273,807.3554434667124,790.6937460669835
1731141880.4587593,793.4771988810862,799.486000099436,807.4142902728147,789.4230379841713
1731141880.4599426,783.0735732439878,799.4134414901172,807.4734420010569,787.2862979558279
1731141880.4638395,770.3779537982522,799.3396280371616,807.5328993640682,787.7450731435187
1731141880.4674232,767.6589845957309,799.2610905632234,807.5926626075328,795.9067070297828
1731141880.4677365,786.0817973616703,799.1735911200941,807.6527315053105,814.7368931458042
1731141880.4716337,823.2763726643815,799.0773178677558,807.7131053564106,840.6833474860167
1731141880.4743347,859.9101255923697,798.9825417399563,807.7737829840261,863.1430534027511
1731141880.4755306,872.2308895070236,798.9081327044651,807.8347627348422,870.1880926057075
1731141880.4767263,851.5052855698699,798.8656461469423,807.8960424748205,857.3484445452632
1731141880.4794276,813.045184504336,798.8330501009141,807.9576195785203,832.3795852780748
1731141880.4833243,785.8674074812104,798.7427870393981,808.0194909153117,811.1662675994223
1731141880.4862776,790.6877976552116,798.5212874929728,808.0816528456271,806.8994042875102
1731141880.4872217,824.0893080444555,798.1930470587374,808.1441012440764,820.6139515967685
1731141880.48991,861.9060859091537,797.9906908462789,808.2068315503969,840.7853025500441
1731141880.491119,879.109426957905,798.3407316059001,808.2698388109047,852.6798750952713
1731141880.4950156,869.7557653851767,799.6305820253519,808.3331176383209,850.0656911234605
1731141880.4989126,850.4886323978769,801.8573051329536,808.3966620417433,839.7269072945302
1731141880.5028095,845.0408531141385,804.4594095902617,808.4604652042891,835.1902434529989
1731141880.5051322,863.3151802211424,806.5740450869246,808.5245194658124,845.1219901769931
1731141880.5054858,892.9418705488433,807.6048323480521,808.5888168124425,866.122070721745
1731141880.5067065,910.1766901578738,807.6567935590388,808.6533498392214,885.6468763421635
1731141880.5106037,900.5220143112908,807.4577862689616,808.7181124206911,892.3022500665846
1731141880.5118427,871.5799104432132,807.8178715720318,808.7830987348992,884.9194933464579
1731141880.5145006,847.439224828403,809.0709359793884,808.8482998841772,873.0991710762048
1731141880.5183976,849.2079301332951,810.9313571134971,808.9136998469912,868.956471851466
1731141880.5210612,877.5697623095298,812.8237089043866,808.9792757693299,876.9625322969972
1731141880.5222943,911.5988560065182,814.3668611540539,809.0450079407893,890.3241210049164
1731141880.5239866,925.0058919228447,815.617378337887,809.1108978136592,896.9219059501586
1731141880.5261917,906.9603847608538,816.905991191408,809.1769785546957,889.8004016614866
1731141880.530089,870.8005698296814,818.4211331542673,809.2432929007141,873.3113633612884
1731141880.5339856,843.4884537288667,819.8765105860923,809.3098271536509,859.662320457865
1731141880.5366366,844.1485355578488,820.5348548303474,809.3764391018751,858.7721680802048
1731141880.5378826,868.9654174063758,819.6028810481871,809.4428766106553,870.0102714041046
1731141880.5417795,894.6381186257869,816.755709226976,809.5089801536288,882.7736769981101
1731141880.5428412,897.5229971807386,812.475379005568,809.5750188929758,885.4312598290517
1731141880.5456765,872.9147390138537,808.005238574542,809.6418489314282,875.2282534269499
1731141880.5469587,838.9082867364067,804.8950863217381,809.7104278162088,860.9215450026959
1731141880.5495737,821.756931387607,804.2679720649537,809.7805371299859,855.7550446429185
1731141880.5522122,834.5114855378556,806.1202319730074,809.8495196581658,866.2632922735279
1731141880.5534706,866.2370004330235,809.1167073915117,809.912886269679,886.087865743239
1731141880.5573676,890.7771841345547,811.2102889757241,809.9683905638262,900.2798323045919
1731141880.5612645,888.1763265908505,810.869015651719,810.0222481437481,896.9925971696011
1731141880.5616956,861.185825225407,808.1003663687857,810.0913045696552,877.0023019926422
1731141880.5651617,832.9795636427664,804.4540639473836,810.1926263181863,852.9760096390626
1731141880.5677876,827.7663358090114,801.929909758105,810.3189626608352,839.0258060422119
1731141880.569059,850.45056875763,801.5984429443212,810.4170071094528,839.426110299444
1731141880.5729556,882.3669588485391,802.955662290038,810.4037746609013,845.9796264806779
1731141880.5768526,896.5493154112941,804.4226174847586,810.2478532457554,845.893032340427
1731141880.5805502,879.6779627979944,804.5475018287342,810.0834847280742,833.0707985098185
1731141880.5807495,842.6419111456545,803.0402145548953,810.2352235878935,813.2618846328886
1731141880.582075,811.4856480738528,800.9660539714929,810.998820289276,799.178873997382
1731141880.5833633,806.5741056574195,800.0044837600368,812.1738348332091,800.1368930560693
1731141880.5846465,826.8724292594139,801.2745964823812,812.6991657070954,814.8143935435827
1731141880.5885437,851.6341731654251,804.522706274768,811.0108974689903,832.662307995041
1731141880.5924406,857.7506583118711,808.2500703908167,806.3347604983057,842.3595149685112
1731141880.5963376,838.5978583697455,810.6970284087545,799.9982398835443,840.2939595597563
1731141880.5989387,809.085527422283,810.9529921688898,795.2350225816542,832.3704912397076
1731141880.5994046,792.8332842356053,809.3847294178053,795.0500188408267,828.0459261827757
1731141880.6002345,802.1169215932933,807.1588865174883,799.7013670083995,831.8199746324816
1731141880.6041317,827.3052661407885,805.3479237197587,806.1086453573399,839.3352706417356
1731141880.608029,844.64915460353,804.3223642862777,810.0251448081735,841.2283001639846
1731141880.6119256,835.9382924940779,803.7465714020076,809.3173768706587,831.3470658108608
1731141880.614514,803.6961784585795,802.9724284564682,805.5061690072932,812.4192515613921
1731141880.6158226,769.5133338707278,801.4501322926784,802.1554637108703,794.5514826112293
1731141880.6171913,757.1407130062263,798.9757624128141,801.573529741317,787.8538314186624
1731141880.6182592,774.085109799766,795.8155490960854,802.8810533315703,795.0026003520172
1731141880.6197195,806.1358410648227,792.7264880557492,803.2141353183382,809.3538358746214
1731141880.6236165,828.7794707325689,790.7646095165529,800.864475052788,819.9394715560255
1731141880.6275136,826.3320014493182,790.8300984930188,797.3209417975534,819.6191011557959
1731141880.6300898,803.6744973796776,793.1615357058289,796.189275400616,810.2559086037866
1731141880.6314106,781.2763365668525,797.1476926399055,799.8854206680658,800.8044358988437
1731141880.6353076,777.642817707979,801.6331499179652,807.1138402884328,799.6030119135365
1731141880.6371136,793.8158142828963,805.5067997368989,813.4979487598054,807.0560607409647
1731141880.6392045,812.9978466185954,808.1601642621077,814.935887850249,814.9819184333666
1731141880.6431017,815.5618719684938,809.5649569328178,810.8686271278161,813.5061192801644
1731141880.6456652,796.5193286388371,810.0495914708948,804.7433390635771,799.827838721278
1731141880.6469986,770.4423924410771,810.0225677848482,801.3137441657516,781.2922331202828
1731141880.6508956,759.6029884289252,809.8034490795413,802.955648713254,769.8567688794905
