timestamps,eeg_1,eeg_2,eeg_3,eeg_4
1731143035.539441,817.4761090510607,808.7542124903127,801.16244524592,789.1212375255798
1731143035.5417356,866.6595517595072,809.2469148304348,801.7526281643509,817.4759729442578
1731143035.5456324,895.3860769088378,810.9308000787508,799.0881806684108,838.8455336804674
1731143035.5495288,893.8205500374688,813.8617756248632,792.3419853247934,848.1404480693569
1731143035.5534256,868.4613383052856,816.8737716200785,783.7631565158711,844.3053053243646
1731143035.555,838.9187791146761,818.6302027219898,776.9791130180434,831.2550352131743
1731143035.5553825,825.947874985564,818.8654143699375,774.0972920419509,815.8650147663764
1731143035.5573225,837.5696782718206,818.7040287732452,773.8131396878144,803.6825865260262
1731143035.561219,863.5700267557793,819.7848773824409,772.1713697934964,795.7517606819574
1731143035.5651157,883.7268904907394,822.9577608577173,765.6416836588711,789.4789311462623
1731143035.5690122,884.1722779246527,827.6283153498889,754.2133936869267,782.7706422639596
1731143035.570559,868.7717339435598,832.198256321164,741.9663466560928,777.4369248981822
1731143035.5729089,855.8784952801836,835.1297375130935,734.468273093958,778.4133180499808
1731143035.5742345,862.930944699712,835.7655885975846,734.942485785984,789.2088150522202
1731143035.5768056,891.5979540842437,834.4008932334549,742.2074104950608,807.5601300500521
1731143035.580702,925.7356411640378,831.7762918687288,751.9149740756583,825.4376870153512
1731143035.582325,943.9003465145132,828.5299731440246,759.8899884203396,834.1443796538616
1731143035.5845988,936.3530383210923,824.9847899450477,764.7956566085697,830.9376036616442
1731143035.5861175,912.8226911934823,821.2441034738857,768.1837543524678,821.8559076579224
1731143035.5884955,894.6726255115329,817.3492816653774,772.2981488174536,817.9623183099047
1731143035.592392,897.7760079164622,813.3539392312063,777.7232885180152,827.3855557360121
1731143035.5930867,920.1216333361008,809.3692731089518,782.817516096721,849.2162620524291
1731143035.5962887,944.3238174831811,805.6482574035014,785.2276672134889,874.1896988619663
1731143035.6001854,952.7336035853209,802.6115582329448,784.0897518363396,891.7733492070806
1731143035.6016767,942.2712405810468,800.6526176756755,781.0559611466504,898.1002792770853
1731143035.604082,926.5388567750973,799.7697551847235,779.3053056926137,898.5187860350486
1731143035.6079786,923.7756330861863,799.3641267419239,781.338370372885,902.9336519810929
1731143035.6118753,941.134444081086,798.5333872717515,787.305316168275,917.8482474642931
1731143035.6119387,968.4301397494347,796.7738267906334,795.1162598247191,941.353148627674
1731143035.615772,986.1865991391028,794.5409443174569,802.1003160347649,964.635218490636
1731143035.6170812,981.081812635386,793.1082107209886,806.8001988042669,978.4593908763663
1731143035.6172357,956.3877232047739,793.7022816271724,809.5580105419593,979.5819508713747
1731143035.6196685,929.4055039242182,796.5247301886807,811.6698146815309,972.451767774078
1731143035.6235652,918.0961013956471,800.4143235800177,814.0229672745029,965.1828774959587
1731143035.627462,927.3151366598536,803.4213465771547,816.3788250277021,963.040532466064
1731143035.6307907,945.3847785022267,803.8912914895029,817.7684620138593,964.6068429736088
1731143035.6313586,953.8502337610195,801.3569866200605,817.5238808392846,963.7514056144734
1731143035.6327946,942.8429166961267,796.7660061219104,816.0338119815924,955.7570337619176
1731143035.635255,919.6065782746633,792.0021303595972,814.61888589555,942.2435131000552
1731143035.6391518,902.8332631902534,788.9632890776127,814.6184238243103,930.3113612996428
1731143035.6430483,906.9928526933925,788.6136971198518,816.349886483878,926.3054806053799
1731143035.6469452,929.4639034855965,790.5047656216153,818.7099168594849,929.5917964911497
1731143035.6483536,951.4428829363376,793.125420652814,819.788375421046,932.2102195370658
1731143035.6496427,952.4599761787781,794.965516853332,818.184994181633,925.4388976310856
1731143035.6508417,927.0351108174045,795.6067114676758,814.1715508224765,908.0809036783266
1731143035.651837,889.9144457823804,796.0112719848331,809.8359467879325,889.1004065971999
1731143035.6547384,865.212925008454,797.7021754619831,807.9616296391666,881.4549415851532
1731143035.6586351,867.6913398895924,801.3837045036398,810.2686215491743,891.5311290096868
1731143035.6625316,891.0800632208385,806.0785638995247,816.1741579961687,913.03613829492
1731143035.6639123,913.1175057011023,809.5753616835386,823.0079142040166,931.0948527248772
1731143035.6664283,913.5020465380064,809.9915561038688,827.6904970179424,933.7245807127048
1731143035.6684947,890.157145466027,807.2808653597841,828.7879201961682,921.2204525507791
1731143035.670325,860.3890707445514,803.410524512753,827.393398869651,905.444565832906
1731143035.6742218,846.0644728407335,800.9369332172142,826.0365152662887,899.556960090363
1731143035.6781182,855.3095737492577,801.0538366174194,826.441733733038,906.8776957095555
1731143035.6794713,875.9591052271045,802.680089090504,828.0892605125414,918.1674495793196
1731143035.6820147,885.8400923528872,803.3029784770832,828.9121945490363,919.3017844207725
1731143035.6859117,870.9517373991083,800.8574615393728,827.4574432751074,902.6924058902409
1731143035.6865935,836.621203397548,795.1850115993061,824.3913849298601,873.2276373337787
1731143035.6873467,803.1028195608782,788.1187188710568,821.8875842835953,844.5501709413021
1731143035.689808,789.7300982164475,782.361637994464,821.5616317621977,829.2670359098414
1731143035.6937048,800.3602922049558,780.0617048397751,823.0253363090197,830.8067639720591
1731143035.6950302,821.3309815451705,781.9215312302729,824.4183790582974,842.5110610506894
1731143035.6976016,833.134079109717,787.1348934331324,824.2677979547894,853.6079213651234
1731143035.7014985,826.1757737511288,793.946277847537,822.8013178465804,856.8008028071306
1731143035.7053947,807.7686680260725,800.4506006075937,821.5309731634228,851.8282049821927
1731143035.7061992,794.8044497062659,805.3088530994514,821.6749124063685,843.2655782029159
1731143035.7092917,798.6335282107647,808.1513822692876,823.0150493106428,835.5019953928423
1731143035.7105892,815.213473295265,809.5125170584636,824.2142965816987,829.4252071293854
1731143035.7131882,828.8105446642436,810.3040025727856,824.1559026114476,823.0652417751621
1731143035.717085,825.7586469109974,811.1330498360828,822.9534080087625,814.7949122032377
1731143035.7209814,806.4035080346077,811.9648310738146,821.6995274226596,805.8478394271326
1731143035.7213497,785.2934679180155,812.4060820819269,821.2893886082732,799.9497713172084
1731143035.724878,779.599808046696,812.3173437913085,821.5243604343062,800.386096849876
1731143035.7250512,795.1070466629769,812.0911985500284,821.3518049465537,806.7920699582271
1731143035.726148,820.8220221970039,812.2391962987906,819.9171126428471,814.2270705587448
1731143035.7287748,836.6315587879759,812.6963607815878,817.3215107644709,815.6862431432853
1731143035.7326713,828.5300690837942,812.6619676352348,814.3833576986298,806.8115442732941
1731143035.736568,799.7724951560253,811.2932900995025,811.8072133887088,789.5299759430441
1731143035.7404647,768.7766922575651,808.60073136958,809.733575376745,771.4254986040011
1731143035.741707,754.7591898227748,805.5501932338764,808.0673585210138,760.5807627193509
1731143035.7439032,762.3938341566117,803.1601560105411,807.0104163811297,759.5570619999446
1731143035.7443614,778.2636224841058,801.4927430006138,807.0532660329529,763.5361903190392
1731143035.748258,782.3861353759419,799.619743499236,808.4623388077939,764.5427386168296
1731143035.7521546,765.3238391983258,796.6428583353894,810.9604471198078,758.3919968344796
1731143035.7560513,736.4850456846053,792.7476314281257,813.9938663265839,748.3612733651373
1731143035.756106,716.6195375691238,789.2544391212975,817.1828509589524,742.2650460937883
1731143035.7572658,720.8065678690416,787.653830288218,820.3399231028185,745.3927032146838
1731143035.759948,746.0307366025437,788.5501001518755,823.0552851360094,755.4565016970175
1731143035.7627554,773.468777268963,791.3923524972755,824.472782704966,764.0243733344918
1731143035.7638445,783.5512606656451,795.0562940563086,823.7230333899356,763.3841361406926
1731143035.7677412,771.5479482027409,798.6349240632563,820.7044101771857,753.1283137065815
1731143035.771638,750.9583885849634,801.781083098147,816.3901837998349,740.8663735500268
1731143035.7728248,741.8586113950175,804.4764878733109,812.211931789932,736.3327204691091
1731143035.7755344,753.828309466517,806.6275537371799,809.000012208712,743.7343478862283
1731143035.779431,777.7771468386923,807.9669860140723,806.4831113270045,758.6526066543046
1731143035.7816074,793.5842450060684,808.3559003603854,803.8633569602841,771.839407814364
1731143035.7833278,787.0938288250296,808.1239286155379,800.931414716921,776.3878172109602
1731143035.7872243,762.1812866067706,808.0126159203644,798.6147497485375,772.2384682633924
1731143035.7883835,737.9069548503829,808.685596424739,798.3461505795212,764.814445650009
1731143035.7908623,733.2434545339389,810.2275890428914,800.7473380684506,759.8447386749647
1731143035.791121,751.933320464473,812.0793459590515,804.8134899094213,759.272803932675
1731143035.7950175,779.6840160124927,813.4233808043663,808.4104280111926,761.2788419932913
1731143035.7989144,795.7992396037376,813.6346884416511,809.7632726038519,763.1767518425455
1731143035.8004596,789.7253611483477,812.4737095171831,808.7166614599503,763.7767315457895
1731143035.802811,769.0924830916633,810.0812201438389,806.6968824658104,763.4905013012575
1731143035.803943,752.783950298723,807.0069942115576,805.4026630297165,763.1705221507699
1731143035.8067076,754.8501635262104,804.2482330984765,805.337605380775,763.2605613052077
1731143035.8106043,772.6654137466791,802.9964979259075,805.4203923992882,763.714018674498
1731143035.814501,789.2095464942571,803.9894348805077,803.9788231951911,764.2903058010373
1731143035.8183975,787.556243852891,806.8968931322097,800.2770320836751,764.8116039430806
1731143035.8193116,765.4854058400047,810.3569412761846,795.3166682731705,765.2366583178488
1731143035.8195016,738.1119560879117,812.7662977662228,791.2744125044903,765.6080323094732
1731143035.8222942,726.3022574757128,813.2238653261275,790.0200380471867,765.9773476240987
1731143035.8256185,740.093664211271,811.902711404836,791.844128442389,766.3675857361251
1731143035.8261907,770.2923226675383,809.6962966837201,795.3438620786413,766.7748131371453
1731143035.8300877,795.0896268425104,807.5945150180459,798.5423532757715,767.1857540839843
1731143035.833984,796.8068777444857,806.2869706866421,800.3835074559846,767.5911886267704
1731143035.8350604,775.644782748482,806.0734460081051,801.4319307267665,767.989182692799
1731143035.8378808,749.255795028263,806.8657489752263,803.1887947208404,768.3819287590643
1731143035.8381636,738.1962542321751,808.1878623364494,806.5217650978373,768.7718139372361
1731143035.8417776,749.1237932916915,809.3257978234302,810.4795950756635,769.1596127723858
1731143035.845674,769.8965928790954,809.7199033308568,812.579779151788,769.5447229718005
1731143035.8495708,780.8933703328072,809.3630631933534,810.5775343926643,769.9261328390937
1731143035.8506193,772.8907617722172,808.8109859662613,804.503380129734,770.3030993760995
1731143035.8534677,755.8738098179174,808.6990241662744,797.3369343255287,770.675277556233
1731143035.8570158,750.7254742034071,809.1391828891842,793.5082925280552,771.0425300882456
1731143035.8573642,770.4759200518171,809.5394949695941,796.0260046851031,771.4047152859061
1731143035.8603747,807.0241131176896,809.0482356962068,804.2585883243469,771.7615983448165
1731143035.861261,835.1159594213373,807.2807971873497,814.1641869025761,772.1128796655369
1731143035.8651574,831.287799974402,804.724812850216,821.0093205987001,772.4582712739747
1731143035.8661785,792.9615139760003,802.4621145372099,822.6091045919214,772.7975553042398
1731143035.869054,742.135834185392,801.3922717665708,820.5849028260496,773.1305793767414
1731143035.8729506,710.0224257097797,801.5564824976382,818.7036366824312,773.4571712192062
1731143035.8758678,714.1694064604044,802.1060234655453,819.7848917446461,773.777009971698
1731143035.8768473,745.812340800258,801.9537644412827,823.7837995922002,774.0895747903518
1731143035.880744,777.2140022075306,800.5876891226422,828.4319552351861,774.3943319851828
1731143035.8817372,783.0067028494861,798.3983605376275,831.4369131581122,774.6911960679671
1731143035.8846407,758.8143125099286,796.3016742364736,832.0821261854998,774.980957482059
1731143035.8885372,723.1936850251994,795.023896124525,831.1395818955383,775.2650146130563
1731143035.892434,702.4463707540847,794.6267550082837,829.7844646827931,775.5438797922845
1731143035.8947198,710.8476604113811,794.570811998807,828.7316847690267,775.815005656966
1731143035.8951309,741.2978569449325,794.195154119452,828.0845283667848,776.0721895144054
1731143035.8963306,772.4446504838289,793.2812484105376,827.6295509854054,776.3095140371754
1731143035.8972962,785.7255084253989,792.3832232441955,827.1540115641698,776.5301130862966
1731143035.9002273,778.9271247757043,792.6987407154813,826.5795260455905,776.7534212976101
1731143035.9041238,766.1586204014251,795.4263711452396,825.9348009342145,777.0083600514786
1731143035.9080205,764.8574604373505,800.8855110483491,825.2767515175248,777.3037172873871
1731143035.9119172,780.6817163918696,807.9913847726501,824.6388898470846,777.5885504982282
1731143035.912855,802.8459903531202,814.5880325377032,824.0237371914354,777.7470135424678
1731143035.913572,813.7692241191843,818.5418602043628,823.4189179196447,777.6810177800803
1731143035.9158137,804.70466929381,818.8677866179721,822.8133820116731,777.4777741920906
1731143035.9197104,783.7890010529545,816.1174780257116,822.2035483133681,777.5333986941375
1731143035.923607,769.4513563611274,811.8575732755953,821.591277440203,778.4011949570463
1731143035.9275038,774.8062140520829,807.7242799721581,820.9795995231194,780.2401894571894
1731143035.928414,796.4247739860862,804.6947711290522,820.3701465240624,782.1975936127641
1731143035.9298873,817.0506842383169,802.8840555368618,819.7629220879937,782.591526852278
1731143035.9314003,819.933741704451,801.8012764522042,819.1572206297916,780.4344503754018
1731143035.932424,802.7462723999488,800.858454270434,818.5524663060561,777.2257605617211
1731143035.935297,779.4847638115932,799.9016854007065,817.9484920767147,776.7727218439032
1731143035.9391935,768.7653021683941,799.4753850111363,817.3454009461869,782.2756750225319
1731143035.9430904,778.2595377833824,800.557947848104,816.7433320267078,792.992127989929
1731143035.9439728,798.33456309866,803.8082497397205,816.1423340795634,803.8638394025413
1731143035.946987,810.2932377912376,808.7984005824375,815.5423737591108,809.0163806593614
1731143035.9508836,802.2562223993518,813.8704927343733,814.9434092364786,806.4177926421173
1731143035.951276,779.2621520575544,816.9017838352521,814.3454475164872,799.7415790106458
1731143035.9547803,759.166704244493,816.5899623739377,813.7485325451917,795.7424192712742
1731143035.9586768,757.9298768900518,813.376356463815,813.1526578924878,799.1530930883417
1731143035.9595318,776.5423303363609,809.252848220804,812.5576635214073,809.1097309341244
1731143035.9625735,800.1580163898007,806.4733866680479,811.9632425313599,819.8865830560629
1731143035.9646432,809.9257288155302,806.0750248628667,811.3691774822181,825.3617531407871
1731143035.9664702,797.9801050408322,807.33690710552,810.7757553834863,823.7495977122311
1731143035.9701283,773.745135460827,808.574061156163,810.183992596812,818.8652442786007
1731143035.970367,756.5343922269643,808.5552479774695,809.5950937007045,816.7938903117449
1731143035.9742634,760.1427720376322,807.3456782038064,809.0089184179284,820.5264802288917
1731143035.9750907,781.6375252009129,805.9631718990435,808.4223709954383,827.0693902719843
1731143035.97816,803.5681295580983,805.3358385175286,807.8299503232395,829.8222185377912
1731143035.9820569,808.0984571039278,805.592719897078,807.2285267049231,824.5315213582049
1731143035.985953,791.5450485857651,806.2120720205089,806.6250081270005,813.5823773561273
1731143035.9889803,767.20769296727,806.6374821884382,806.0395863375968,804.4150008123646
1731143035.98985,754.2971177079303,806.6770552729627,805.4939860082912,803.1574552334811
1731143035.9906497,762.7440083943613,806.4592388914901,804.9819219780214,809.3262652698347
1731143035.9937468,786.8538259268696,806.1903975687146,804.4411602187816,816.6582107851132
1731143035.9976437,812.114845281969,805.9881053511219,803.7700816443045,819.0802757944381
1731143035.9993994,827.3634102080234,805.8604769986073,802.924187363611,815.6794681223232
1731143036.00154,831.1117620902403,805.7642170644757,802.0597865707159,810.1371206839476
1731143036.005437,828.7218132912042,805.6612186234868,801.5831472031524,806.4474484805692
1731143036.0062084,826.0263682977857,805.539494319174,801.9223077288855,805.902950359451
1731143036.0078323,825.6482971211026,805.4058023446166,803.0286043050617,807.391662287566
1731143036.0093334,827.2409636233442,805.2707476181805,804.0289098516106,809.2589633023539
1731143036.01323,829.41399211861,805.1399689349372,803.6179245821547,810.5846065742405
1731143036.0171266,831.202437102637,805.0134522159087,801.1725742556399,811.3175236566346
1731143036.0210233,832.428956305796,804.8887668394757,797.6381534626263,811.8052285790511
1731143036.0217674,833.3662273588934,804.763966299798,795.1853174286484,812.34722841061
1731143036.02492,834.3102906106045,804.6385319987754,795.7325165686444,813.0346031201794
1731143036.0266843,835.382443689595,804.5128860085301,799.5203299501561,813.8117856505432
1731143036.0288165,836.553236559379,804.3875933915126,804.9071632927195,814.5949094159816
1731143036.0327132,837.7469640352195,804.2629304491397,809.5187213626768,815.3404128094905
1731143036.0341556,838.9154760342986,804.1388813455214,811.8102774741317,816.0493608687092
1731143036.03661,840.052682995996,804.0153212369753,811.877717209144,816.7414243983682
1731143036.0373263,841.1745073404884,803.8921625827377,811.0551680393513,817.4320716889672
1731143036.0405066,842.296509830788,803.7693887907525,810.7790510598145,818.125391182855
1731143036.0444033,843.4244975427396,803.6470142158458,811.6187719120037,818.8181176053507
1731143036.0455365,844.5565825697415,803.525042242158,813.0740404052907,819.5059590362035
1731143036.0482998,845.688877955733,803.4034673882421,814.1044827626821,820.1869601427774
1731143036.0521965,846.8191953787167,803.2823189149336,813.8962549081563,820.8614881370431
1731143036.0528853,847.9475643028479,803.1616963762993,812.3288874912616,821.5307709273958
1731143036.056093,849.0750491995134,803.0417264293983,809.9151851158285,822.1957213776878
1731143036.0599897,850.202574272997,802.9224102574029,807.3809687662596,822.8566212020407
1731143036.0638864,851.3305119622584,802.8034507463026,805.2433905612809,823.5133871692497
1731143036.0643885,852.4589057610025,802.6842890684228,803.6421442585331,824.1659451223624
1731143036.067783,853.5878569460042,802.5645741745907,802.4372974608765,824.8144256100634
1731143036.068444,854.7176832732006,802.4449538071729,801.4297495094111,825.4591217977145
1731143036.0689118,855.8487029716849,802.327461582797,800.5477440024315,826.1002778513442
1731143036.0716796,856.9807922831741,802.2144013139261,799.9023968149163,826.7378514856754
1731143036.0755763,858.1131597857067,802.1053576247617,799.6893902762323,827.3714720040216
1731143036.079473,859.2448914795837,801.9941937117416,799.9976935941243,828.0008157556189
1731143036.0832407,860.3764037872753,801.870384066651,800.6554242351953,828.6263661400991
1731143036.0833695,861.5108482575733,801.728496094848,801.2397620075252,829.249972839816
1731143036.084003,862.6533628138525,801.5828496916223,801.2773056276312,829.8741560027692
1731143036.0872662,863.8064228292357,801.4729215505371,800.5183041158095,830.4995180404006
1731143036.0911627,864.9628932483357,801.439387237078,799.0925003978172,831.1215172599826
1731143036.0950596,866.1038364557467,801.4667606246624,797.4318598974199,831.7304416445405
1731143036.098956,867.210567349432,801.4319582139769,796.0388350376588,832.3188607549642
1731143036.099562,868.2923254983117,801.1421965983969,795.3045200033076,832.8956408409231
1731143036.1020927,869.4100511610012,800.528025551303,795.4766337976545,833.4948559585793
1731143036.1028528,870.6565319976685,799.9240318889833,796.640486286274,834.1598703448436
1731143036.1036682,872.0639003149518,800.1680763249416,798.532348082077,834.89279169669
1731143036.1067495,873.4765612806139,802.203671196123,800.3094096192037,835.5968250034718
1731143036.1106462,874.5283599803622,806.2422175787442,800.7261009962649,836.0858684430739
1731143036.1145427,874.8952748574409,811.1626612102016,798.9805772988899,836.2364763627949
1731143036.115121,874.8212375995408,814.9259009990695,795.7535909014032,836.2497547593923
1731143036.1184394,875.5132992013789,815.9162979513413,793.3874603147593,836.7871285414022
1731143036.1209447,878.6531116665203,814.1038664796891,794.5712610206887,838.6116908639658
1731143036.122336,884.5464509124087,810.9756914441169,800.2148190247035,841.5895273342674
1731143036.1262329,889.7443076283718,808.3335809797026,808.2243101839103,843.6195809741861
1731143036.130129,886.7395217856049,807.0624670964138,814.465705653804,840.8477424753064
1731143036.1306798,868.3657737824014,806.8403540633666,815.4686298343931,830.2314886893249
1731143036.134026,835.4872577144564,806.7724380589732,810.8830760125555,813.2788486637387
1731143036.1379228,800.9108956657253,806.1880046854141,803.7888019232806,797.2758314098504
1731143036.1384244,783.0163587508212,804.9805340974785,798.6268957010288,791.3503209238986
1731143036.139797,792.0101491243324,803.502221079104,798.326101624078,799.6940193877917
1731143036.1418192,820.4380905452099,802.3550357130049,802.6795083361965,817.8222253688261
1731143036.145716,847.2729872522298,802.2223524135859,808.9510353819675,835.4761732361297
1731143036.1462388,853.3525424480935,803.6113059222681,814.0236728007555,843.9420467718089
1731143036.149613,835.972267802345,806.4669097088123,816.405221078812,841.8647964143157
1731143036.1535094,810.6356867516338,809.9412422069871,816.7254737363855,835.0734810961159
1731143036.157406,798.2258438864613,812.66583011241,816.6400026662408,830.9155205857497
1731143036.158649,807.9159632469898,813.4887000215965,817.2533149412762,831.9586795554171
1731143036.1613026,829.8710827340454,812.1654844450402,818.3655904867479,834.2213446130163
1731143036.1617975,843.7144947142771,809.4495608937109,818.9831882412083,831.1579579018197
1731143036.1651993,835.5392388547746,806.4992465410057,818.4334123896873,819.7664040202667
1731143036.1690958,809.2781183823488,804.0889952720728,817.0195146584591,803.5553805422786
1731143036.1729925,783.3573791382794,802.266930368798,815.6982593857874,790.0474982687817
1731143036.1731806,775.9570635761845,800.7057977644596,815.1890072755205,785.2161208675286
1731143036.1768892,791.123837899578,799.3859810403815,815.3794727273677,789.5131983271588
1731143036.1773565,816.4556227983768,798.9518201000899,815.5178661527358,798.285706577313
1731143036.177501,833.3720363037438,800.3673952809365,814.9129374461771,805.5822085581374
1731143036.180786,831.40695845341,804.1283919677753,813.4665952970848,808.0406686947662
1731143036.1846824,815.4839214875565,809.6903425180961,811.6480380361256,806.1741476446263
1731143036.188579,800.8734370765906,815.5694089504478,810.0918097872359,802.8021634578445
1731143036.1924758,800.0312114835513,819.9833619360328,809.2632628885644,800.4776504677322
1731143036.1929154,811.8831719539584,821.5428494319557,809.3979289528535,800.0213049896257
1731143036.1963532,822.3921187575714,819.6735292773324,810.5377350332631,800.8002177099916
1731143036.1963725,816.294380568454,814.7851428412398,812.4197294609895,801.8279856287161
1731143036.200269,790.6065456751221,808.2265866282182,814.2907458218758,802.541546306679
1731143036.2041657,758.6169240187343,801.8857498853744,815.0195276383479,802.9007444153647
1731143036.2079368,740.5586729791886,797.4091239855737,813.7221597356927,803.1117429882054
1731143036.2080624,748.0813547485592,795.4719078026039,810.5675552727979,803.3566176877423
1731143036.2084744,774.9440464708698,795.702788989914,807.0539697279866,803.6929552315514
1731143036.211959,801.5522809068215,797.3259120225132,805.3312198878327,804.0887339481478
1731143036.2152052,809.8957857854057,799.8330096290973,806.9163014381206,804.4933870925807
1731143036.2158556,797.038648586667,802.9798187694281,811.6988876395549,804.8799604372413
1731143036.2197523,776.3897592432479,806.2438517177494,817.931725872943,805.248486124588
1731143036.223649,765.8672115421126,808.5919073036855,823.1556640103811,805.6105724109846
1731143036.2240334,772.8619532340023,809.0563136110534,825.4091687560161,805.9755464500174
1731143036.2275455,788.5547973035348,807.586865259843,824.0602507319206,806.3459224202911
1731143036.2314422,796.1856404236611,805.209823765293,819.9965498066947,806.7197094720949
1731143036.2340574,786.0312047014797,803.24526249637,815.2465181415228,807.0942177145623
1731143036.2353387,764.2900023334969,802.3412410272807,812.1762917133326,807.4681302898462
1731143036.2392354,748.3821831243752,802.2075440240044,812.4186948610774,807.841535497395
1731143036.239592,752.5636902671345,802.1267373545411,815.8910821129991,808.2150614062672
1731143036.2426927,775.6924907044336,801.5876499173191,820.5203567863925,808.589164241733
1731143036.243132,801.2535594192562,800.4779574995056,823.1628508085875,808.9639268031013
1731143036.2470288,809.9645581680583,798.8947977355466,821.456401975317,809.339203535091
1731143036.2509255,795.1423866712948,796.9855326705433,815.4501236793869,809.7148284113222
1731143036.2529094,768.4684371839346,795.0091968128912,807.7314497087154,810.0907248989133
1731143036.254822,751.1637689578415,793.4299680449,801.7936986314932,810.4669041322718
1731143036.255151,757.3586540928827,792.8115013457486,799.8088093514698,810.8434028010763
1731143036.2587187,783.033997585576,793.555174198281,801.4906145681315,811.2202112544427
1731143036.2626154,809.5105973385969,795.7210493543373,804.8112856415569,811.5972310253703
1731143036.2665122,818.4768811038896,799.0604316228663,807.7845447874153,811.9743032117553
1731143036.2704086,806.1149731334414,803.141444309253,809.7516524696642,812.3513352389259
1731143036.27071,784.9985164543288,807.3703799422233,811.235233623149,812.7284775075449
1731143036.2717614,772.8378806386753,810.9010991787261,812.7889488645814,813.1061744518306
1731143036.274305,777.7915261096689,812.6792657699671,814.1035577960101,813.4848591728345
1731143036.2774491,792.3507386755732,811.8627589924407,814.2568628449422,813.8642643408264
1731143036.278202,800.48157133725,808.482743427471,812.8499313922666,814.2428391254457
1731143036.2820983,791.9252701942598,803.790123556143,810.9081716189883,814.6182574116244
1731143036.2859952,771.7114725193558,799.8012953685163,810.5813482326715,814.9897250429517
1731143036.2862687,756.6753878194635,798.2148213030952,813.6903697199581,815.3611189589193
1731143036.289892,761.467944731405,799.4965146246753,820.1691744926311,815.7414991285409
1731143036.2906137,785.6614666156499,802.8078827991966,827.6194992860579,816.1387639521424
1731143036.293789,813.1405360885722,806.6702349515814,832.4301421871348,816.5465749254756
1731143036.2976851,824.810943920326,809.678180487322,831.8216443696697,816.9346231940431
1731143036.301582,814.2039663071804,810.8055679252119,825.5432528544391,817.2608011808651
1731143036.301828,792.8421279518403,809.4909387564702,816.162608327132,817.5165838346098
1731143036.3054786,780.8208987820905,805.8834492104652,807.7553400758093,817.7835197754355
1731143036.3093753,790.4776734441828,801.1481004494871,803.7519858554566,818.2328859256527
1731143036.3094656,816.547944485503,797.2652267612523,805.1881613519747,818.9918789155474
1731143036.3122053,840.5348893538402,796.0418230801233,810.3800066815969,819.8884841877243
1731143036.3132718,845.4450851156238,797.9034254771592,816.1990051621402,820.2685628735079
1731143036.3171685,829.0593369200458,801.513821726111,820.0743003055152,819.1963918856146
1731143036.3173866,805.354809639893,804.7231649089708,821.3108985439984,816.1005557118764
1731143036.3210652,793.0772021350008,806.1785015108561,820.8359399507262,811.2887322034577
1731143036.3249617,800.6174451895897,806.2578968859726,819.8092563324276,805.6111405419932
1731143036.3283176,819.4421541268125,806.5184262512804,818.508974671791,799.6499090617955
1731143036.3288584,831.5684869350836,808.1420663930335,816.530157028638,793.7588472295977
1731143036.332755,825.0046563821177,810.7354869063098,813.9333899456491,789.2112033285272
1731143036.3329456,804.2330559687135,812.498972331606,811.9764376120613,788.8323775001644
1731143036.3366518,786.7866238845752,811.578396885844,812.4761979179266,795.5604898309239
1731143036.3405485,788.6561977032088,807.4664993328616,816.2301651638419,809.5502201495403
1731143036.344445,810.6806970438759,801.4091710348013,821.9078912788866,826.2915859312029
1731143036.3469615,837.1906064515409,795.664791700101,826.5160169978828,837.8599477172687
1731143036.34717,848.032768544339,792.2766205582438,827.2681197592613,837.1733350190589
1731143036.3483417,834.3951011024159,792.1519637303176,823.5352491043218,822.7934492018087
1731143036.3485043,806.0273379197159,794.8408783035801,817.4081750038109,800.987249720254
1731143036.3522382,784.2164708362393,798.961575215824,812.370336732293,783.0561412756613
1731143036.356135,785.8152146125805,802.9758170327787,810.9731662428994,778.8386613824969
1731143036.3600316,810.5631360420444,805.9173346907806,813.1930280428119,790.2388715174147
1731143036.3639283,841.5398990190508,807.690043557029,816.6692394250916,809.430175017722
1731143036.3640635,858.3770494272288,808.7804269287634,818.5824080949774,823.7190326531136
1731143036.366022,852.7180067839124,809.63398164387,817.683034533749,824.1932805209109
1731143036.3678248,833.6315675569361,810.2133843296403,814.9494560916179,811.8749486823018
1731143036.3717215,818.8902244413816,810.0884599640963,812.5167864292475,796.4397327043379
1731143036.3756182,819.5842426560602,808.9226772131932,811.8657558189037,788.3267026561899
1731143036.3795147,830.9493169791788,806.8885366174229,812.7313662463898,790.694472472509
1731143036.3796225,837.0299269684849,804.6716657877265,813.5162471189475,797.9826119958512
1731143036.3817177,825.1943036951835,803.1139371941838,812.7876724621137,802.077164887951
1731143036.3834114,798.1758809100106,802.7791511914799,810.6316760074064,800.2999178887592
1731143036.384874,773.1548683708838,803.668086815283,808.7823979923895,797.8541831060223
1731143036.387308,768.0253834102816,805.1737703128371,809.3845052935186,802.4098653895487
1731143036.3912048,785.9337310934026,806.3140445766617,813.294306740459,815.6773378524201
1731143036.3951013,811.3659841951651,806.2125035999742,819.2189832973817,829.8150327334297
1731143036.3951812,822.0124709563889,804.6175248707864,824.3979265521607,832.6153759752074
1731143036.398998,807.2026362553335,802.098193656931,826.3493459435938,817.7159849076189
1731143036.4028947,777.375730296419,799.6857185142467,824.3762152060256,791.1666486032876
1731143036.403726,756.0456913184865,798.1468806822145,819.7566767906741,768.1660820748704
1731143036.4067914,760.5451421562112,797.4488153743466,814.6307074499086,761.9792231074351
1731143036.410688,787.5605771845595,796.9087993970419,810.5753511694462,773.9307060146365
1731143036.41074,815.4921355990318,795.9673379653077,807.9279746185274,792.7221843646435
1731143036.4145846,821.5947570947734,794.9161211124572,806.1452223748959,803.5594864106174
1731143036.416474,799.882343523271,794.856875947698,804.6491547873654,799.495533378607
1731143036.418481,765.617750682009,796.8235721740517,803.3870040905028,785.9176304983006
1731143036.4223778,743.2629892215234,800.8069421060596,802.7465316946469,775.1356842278965
1731143036.422578,747.6843407002606,805.5720011807624,803.0536556362226,776.0886261488849
1731143036.4262743,773.231678809646,809.4584089999162,804.1669529888555,787.6138689264506
1731143036.426299,798.8555321851431,811.4757824884671,805.5327953895735,800.2271787747305
1731143036.4301713,804.983579485925,811.8024967217308,806.6379456289552,804.3222328998087
1731143036.434068,788.9357159611932,811.3990550264753,807.4160803752883,797.8719780455857
1731143036.4379644,766.9196647497985,811.196591150478,808.1577569286932,787.5883215811341
1731143036.44143,761.1005524798438,811.5318152202882,808.9309006322568,782.965628502056
1731143036.441858,781.8320953133205,812.1274895408686,809.0912478528046,788.2574869774793
1731143036.4418612,818.9322356009181,812.4472209836205,807.549099514277,798.9400211340693
1731143036.445758,848.9493080618381,812.0942154027007,803.8137203268508,805.5551195913007
1731143036.4496546,852.9691702449134,811.053011160081,798.9677143533519,801.8336156103244
1731143036.4512303,831.1502927589053,809.7239466354185,795.5114476821503,790.356733206644
1731143036.4535513,802.4930575607771,808.741410319938,795.83372834515,780.8297106649107
1731143036.457417,789.9077523942362,808.6106795686188,800.3113446449155,782.1556198707217
1731143036.4574478,802.4685902163047,809.3559043550778,806.6180979491947,794.9095743756261
1731143036.4602823,829.1232380677993,810.4858239766631,811.0919808618141,810.681469506279
1731143036.4613445,848.7345193133486,811.3668358557111,811.387067210949,818.8803883210098
1731143036.465241,847.677490796091,811.6705543376974,808.3909089939272,815.0395896506957
1731143036.4691377,829.9289610612527,811.4906644413323,805.694727854174,803.4524097740866
1731143036.4729755,811.5622280422651,811.1198313340852,806.7723032099149,792.4369257605529
1731143036.4730344,805.9146491812733,810.7868763051565,812.018826517928,787.407869847851
1731143036.476931,813.7537243377487,810.5610882903401,818.125463936189,788.1104362567359
1731143036.4791343,826.1770709488595,810.4034251698963,820.4511549050716,791.0613315062911
1731143036.4808276,834.4135072898498,810.253820623788,816.5746011513893,793.2795261605128
1731143036.4847243,835.8959053492838,810.0810705495015,808.2153699978388,793.8866525055106
1731143036.4859865,833.1648723035858,809.8859888626631,800.0453611308549,793.4946096563284
1731143036.4885347,829.7579205853988,809.6826759196424,796.3736967279251,792.9858078711175
1731143036.488621,827.557164057703,809.4821387056065,798.2256353534402,792.8116193539457
1731143036.4925177,826.5983206961786,809.2871745075693,802.8609382780601,792.9574828561878
1731143036.4964142,826.1145709462652,809.0952986034623,805.891807496744,793.2181650138288
1731143036.4979863,825.4776695247147,808.9033020532413,804.3817373538124,793.4349304387858
1731143036.500311,824.5129423317502,808.709662914814,798.7992087425752,793.568338935583
1731143036.5040936,823.3503219799255,808.5145284108875,792.6069430021344,793.6549673913976
1731143036.5042076,822.16968234006,808.3186642454764,789.8624995556863,793.7413014247676
1731143036.508104,821.0600723957875,808.1226165042406,792.4688116175079,793.8491271923987
1731143036.5120008,820.0159298562392,807.9264886130946,798.8977476609955,793.9760891157072
1731143036.5158975,818.9945598522872,807.7301220359747,805.216908662726,794.1110149211107
1731143036.5168386,817.964039441114,807.5333376115752,807.7053898462439,794.2460126226235
1731143036.5196526,816.9170769189699,807.336052167201,805.2619861616922,794.3796214437259
1731143036.5197942,815.8615786733317,807.138268667917,799.9409675111309,794.5141486764725
1731143036.520743,814.8070987252586,806.9400181718702,795.271853498942,794.6521714806705
1731143036.5236907,813.7579853749874,806.7413173479051,793.6913863909925,794.7948654875662
1731143036.5275874,812.7136886418133,806.5421592359615,795.1411032102362,794.942162899864
1731143036.531484,811.6719534936918,806.3425240790291,797.7976734012635,795.0935981192221
1731143036.5352116,810.6312581931655,806.1423920243724,799.8884667169206,795.248920453112
1731143036.5353806,809.5914045179242,805.941748702439,800.809504377987,795.4082237728446
1731143036.5356903,808.5529446779576,805.7405842687726,800.9479355973436,795.5717874005608
1731143036.5392773,807.5164662252421,805.5388902447943,800.9309537643114,795.7398921732326
1731143036.543174,806.4822629058542,805.3366573966142,801.1152241517858,795.9127407425639
1731143036.5470707,805.450377511812,805.1338753967356,801.524191268176,796.090472611527
1731143036.5507703,804.4207782665827,804.930533476881,802.0253506477316,796.2732106966074
1731143036.5509672,803.3934820888329,804.726621113661,802.5025903941432,796.4610923022319
1731143036.5545423,802.3685764305201,804.5221283124795,802.9196042584122,796.6542733790924
1731143036.554864,801.3461816047386,804.3170455468095,803.29714662162,796.852917388766
1731143036.5554988,800.3264104464517,804.1113635846172,803.6675589571562,797.0571835937972
1731143036.5587606,799.3093561014915,803.9050733733725,804.0479704117508,797.2672234918464
1731143036.5626574,798.295108576861,803.6981660420402,804.4382798710661,797.4831870001086
1731143036.5663292,797.2837807374019,803.4906330088338,804.8310537370683,797.7052338760814
1731143036.5665538,796.2755149489161,803.2824661430135,805.2203619319123,797.9335399661902
1731143036.5704503,795.2704465044462,803.073657874907,805.6046368215056,798.1682852399335
1731143036.5733948,794.2686303786139,802.8642011028628,805.9851767857258,798.409619372274
1731143036.5743473,793.2699927821129,802.6540888158752,806.363712793682,798.6576257816015
1731143036.5782435,792.2744091188284,802.4433136276923,806.7410927387774,798.9123336605926
1731143036.5818882,791.2819596934295,802.2318677938894,807.117268311965,799.1738231999074
1731143036.5821404,790.2932255064023,802.0197443409447,807.4918499421312,799.442394040127
1731143036.5860372,789.3092471538797,801.8069391605482,807.8645590823598,799.7186357255264
1731143036.589934,788.3307602264244,801.5934523283968,808.2353535929352,800.0031676913956
1731143036.590255,787.3568594007148,801.3792857247838,808.6043340952808,800.2959882998072
1731143036.5922468,786.3842754199685,801.1644355309181,808.9716147524957,800.5958604222217
1731143036.5938303,785.4091288066555,800.9488837297796,809.3372599866813,800.9006749608678
1731143036.5974472,784.4318961387228,800.7325996627201,809.7012898275481,801.2095608544859
1731143036.5977273,783.4626308195981,800.5155627338023,810.0637116598052,801.5259907850169
1731143036.6016238,782.5191864343017,800.2978013245421,810.42454216028,801.8586884471242
1731143036.6055202,781.6117430722842,800.079412866089,810.7838082467624,802.216101998815
1731143036.609417,780.7179612132586,799.8605109068025,811.1415357144556,802.5939428204196
1731143036.6110988,779.7724497964343,799.6410792900872,811.4977417261641,802.9647054770895
1731143036.613006,778.704849847319,799.420822210562,811.8524437289459,803.2870328317964
1731143036.6133137,777.535671316575,799.1992226605354,812.2056839434813,803.5476413361746
1731143036.6172104,776.4672065946045,798.9760007461081,812.5575481445164,803.818064264751
1731143036.6211069,775.8309196800997,798.7518360674139,812.9081428856657,804.2634198606657
1731143036.6250036,775.7776792518945,798.5286543395789,813.2575110627304,805.0269341508654
1731143036.6250112,775.8208715813621,798.3084835583699,813.6055286902597,805.9936302019587
1731143036.6285653,774.7040413909205,798.0906449841564,813.9519087238205,806.6175223447825
1731143036.6289003,771.2240722389616,797.869153588828,814.2964480760523,806.1511634440675
1731143036.629951,766.1057433066247,797.6343851469045,814.6394807785166,804.488048913493
1731143036.632797,763.6740204921794,797.3822475279459,814.982151632184,803.2384345303037
1731143036.6366937,770.8607300794262,797.1274820698543,815.3258743429034,805.8832824881724
1731143036.6405902,792.1000801136629,796.9072485411624,815.6706801096511,815.8568920556631
1731143036.6441238,822.9912680725066,796.7569267597413,816.0133855298343,833.1335005549104
1731143036.644487,849.5702120844089,796.6565598966763,816.34800347013,852.3042924526289
1731143036.6483834,857.0288479634572,796.4871682811797,816.6707750420194,865.0505053740815
1731143036.648803,842.1282327344896,796.0745137953588,816.988638044124,866.0983156065892
1731143036.65228,817.7979583468336,795.3757165218615,817.3233808888396,857.7802547677122
1731143036.6561768,804.2781836075246,794.7362152796726,817.6997231542958,848.7650551092345
1731143036.6596828,813.3187603251486,794.9653816009439,818.113337498069,847.359113970146
1731143036.6597674,838.4865979110691,796.9557057371677,818.4987197491159,854.6406922614224
1731143036.6600735,859.7685982607478,800.9074376998782,818.7435019425847,863.20412244719
1731143036.66397,859.0341165827001,805.7422735730676,818.7902839391909,862.8927095988262
1731143036.667655,834.231340964582,809.3924396701038,818.7948918387672,849.1486369623597
1731143036.6678667,801.1308127777661,810.0036862633048,819.188451783434,827.2506770507655
1731143036.6717634,781.1479751003208,807.2212048854412,820.4334359654907,808.8271966944517
1731143036.6752417,784.8223995983561,802.5210998856454,822.4469239152613,803.2684854012908
1731143036.67566,804.1792235861888,798.2698962001361,824.1012323396815,810.9395660890318
1731143036.6795566,820.1434807164844,796.2170549016728,823.4677474987361,823.7015612717255
1731143036.683453,818.8063537842963,796.5531314585653,819.003623150647,832.1558463977079
1731143036.6865072,802.9414252133836,798.1509354961757,810.9565417516487,833.3598523017822
1731143036.68735,789.1977447970222,799.6370922314063,801.8555861190525,832.4639506724342
1731143036.690801,793.5117783068129,800.3600543429613,795.5240175258836,837.0853775016282
1731143036.6912465,817.1354494817305,800.5651069528145,795.0936465423615,849.5850321305697
1731143036.6945236,845.0358049431634,800.8494653704248,801.2351070446847,864.2194192407712
1731143036.6951432,858.0387675822795,801.5369102994937,811.7340631352691,871.8354382015098
1731143036.69904,848.6463320512183,802.5235233136827,822.6590178193877,868.0621957559792
1731143036.7029366,827.3109576213029,803.5832127896587,830.3117809883462,857.6813269744256
1731143036.7053592,813.7496721906303,804.6757623548455,832.7526594826489,851.0266985343142
1731143036.7063596,820.3759665384259,805.8857589782965,830.2108607395718,855.2503706673388
1731143036.7068331,841.76314812463,807.0935388392849,824.5501387659948,867.9445582010186
1731143036.7107298,859.2400525811777,807.8166524614297,818.3770390471022,878.7267277167163
1731143036.7146266,856.9778522280993,807.504184089242,814.1854046693015,877.5809687289712
1731143036.718523,835.97728272912,806.0811425613747,813.6010028947707,862.9838362093201
1731143036.7219183,813.9159707857348,804.2346342608431,816.7596627843318,843.1101850224413
1731143036.7224195,810.7483215065349,803.1298268541133,822.0599605064172,829.3235341045158
1731143036.7242117,832.0103700386032,803.7447391212106,826.6265868538992,827.4801662876447
1731143036.7263165,863.6747950835188,806.322381596137,827.5739916801233,834.0543797102976
1731143036.7292798,882.8155327282636,810.2914031221653,823.6268423696196,839.8718955178788
1731143036.7302132,875.508977172805,814.6109295020138,816.1590244445866,838.0763113153071
1731143036.7341096,847.6551646144012,818.241840253382,808.7442254723443,829.7401771251783
1731143036.7374773,820.0755699072856,820.479441663124,805.1500446173623,822.5956898140751
1731143036.7380064,811.8158155691963,821.0488467244901,806.9383761470663,824.0140849118796
1731143036.7419033,825.1696466517927,819.9992715474284,812.4093514356483,834.1527682993399
1731143036.7430634,844.6839733175617,817.5213549751927,817.7925142749648,845.1527142756898
1731143036.7457998,850.9347857778603,813.8564754056139,819.8424800929331,847.2466266961338
1731143036.7496965,837.4709520320118,809.38884343613,817.8441517314463,836.7629134314463
1731143036.7530365,816.5670996551906,804.8005428338237,813.5710127606293,819.3361033441738
1731143036.753593,808.8901508630336,801.02947843552,809.4979353118722,805.6482329579401
1731143036.7574897,825.8113202657621,798.9145719762142,806.9297459163652,803.248456486095
1731143036.7613862,859.160674040831,798.7432045018709,805.5101662092143,811.0897371308092
1731143036.7619154,886.7989567124753,800.0741236013976,804.1973076566746,820.9317318500435
1731143036.764036,889.4047971414286,802.000807582335,802.5948896974545,824.105058286647
1731143036.7652829,865.2022501016347,803.6564211616239,801.452046656611,818.1194775473892
1731143036.7685952,831.337892507322,804.5990194819907,801.9945931439813,808.163130550012
1731143036.7691796,810.9833975600527,804.8631424141493,804.697686825596,802.734298882125
1731143036.7730763,816.035122096617,804.733681023312,808.515187792025,807.0246538710766
1731143036.7769728,838.666122709899,804.4638226425304,811.2816050368709,819.0888408007527
1731143036.7807677,858.2610196009374,804.1420653817144,811.1784166808362,831.4879616285668
1731143036.7808695,858.1882648396547,803.7600233155438,808.2688289060745,836.9008830841121
1731143036.7841542,838.9317313708593,803.3548848690729,804.8294354457059,833.3589655997176
1731143036.7847662,817.0840871880695,803.0491750207161,803.9753930320337,825.3141908436977
1731143036.788663,811.3592970876969,802.952822455772,807.4583376523094,820.0228276601338
1731143036.7925594,827.3065281379445,803.0644395708681,814.3236284671262,822.0728125083953
1731143036.796456,853.0077556676209,803.2875679378943,821.495898060503,829.9471088166046
1731143036.7987924,868.6805176418311,803.5203494525783,825.8061757377982,836.8930898869918
1731143036.7996197,862.059716516378,803.7154404567676,825.8919641505036,835.4451738927922
1731143036.799713,837.4908577818733,803.877060651451,822.6713652302847,822.5719798590059
1731143036.8003528,812.0446112738297,804.0284920223759,818.2827781432987,801.8936939998771
1731143036.8042493,801.9216660160579,804.1865186084045,814.4359280014354,781.2272600752405
1731143036.808146,809.7628177677959,804.3546041030421,811.3896414889069,767.1421998296112
1731143036.8120427,823.0243798718134,804.528315945434,808.2460112274591,760.8791355218788
1731143036.815272,825.0906122866804,804.7026012371665,804.2711529752845,759.1531742254886
1731143036.8159394,810.1602417493641,804.8753049615339,800.1113482022785,758.9762337116996
1731143036.8184717,789.0460925325729,805.0468723399719,797.7596295643435,761.5509746627798
1731143036.819836,780.2288425494793,805.2185962173203,799.1285943634682,770.9048836824516
1731143036.8237326,793.3789543980191,805.391333873529,804.3373270573993,788.1921708488026
1731143036.827629,819.7002241347718,805.5652272764115,811.1646151957585,807.420383770619
1731143036.8308308,837.985162506357,805.7400294167924,816.1801588998973,817.6944371545775
1731143036.8315258,831.7405316869641,805.9154873096521,816.7060570228533,811.1604382249051
1731143036.8335483,803.08938439932,806.0915101374717,812.21771997908,790.1484098457863
1731143036.8354225,771.7513012988168,806.2681399972465,804.4154137307319,766.9801613419877
1731143036.837324,759.7851949452173,806.4454558731211,796.2202426885838,755.8075969911378
1731143036.8393192,774.4356393902041,806.6235084768348,790.4550937707069,762.6210079086492
1731143036.843216,802.9139162185123,806.8023087364933,788.8147532417157,781.3309519638906
1731143036.8463898,823.2105219898041,806.981846913284,791.3955847003648,798.9505574062367
1731143036.8471124,821.9202395309003,807.1621144130478,796.8743528136412,805.455827245606
1731143036.8510091,804.2876735370228,807.3431150111924,803.2595815294028,800.2494344484408
1731143036.8549058,788.3010312951112,807.5248646061538,808.8375489510381,790.4208389243258
1731143036.856176,788.3048926183435,807.7073819844593,812.7466326681409,783.1894155627319
1731143036.8588026,802.4755153994406,807.8906733867904,814.8746282195251,779.6101956197283
1731143036.8619487,814.8076466171909,808.0747186691302,815.3440294190258,774.8549445998922
1731143036.862699,809.4600936114996,808.2594755703318,814.170158171129,764.139266587406
1731143036.8665955,784.8406690842567,808.4449180534374,811.4171809910383,748.4311289275131
1731143036.8683047,755.5323660612967,808.6310991564652,807.6189340866852,734.6488709997575
1731143036.8704925,740.7783895974939,808.8181810772937,803.9306271787343,730.2415092876394
1731143036.8743887,749.2939080780341,809.0063461472101,801.697514187653,737.031131171228
1731143036.875028,772.7012005865516,809.195560116574,801.6580738590275,749.6955728109258
1731143036.8775077,792.5748232772228,809.3853355947396,803.3923067586459,760.1438530770937
1731143036.8782856,795.2765543629662,809.5748394465293,805.5343004250267,764.0591541552718
1731143036.8821824,782.7695176373944,809.7636442140729,806.7054425104245,764.1972384615661
1731143036.8860793,770.7293068263532,809.9528855972816,806.5030039455614,767.7741786198166
1731143036.8899755,775.2214652095934,810.1456820489555,805.7364631734299,780.068993625453
1731143036.8930664,798.5526227371081,810.3452275355053,805.6531634529836,799.4058581736491
1731143036.8938725,826.0612503355683,810.5502427414498,806.763753492741,817.6297986116964
1731143036.89388,837.0651667256312,810.750891153372,808.3252686792575,825.8874368761074
1731143036.897769,821.5540778949012,810.9317073131816,809.0610456458962,821.3406301448581
1731143036.9016654,789.1668009522298,811.0865634269163,808.5692062358211,809.630246431777
1731143036.903061,762.8658914396509,811.2398285488273,808.0823252987345,801.0625340979138
1731143036.9055622,761.7992218762298,811.4509969096014,809.6555906695115,803.1927205559363
1731143036.9086254,786.4877224929738,811.7735773481012,814.2873218473129,815.2484206044352
1731143036.9094589,818.0021459776959,812.1656362915083,820.6369363082737,828.6469030154091
1731143036.912732,832.2771132091112,812.4126881737186,825.6769874321175,833.4590202281162
1731143036.9133556,818.8962260121349,812.1753603065198,826.9194226720416,826.0896923488626
1731143036.917252,789.5585954274619,811.2086972620473,824.3316960400998,812.1547285654771
1731143036.9211488,768.9245224858716,809.586423596334,820.2416536248505,801.9964928813735
1731143036.9241843,774.6770088035629,807.6633501121503,817.3442927085249,802.247807027902
1731143036.9250455,803.0274909173245,805.7986350366243,816.6256189145237,810.4274749857386
1731143036.9289422,831.8468856252659,804.1977375375606,816.9580468846984,817.2626926750123
1731143036.931584,838.8375476163728,803.047930298877,816.4675959574201,814.8859197091058
1731143036.932839,819.4546056652459,802.6705717523773,814.2445329728165,803.9355866813605
1731143036.9367354,789.8488806542373,803.3851786533627,810.9370165848059,793.4707238769133
1731143036.937817,773.1019939591224,805.1844576869863,807.9779383227933,793.6926754635327
1731143036.9397433,780.777100752059,807.5849441160433,806.3529376252169,807.463540204178
1731143036.940632,804.8292967828971,809.8508217681128,805.9918866192182,827.5446371401792
1731143036.9445286,825.5992196551553,811.4176766167825,806.1469865205723,841.7790792870543
1731143036.9484253,828.3840629533842,812.1539068153043,806.2433881933622,842.0718498507207
1731143036.9504364,814.6677373145833,812.2594078154958,806.3545032128013,830.0896236672631
1731143036.952322,799.1640163402843,811.9514612288868,806.8836130784555,815.3581435496209
1731143036.9553022,795.8920756665827,811.2783848973257,807.8356032810938,807.5550122292819
1731143036.9562187,805.5926481350715,810.2288936638541,808.4984115015974,809.2860901031665
1731143036.9601152,815.3576400683377,808.953988304096,807.9698974228315,814.9425214337365
1731143036.964012,810.6348910271761,807.7908325293209,806.1034739837576,816.1523779350471
1731143036.9679086,789.0442430032235,807.0254828221604,803.9735264046633,809.1452232793831
1731143036.9692883,763.9492145478803,806.6563154614815,803.3673664247987,798.1011831399908
1731143036.970861,754.4879004949755,806.4334208491568,805.6635109602115,791.9264295289364
1731143036.971805,770.0331405365034,806.1378522900098,810.9141313976403,797.0404964877565
1731143036.9725733,801.6043785923152,805.7926050281267,817.6912918751821,811.8139797672969
1731143036.9757018,827.4034005066285,805.5734981695872,823.6955771629798,827.1110288832734
1731143036.9795983,828.7528949788982,805.524105478354,826.7686969759557,832.7877297601077
1731143036.9834952,804.3991172810745,805.3979579370944,825.8651405457596,825.2680248240316
1731143036.98642,771.8211741610338,804.8117717507944,821.5466491918422,810.1988254860256
1731143036.9873917,753.9943331155429,803.5611696784371,815.6811123894774,797.9435915348768
1731143036.9881403,761.7615824786825,801.7994781612413,810.4048300496911,795.508020381835
1731143036.9912884,785.900816326374,799.9467151233429,806.9283570779601,801.4711673456211
1731143036.9951851,805.2741067658284,798.4452856803399,804.9845846647116,807.9393950892475
1731143036.999082,804.2169181169254,797.5496226040901,803.3188066994384,807.6205919124529
1731143037.0019789,784.8177654622211,797.2504141042172,800.8475209273878,799.9446650529426
1731143037.0029783,764.3485557238052,797.3420076454228,797.6037001239969,791.2004309861425
1731143037.006875,760.5938012894956,797.5740899023889,794.7776525414691,788.8113922205736
1731143037.0069926,777.4007632462955,797.7817284485578,793.8864540046718,794.6805487369369
1731143037.0073297,801.889113365395,797.9192262436886,795.7549705200861,803.1482163158291
1731143037.0107718,815.0388914093903,798.0140136452087,800.0567491230727,805.293140213913
1731143037.0146682,806.9829068854499,798.1056375492559,805.6421813441649,796.2329388680429
1731143037.0175378,784.9529913527343,798.2134294517638,811.2525612323935,779.6537522953266
1731143037.0185647,767.6140826569706,798.3357152159489,816.0146001626601,765.8540085396297
1731143037.0224617,770.1751909246271,798.4627550866345,819.4520376798067,764.6031756268816
1731143037.0258446,792.1780888689266,798.5873956565066,821.2552000053674,778.2076597011426
1731143037.0263584,817.9883266118662,798.7080487907125,821.2172967575526,800.0211111637393
1731143037.0302548,829.6912691385788,798.8265001596,819.4600422632687,819.3289690913803
1731143037.0330968,821.6941515671091,798.9448611439752,816.6704000767978,828.6522957332195
1731143037.0341516,804.8736941449746,799.0640559378181,813.9700688653986,827.9934243241826
1731143037.0380485,797.0028103595655,799.1839134565864,812.3438223019575,823.3138421746038
1731143037.041945,807.6877714129351,799.3038914909368,812.0027412803587,821.0470657122137
1731143037.0420856,830.3083194932125,799.4236201111747,812.249261824231,823.1595197377873
1731143037.0446966,847.339554177321,799.5430278419398,812.092514881192,826.410210634433
1731143037.0458417,844.5595083773998,799.6622096686211,811.190565539419,825.9628784209997
1731143037.0486555,822.7508440226492,799.7812665577742,810.2451410675234,820.0598593170705
1731143037.0497382,797.5223742320394,799.9002330135427,810.3113528704072,811.6838944957743
1731143037.053635,787.1107670842277,800.0190877458075,811.5107566978091,805.7335925852374
1731143037.0575314,797.6827698935234,800.1377934019272,812.4193382954917,804.2361444700642
1731143037.061428,818.1712649900905,800.2563239702872,810.9947741576136,804.0706173748991
1731143037.0635488,829.340564084994,800.3746697667921,806.4743998527274,799.6206606640027
1731143037.0642145,819.9722953088793,800.4928296740319,800.562251835082,788.3294109741864
1731143037.0653248,796.7097715927304,800.6108027536337,796.6339246698257,774.2511370318588
1731143037.0692215,779.0294414015616,800.7285848324408,797.3686262396685,766.0733068454125
1731143037.073118,783.1703790834181,800.8461693613306,802.6511777557669,770.6684515855457
1731143037.0768418,808.2313385731102,800.9635495749458,809.4703599277626,787.18526286749
1731143037.0770147,836.0765164559489,801.0807198615314,813.9783097739722,806.6577360970432
1731143037.0797734,845.444119054964,801.1976759371311,814.1844349844775,817.9695535577232
1731143037.0809114,829.0035980764703,801.3144143962036,811.265032545354,815.9105891656342
1731143037.0824008,799.5275804155121,801.4309322735834,808.5103388445815,805.0285986282024
1731143037.084808,779.9340265894432,801.5472268830267,808.7249688905488,795.9020264953095
1731143037.0887046,784.9793966221022,801.6632958730024,812.1244121128702,796.4719313357572
1731143037.0926013,809.4390330939543,801.7791373380048,816.4147313104912,805.4777610733905
1731143037.0953324,832.6374217274698,801.8947498807238,818.9323772358944,813.7753768123918
1731143037.096498,835.768146097381,802.0101326102814,818.9173603697143,812.7795429796452
1731143037.1003945,817.6196584181832,802.1252851094827,817.8889798747924,802.842247971239
1731143037.1012528,795.4971478632731,802.2402074038873,817.8964330265931,793.9845077506976
1731143037.1042912,790.5356869030232,802.3548999451207,819.4211152099796,797.8206171603047
1731143037.108188,809.676248137367,802.4693636048505,820.95191000574,817.2302200899227
1731143037.110891,839.287869885219,802.5835996718404,820.5616117414403,842.5170863707834
1731143037.111598,855.7552631760565,802.6976098474497,817.9168017848971,857.5687084901141
1731143037.1120846,844.5131831523427,802.8113962376154,814.8428710141367,851.4278934759121
1731143037.115981,812.1648446455213,802.924961339025,813.9574310762276,826.3799902072745
1731143037.1198778,781.7877071378865,803.0383080169964,816.559292843022,796.4139901149128
1731143037.120105,774.9750146542467,803.1514394775268,821.4887549875957,777.3488302071938
1731143037.1237743,794.9360679326892,803.2643592465779,825.8172467616009,776.1617886070597
1731143037.12645,824.2782708505829,803.3770711767611,826.8260434927395,787.3568769551823
1731143037.127671,839.2331528114021,803.4895794887746,823.8385630197118,798.5552004295147
1731143037.1315677,828.6948838654498,803.6018888138896,818.6163598816592,800.4784855458112
1731143037.1354644,802.6261864007037,803.7140041568205,814.0644701237807,793.5495863470859
1731143037.138957,783.2984750368732,803.8259307062309,812.2096340087993,786.433890663357
1731143037.1393611,786.9107340547151,803.9376735444603,812.9296832666217,788.2531066651629
1731143037.142009,810.649522505105,804.0492375224982,814.3017376102215,800.8765745598372
1731143037.1432576,835.3444544482824,804.1606276785425,814.1850315596824,817.2595731698281
1731143037.1463544,841.0878199105254,804.2718502898006,811.7900352963094,826.8977182318556
1731143037.1471543,823.0348547599132,804.382913845265,808.1465815827778,823.955041632959
1731143037.151051,794.8549262011051,804.4938283969017,805.2920077517542,811.6308476728509
1731143037.1549478,777.3702368949952,804.604602057444,804.8566077310086,799.367653301653
1731143037.157568,781.7624164214579,804.7152359266807,806.9801221059729,795.2805379857548
1731143037.1578093,801.0276501407457,804.8257227128943,810.1838574916403,800.0835012278969
1731143037.1588442,816.6210224637124,804.9360559307567,812.2712563475047,807.4613171689407
1731143037.1627407,814.7172556893194,805.0462503102499,811.7614085555595,810.2864590609868
1731143037.1666377,798.4036286519695,805.156358595508,808.9453704347737,807.0821912379342
1731143037.170534,785.3552393571492,805.2664554996974,805.7314566516063,803.0898251296169
1731143037.1731267,792.7322149251363,805.3765685473758,804.2510728582182,805.2093777464288
1731143037.1744308,821.9407105412434,805.4865858581795,805.2656849452741,815.4802888809571
1731143037.1766613,856.1316160342199,805.596244313435,807.7077459793705,828.8643469169378
1731143037.1783276,872.726932909996,805.7053219139531,809.7254653696451,837.1618132445601
1731143037.1811106,860.9133751242929,805.8140255414876,810.2356377912944,835.6241566754683
1731143037.1822245,830.0384464186457,805.9232696210623,809.5960494675975,826.6933313899077
1731143037.1861207,802.1568078347652,806.0342958401064,808.9524675694857,817.818856292298
1731143037.188686,794.6696676025276,806.1473125800178,809.0621934453636,815.250050171234
1731143037.1900177,807.037034904065,806.2598314331759,809.7166939303017,819.0494595058566
1731143037.1939142,822.3474515680481,806.3667169404305,810.1397349923568,823.5411541465866
1731143037.1955132,822.3669182745166,806.4641492238602,809.8178745961336,822.7350227084199
1731143037.1978106,803.4361804002584,806.5569276445722,808.9655998270481,815.9171203341774
1731143037.2017074,779.8135805581547,806.6629240631718,808.2819200456522,808.4455759642559
1731143037.2042446,771.6459652134419,806.8044120708602,808.2933491377345,807.0091965120529
1731143037.205604,787.7547105606902,806.9814095390763,808.8931154872631,813.4191296469594
1731143037.2095008,817.7379910084355,807.1417484730882,809.4864192228724,822.2668701947135
1731143037.2133973,839.9384231447882,807.1864930804265,809.5943891838514,824.6346861758341
1731143037.2143655,838.5702885227541,807.0480377675399,809.3081287128429,815.2009039912562
1731143037.2158668,815.9443326343563,806.8185905062976,809.0872592548908,797.226772735343
1731143037.217294,790.0587422732862,806.8059046523896,809.065839445975,781.1027360177716
1731143037.2198036,779.8304175968701,807.3731149653407,808.633053214625,776.7830713740987
1731143037.2211907,790.0762612899238,808.6032762311057,806.8895417076358,785.5358554493048
1731143037.2250874,808.3475104719603,810.0863088426338,803.6800647633755,797.9228578029293
1731143037.228984,816.0086624979102,811.1100948000318,800.1738493495587,800.647468937954
1731143037.2328806,804.2825376918807,811.1607398119821,798.2644948917876,787.4816316665059
1731143037.2332177,781.8789780899634,810.2956554204743,799.1833619994094,765.2822167587987
1731143037.2353623,767.8352963296136,809.0590808508664,802.5198023475308,749.5677973212046
1731143037.2367773,775.5308490033589,808.0544260963171,806.4876753213197,752.7686697682392
1731143037.2406738,801.1238887257622,807.5762592406153,809.1611896039126,774.510501686635
1731143037.2445705,825.921975558959,807.5571977358068,809.6466363519314,801.6532971486341
1731143037.2484672,830.8141759145957,807.7311227570706,808.3911562269634,817.8954099555581
1731143037.250623,811.3200769142903,807.7691299275389,806.6544375626286,815.3903959711054
1731143037.2509215,781.4951490709386,807.3187377370917,805.7324417167449,799.7603805089361
1731143037.2520697,763.6248584619632,806.0926409313595,806.4283481145978,785.285663511074
1731143037.252364,771.433156226443,804.1137172697786,808.8501351168812,784.2817964281959
1731143037.2562604,799.5371037205649,801.9663165171571,812.4149389384457,798.5501474396207
1731143037.260157,827.4670971712374,800.7429054244285,816.050101675845,818.9677015535109
1731143037.2640538,835.545571636447,801.5343327441368,818.6406163520899,833.1696660566021
1731143037.2664804,820.2792223480805,804.6934275241317,819.5570717766888,835.1428915684642
1731143037.2679503,796.7298042041584,809.3858404177171,818.8737139049003,829.0999967235108
1731143037.2709217,785.6976574043358,813.8552197217916,817.0501577072798,824.7338237626905
1731143037.271847,796.2781203941643,816.357678294955,814.3511551997781,828.1601020912315
1731143037.2757435,818.3934290186648,816.1755822615047,810.6004687671601,836.3901805138033
1731143037.2796404,831.5020179161141,813.9740670026879,805.5999951929263,839.9887493714804
1731143037.2820394,822.0652875022901,811.2314041666523,799.8755889054937,831.5299241549685
1731143037.283537,795.1986199043786,809.2078891464267,794.9707808522159,812.6215551365259
1731143037.2853792,771.0301322269819,808.2571449237232,792.7819991501736,793.5250739607463
1731143037.2874336,768.9154384960271,807.9239879275219,794.2591741905259,785.5116206363118
1731143037.2897737,792.2941925579162,807.5896202330024,798.478037301204,792.0730472540312
1731143037.2913303,826.1924926396385,807.0552870796698,802.970175533175,806.2052516199174
1731143037.2952273,849.1818331454166,806.6478641846517,805.2667232099196,816.1879978313357
1731143037.297598,850.0853482374335,806.8927268647527,804.5816869957365,815.2143705230576
1731143037.2991235,835.9306239288471,808.098946333039,802.3182766591453,806.7299340905753
1731143037.3030202,824.8092187819223,810.1703233569916,800.9404119761814,800.819869373334
1731143037.306917,829.8267047514297,812.7115489355498,802.0872653186358,804.8133607267615
1731143037.3086257,847.7786351174673,815.2541699488141,805.4644049899754,816.473689072373
1731143037.3108134,862.0887389266056,817.3591247799146,809.3442537726968,825.7876578076266
1731143037.313157,857.3579042159927,818.5301420880476,812.0501620145734,823.6063384463386
1731143037.31471,833.0897738371541,818.1522048700937,813.0362758322949,809.4517686067142
1731143037.3186069,805.0094863585905,815.7329139097264,812.8307817074283,791.9380809268465
1731143037.3201354,792.8616693977301,811.4034937207506,812.2792869387746,781.9378877413442
1731143037.3225036,804.721183355997,806.2139569249739,811.9187564650867,784.565880876058
1731143037.3264,830.5847869653686,801.7609572158291,811.8467128602749,796.3335488396096
1731143037.327478,850.4065543936794,799.2646377001782,811.9202078325752,808.9938113192111
1731143037.328716,850.1170305551487,798.8286136650811,811.985297654382,816.3057496795205
1731143037.3302968,832.744751536583,799.566203996479,811.980499443673,818.3478761629704
1731143037.3341937,815.5744987199732,800.4961805303604,811.9228211343461,820.5351080911727
1731143037.3380902,815.4971466493326,801.3590543181887,811.8524971377923,828.5648027955503
1731143037.341987,834.5322731765833,802.5827933609102,811.7946517326626,843.2327882869562
1731143037.344275,857.6960514203915,804.4929097225056,811.7522398178927,858.9971824957491
1731143037.3458834,865.2804937704783,806.6324881401193,811.7168576931903,867.5439350345617
1731143037.34633,849.4768905242453,807.9393568603238,811.6804848878193,863.9712675569895
1731143037.34978,821.5009263749324,807.6543644649477,811.6402911237242,850.9793210198251
1731143037.3536766,803.1936475262839,806.0973526715975,811.5974594809403,837.5634070522202
1731143037.3548915,809.7889015866255,804.5533960611593,811.5541730682469,832.7733250450564
1731143037.3575733,837.6418767498246,804.3190576308856,811.5116951938178,839.0984883709322
1731143037.359834,866.7110856163434,805.6971555387702,811.4701191261679,850.6030172487892
1731143037.36147,875.9321002499547,807.7572606099436,811.4289918370581,857.3549473889581
1731143037.365182,859.4582895645216,809.0174894339879,811.3879236590495,852.7284496386691
1731143037.3653667,830.9077578917413,808.4490019842142,811.3468109449765,837.8489786646663
1731143037.3692632,812.1135357116957,805.9992026792142,811.3057532510815,819.7994337470162
1731143037.37316,815.3922743966201,802.3221897146058,811.2648909552413,805.3848644733062
1731143037.375393,833.881659183683,798.1256850440931,811.2243101272326,795.9057982275359
1731143037.3770566,847.9526247175421,793.8158345235197,811.1840357353601,787.3030400720627
1731143037.3809533,842.1861613820621,789.7055513319403,811.144067056732,775.1737615935012
1731143037.3840342,818.5166937985529,786.4048109029545,811.1044090921661,759.9284958371838
1731143037.3848498,794.6111123539367,784.8205232581352,811.0650826248448,747.4793737460268
1731143037.3887465,789.1334531397825,785.6403882642771,811.0261188047809,744.922821753838
1731143037.3896475,806.2915962914799,788.7502630432558,810.9875504562293,754.891490306267
1731143037.3909516,832.2627754016819,793.1265202137549,810.949407398378,773.1268957815
1731143037.3926432,846.2095624980185,797.3041144300599,810.9117164053542,791.0755768710164
1731143037.3965397,836.9008122241746,800.0474037650149,810.8745031759336,801.4547932606852
1731143037.4004364,811.5722183990405,800.7907086290018,810.8377939270445,802.6807140026862
1731143037.4028862,789.9017410118634,799.7120396170063,810.8016158207004,799.0837463691722
1731143037.404333,787.9977799783263,797.5647892447246,810.7659966136313,797.0469031660921
1731143037.4065106,805.5197328582664,795.3923277247133,810.7309641826923,800.2043229004847
1731143037.4082298,826.532301083521,794.1458262967669,810.6965462844472,807.3527152854484
1731143037.4121263,833.2268440599896,794.2716880867233,810.6627705567212,814.3691021170705
1731143037.416023,820.8424429287005,795.4983517574,810.6296646143453,818.1647874126841
1731143037.4199195,801.3194158271697,797.0415017811628,810.5972561167767,819.2430513740968
1731143037.421738,793.0265288352657,798.1403154268461,810.5655727726485,820.8394715956553
1731143037.4220695,805.5635576505973,798.5233806699922,810.5346423056826,825.5624187935173
1731143037.4238162,832.1616814299671,798.4540201880402,810.5044924166584,832.5147229845085
1731143037.424404,855.2576139684907,798.3927471784475,810.475150758849,837.5095306072616
1731143037.427713,859.9400608426121,798.626918760701,810.4466449260356,836.4128836507502
1731143037.4316096,844.1797612127135,799.1581485518974,810.4190024448882,828.7562946676853
1731143037.4355063,818.3324104129719,799.8436875959608,810.3922507654863,818.2319382498769
1731143037.4376285,795.8843923307065,800.5929069445352,810.3664172484891,809.6215500063075
1731143037.4394028,784.2225642884089,801.4530948304846,810.3415291504332,805.3114357554363
1731143037.4405904,782.3380015844834,802.5522559712251,810.3176136089787,804.524708416492
1731143037.4432995,784.876854837735,803.9623891554378,810.2946976289389,805.0752799714179
1731143037.4471962,787.2034545217249,805.5856180675738,810.2728080689715,805.3062975221384
1731143037.4510927,787.5992577104205,807.1554323964671,810.2519716284783,804.7486252296576
1731143037.4531872,786.5797462290706,808.3687171671174,810.2322148343962,803.7124548949897
1731143037.4549894,785.2681329399074,809.0565171813776,810.2135640278138,802.641303067338
1731143037.458886,784.3371598963453,809.2630732683159,810.1960453504985,801.7563953433179
1731143037.45916,783.8424065208704,809.1819344892668,810.1796847314266,801.0444500400195
1731143037.4594424,783.538436591294,809.018593901462,810.1645078733527,800.3995208141243
1731143037.4627829,783.203476788845,808.8915548833606,810.1505402394047,799.7420475659004
1731143037.466679,782.764416454113,808.8220117020137,810.137807039679,799.0535998708446
1731143037.4687462,782.257721978631,808.7807838350125,810.1263332178166,798.3536338410009
1731143037.470576,781.7441950477737,808.7367982603802,810.1161434375562,797.6658348899277
1731143037.4744728,781.2571373456442,808.6780814403678,810.1072620692673,797.0010101083329
1731143037.4782944,780.7972572451811,808.6085137076093,810.0997131764681,796.3577820480583
1731143037.4783697,780.3508481018986,808.5364195805615,810.0935205023256,795.7305000107315
1731143037.482266,779.9066103339142,808.4668515151086,810.0887074561408,795.1153101988599
1731143037.4843051,779.4613794404844,808.4003063983915,810.0852970998124,794.5116416040734
1731143037.486163,779.017506445421,808.335016711706,810.0833121342813,793.9207929941233
1731143037.4900594,778.57828715097,808.2693490902734,810.0827748859556,793.3441567459099
1731143037.4939165,778.145408713901,808.2027511563581,810.083707293114,792.7823963737235
1731143037.493956,777.7188588237559,808.1354830091824,810.0861308922919,792.2355478819522
1731143037.4971466,777.2979501301974,808.0679941806669,810.0900668046497,791.7034548677528
1731143037.4978526,776.8821838775779,808.0005375204211,810.0955357223248,791.1860751713814
1731143037.499864,776.471504674214,807.9331261778048,810.1025578947687,790.6835405998498
1731143037.5017493,776.0661342817672,807.8656649332233,810.1111531150725,790.1960730400342
1731143037.505646,775.6663284482246,807.7980744057687,810.1213407062819,789.7238911704433
1731143037.5095425,775.2722530606659,807.7303345801411,810.1331395077048,789.2671715713418
1731143037.5134392,774.8839895015167,807.6624664372928,810.1465678612155,788.8260579502768
1731143037.5154233,774.5015921093664,807.594498432488,810.1616435975592,788.4006856913211
1731143037.5159986,774.1251307136683,807.5264473962349,810.178384022658,787.991197343351
1731143037.517336,773.7546976851912,807.4583176009844,810.1968059039266,787.5977429478351
1731143037.5212326,773.3903939266801,807.3901082946978,810.216925456601,787.2204713206456
1731143037.5251293,773.0323176913113,807.3218202240885,810.2387583300832,786.8595221632536
1731143037.5286727,772.6805706696947,807.2534575724754,810.2623195943106,786.5150274268094
1731143037.5290258,772.3352773434898,807.1850264344666,810.2876237261537,786.1871248505873
1731143037.5309818,771.9965948564757,807.1165323971039,810.31468459585,785.8759759103406
1731143037.5329225,771.6646843310489,807.0479792271886,810.3435154534791,785.5817676088337
1731143037.5348506,771.3396376247417,806.9793696429634,810.3741289154877,785.3046755387262
1731143037.536819,771.0214104912293,806.9107080216311,810.406536951271,785.0447917665217
1731143037.5407157,770.7098691261311,806.8420032593091,810.4407508698188,784.8020759651649
1731143037.5446124,770.4050322520197,806.773268260742,810.4767813064338,784.5764312523777
1731143037.5465407,770.1074150561943,806.704512854085,810.5146382095331,784.3679593584654
1731143037.5485091,769.8181093107308,806.635731942647,810.5543308275387,784.1772616963466
1731143037.5524056,769.5381329628584,806.5668997604819,810.5958676958695,784.0054093809507
1731143037.5537028,769.2670255996187,806.4979865467175,810.6392566240431,783.8531865283446
1731143037.5563023,769.001731132862,806.4290030476076,810.6845046828987,783.7197426969226
1731143037.560199,768.7377727624878,806.3600450520778,810.7316181919507,783.6018294243614
1731143037.5620997,768.4740526761226,806.2912732903166,810.7806027068864,783.495505289165
1731143037.5634289,768.2191072097044,806.2227722021931,810.8314630072169,783.4011051830296
1731143037.5640955,767.9916548126577,806.1543322121478,810.8842030840952,783.3285797895718
1731143037.5679922,767.8070692469518,806.0853705431189,810.9388261283134,783.2959339892682
1731143037.5718887,767.6507711812092,806.0152894507278,810.9953345184915,783.3138789900553
1731143037.5725548,767.459866070461,805.9443313558719,811.0537298094723,783.3607194267078
1731143037.5757856,767.150662774478,805.8743468971193,811.1140127209345,783.3710229308609
1731143037.577659,766.7129403044654,805.8082437758758,811.1761831262406,783.2728102660561
1731143037.579682,766.3224988072603,805.7471673122968,811.2402400415317,783.0835191314815
1731143037.5835788,766.3327198270366,805.6865013611873,811.3061816150858,783.0030577772637
1731143037.5874755,766.9971685283509,805.6149351246255,811.3740051169556,783.3643642891528
1731143037.5913725,767.9705146029727,805.5220099842243,811.4437069288997,784.3229288455636
1731143037.5914073,768.0216968023559,805.4143954906183,811.5152825346258,785.3860660586491
1731143037.5932176,765.6654954469274,805.3287241482079,811.5887265103617,785.2404949372536
1731143037.5952687,761.0362196433921,805.3174866547259,811.6640325157707,782.484106774659
1731143037.5981853,757.9998058521073,805.3919074379647,811.7411932852305,777.273060365536
1731143037.5991654,763.972834194943,805.4451663274431,811.8202006194914,772.5534427227328
1731143037.6030622,785.3242081049999,805.2334823902385,811.9010453777348,772.9279031564863
1731143037.6069586,820.288282363821,804.4946282441094,811.9837174700483,781.0753568548564
1731143037.6087766,856.1499762452687,803.1704807432942,812.068205850341,794.7288728939308
1731143037.6102593,876.0941945356178,801.5529677472357,812.154498509716,807.6105953837074
1731143037.610855,872.0571272565988,800.193376577723,812.242582470321,814.1954905386018
1731143037.614752,852.3721134976765,799.6275067554512,812.3324437796939,814.2900877575261
1731143037.6186488,836.2516580563432,800.1304823485888,812.4240675056193,813.2333920705172
1731143037.6225452,838.7657310213674,801.6511151991169,812.5174377315217,817.2917817616636
1731143037.6243353,858.7740846584317,803.8896177055502,812.612537552426,828.0707155721786
1731143037.626442,880.0472653470522,806.3838856725915,812.7093490715238,840.7214877180149
1731143037.6291113,884.7017408627742,808.5405496811107,812.8078533973729,847.5857151742648
1731143037.630339,867.8961947930056,809.6769320687872,812.9080306417256,844.4042558700204
1731143037.6329412,841.906193240592,809.1699725534601,813.0098599179457,834.0644764195014
1731143037.6342351,826.4142469359266,806.7154039165405,813.1133193399802,824.7740788512388
1731143037.638132,832.8559633743141,802.5827877288972,813.2183860219602,823.9922930473609
1731143037.6398942,855.3684611296534,797.6909388620327,813.3250360786634,832.9066393594712
1731143037.6420286,875.6839154702808,793.3649000280548,813.433244627159,845.9001201463279
1731143037.6459253,878.1368338027987,790.8026543716395,813.5429857897104,855.4413521441194
1731143037.6479633,862.5876549739114,790.51703907857,813.6542326973811,858.3286573540397
1731143037.6498218,844.4812412263276,792.1146339664608,813.7669574931534,858.0283509606487
1731143037.6537185,841.7292616432132,794.5675629839684,813.8811313336736,861.1467668973887
1731143037.6554532,859.2061714946847,796.7736776887988,813.9967243907479,871.1559257372735
1731143037.6576152,883.958551821351,798.0333727135975,814.1137058568254,884.9148872341874
1731143037.661512,895.4808208719762,798.236027915966,814.2320439597894,895.0879819524644
1731143037.6654084,882.8087483303611,797.8115319332765,814.3517059872385,896.395340180621
1731143037.6668153,854.3325859345063,797.5662417212762,814.4726583082335,890.3005398174383
1731143037.6676974,831.9925330711994,798.3951696065683,814.5948663696214,884.0713749659745
1731143037.669305,834.0915601627247,800.8139015330387,814.7182946520759,884.8653775693867
1731143037.6710122,860.2664759434383,804.4537269547475,814.842906611324,893.6196485476323
1731143037.6732018,890.883063178403,807.9280240723057,814.9686646868636,903.8012857197109
1731143037.6770985,901.9721109848292,809.4239495612708,815.0955304731091,906.3033093578596
1731143037.680995,884.1594308218404,807.856140509451,815.2234650393225,896.8023240792807
1731143037.6848917,850.1882898337242,803.8108660546013,815.3524291519402,879.6320055804134
1731143037.6856673,824.5788874165678,799.4389347893955,815.4823829696452,864.7356016141829
1731143037.6865711,823.8234112080153,797.1663226852683,815.6132849797749,859.8293013316851
1731143037.6887884,843.5304539287569,798.0764316850315,815.7450907423263,864.0395716640866
1731143037.692685,862.9770590433192,801.2004326192521,815.8777530404965,868.3578703772289
1731143037.6965816,862.824755619284,804.3018974048647,816.0112251149294,862.8115264943319
1731143037.7004783,841.0508431141644,805.5462522494738,816.1454664028087,844.7196184320126
1731143037.7021298,814.2322179412182,804.7365649990553,816.280445795731,821.4263848962717
1731143037.7024536,803.7493252673781,803.2092695769867,816.4161344250317,805.2971866644444
1731143037.704375,818.5062054121107,802.6304500649718,816.5524846083772,804.847267162282
1731143037.7045195,847.9479672887126,803.7727574643086,816.6894072454367,818.7745873522339
1731143037.7082715,870.5872489674637,806.1949088603359,816.826778507336,837.3088781868136
1731143037.7121682,871.0513259764186,808.8625237713799,816.9645049991503,849.6502435824295
1731143037.7160647,852.070776165488,811.0088690625334,817.1026302823258,851.6276635222847
1731143037.7176888,831.8287724296047,812.5244157697109,817.241382820396,847.6383976738979
1731143037.7199614,828.8194818717909,813.7197904781558,817.381017996799,845.6726110466652
1731143037.7233715,846.6178635669365,814.8269174734512,817.5214107453343,850.0269195379208
1731143037.723858,871.1202772089747,815.6935844855204,817.6616602177345,858.1206226983733
1731143037.7277548,882.4360939729901,815.866549657973,817.8002972032755,863.9007564933304
1731143037.7316515,871.3960549146398,814.95382906586,817.9365923980279,864.222063880598
1731143037.7332478,846.9885091013296,813.0063509013276,818.0725240488749,861.9974191192807
1731143037.735548,828.8329110351328,810.6724977205704,818.2134192758089,863.1476262035266
1731143037.7372098,831.1359080582736,808.9913267297203,818.3645771520702,870.2551613595073
1731143037.7394447,851.1983579197515,808.8633688031683,818.523451384233,878.9182855029119
1731143037.7422235,871.5730963236781,810.4490332278439,818.6728635416664,880.4776234874245
1731143037.7433414,874.0815937920756,812.8984389591498,818.7864713398885,869.2147949057838
1731143037.747238,854.5723694757152,814.7288907225163,818.8547734084111,848.0631629916134
1731143037.7488067,826.5475985091211,814.7469575877585,818.9210094514535,827.7301897737752
1731143037.7511346,810.4230007347825,812.9024967999158,819.0876467944389,819.3446476870055
1731143037.755031,816.8878068652513,810.3555962390271,819.44424333134,826.1694282504495
1731143037.758928,838.0914550861796,808.5897511579816,819.9149096468827,841.0288533216547
1731143037.7610755,854.1924495537145,808.2301720643044,820.1332435279695,851.7214832154897
1731143037.7628243,849.8979089224304,808.5564988364127,819.5407890823308,850.2510027249771
1731143037.7643657,827.1171319207851,808.1475767316053,817.794116942758,838.5478826399657
1731143037.7667212,803.2417983260077,806.1115655484914,815.1905327806345,826.2009781880142
1731143037.770618,796.7603972896736,802.8364703447504,812.583145799306,822.2494288940215
1731143037.771966,812.2748160087599,799.6364270781492,810.6832728914083,827.8336046192568
1731143037.774515,837.0109099811361,797.6706810775568,809.3939369605525,835.5553800484362
1731143037.7784111,851.2189580807831,797.1444846400614,807.8899292901215,835.7529274357526
1731143037.7799244,843.7771503057668,797.4733825454895,805.4139679807547,824.4210088156701
1731143037.7799275,820.5414310049734,798.1294763404169,802.0711075982218,806.5391135576364
1731143037.782308,799.0197667030816,799.2331131005939,798.9311983700613,792.419520359238
1731143037.7862046,793.8436114171172,801.2513146549579,797.3551934694152,790.0168394745218
1731143037.7901013,804.8418728989025,804.120306631374,798.0876500476772,799.010594904024
1731143037.7939978,817.4971810398812,806.7652294062394,800.8122486758419,811.0444040041814
1731143037.7954834,815.5186420191536,807.666191460601,804.4407700817397,815.927038405499
1731143037.7978945,795.1819647039763,806.10327329645,807.7650061761952,809.1762425279161
1731143037.7987795,769.4190791498559,802.9884097032309,809.8448946241047,795.2841121865716
1731143037.8017912,757.9847449909704,800.4704868317574,809.9302703590727,784.287876483261
1731143037.8056877,771.5002249969566,800.5335980201043,807.3952944492826,784.2366213493136
1731143037.8067222,802.3008312660959,803.6598771447523,802.2609043925022,795.1981845180334
1731143037.8095844,829.6812574454734,808.5641907445986,796.0833334256698,809.2785661240084
1731143037.8110423,835.6560402908949,813.1279683177457,792.1003804930194,816.5598010801453
1731143037.813481,818.7909817261316,815.7423872122588,793.7481099965447,812.2874129048782
1731143037.8173776,794.8657391700426,816.0653389416932,802.1373185094753,799.6535190938453
1731143037.817632,783.5375453311622,814.7971196719243,814.4563932483162,786.1349621158191
1731143037.8212745,791.7974686240256,812.8935066083086,824.9831565473589,776.7784557465536
1731143037.825171,808.1454425578984,810.945958321567,828.4015850515827,770.4339523205673
1731143037.8266013,812.7425041371272,809.0941541799981,823.1187641978571,762.2400247421409
1731143037.8290677,795.1529822477178,807.2806796433612,812.1035709718241,749.8959196150179
1731143037.8329642,764.4661177044309,805.4777017379083,800.6781001745111,737.6295108079927
1731143037.836484,742.8454318096244,803.7478523983915,793.0850807172106,733.7068393591004
1731143037.836861,747.6009448066854,802.234544882452,790.4356193217812,743.1713306214737
1731143037.8407576,776.5613169932841,801.1515830512459,791.1669447771978,762.015688214833
1731143037.8414786,808.7832792637133,800.7284396414385,792.9646020765101,778.186518830913
1731143037.8421602,820.1797254866178,801.1028265294074,794.334329933879,779.4052406079229
1731143037.8446543,801.8027290460469,802.2578570608156,794.954629509858,762.2291754078304
1731143037.8485508,766.4692566512003,804.0551395299264,795.1720839203936,735.4480908089191
1731143037.8524475,738.5594854928653,806.2598215562823,795.3918817507875,714.8628354250151
1731143037.855336,735.1246270459759,808.465961784075,795.7873210332166,712.8735815668667
1731143037.8563442,753.4597199810247,810.0626928921484,796.3224700805407,730.3543577930186
1731143037.8577187,775.0301310597689,810.4805813940936,796.8934966488741,756.7458770003457
1731143037.8602407,782.0289828636259,809.6452133600015,797.4321196938155,778.1000548034974
1731143037.8641374,772.3070682707618,808.1654416425159,797.9279529910224,786.7270968782226
1731143037.868034,760.1339923089313,806.925325172167,798.40196452163,785.059772298442
1731143037.8719308,762.6810440501478,806.4193360098716,798.8754878125817,781.2915154415596
1731143037.873278,784.2453190729333,806.5029634704499,799.3566777216032,781.1650476847432
1731143037.8741882,811.6883436112495,806.7218577985238,799.8429252534642,783.1977556086888
1731143037.8758273,824.7569801980035,806.7548819654866,800.3286227357842,781.225574009215
1731143037.8762348,812.6788492605306,806.5602739950643,800.8103766534259,771.5449389728375
1731143037.879724,783.5341156284898,806.2556705997268,801.2878656613915,757.9021399652453
1731143037.8836207,758.7090885260554,805.9580115510482,801.7622894175686,749.4966550802981
1731143037.8875177,756.499038002085,805.7122596632879,802.2347500709545,753.3187432377764
1731143037.8888369,777.692045162879,805.504793046698,802.7056170515192,767.3119671149402
1731143037.891414,804.7957212497982,805.3054604663605,803.174715599562,780.6030769374245
1731143037.8930402,815.8988089693725,805.0958862575603,803.6417572034476,781.377669489927
1731143037.8953106,802.2041531327769,804.8742464361849,804.1066058818708,766.450514053406
1731143037.8992074,774.9279524891039,804.6469691904857,804.5692959267894,744.6514607500008
1731143037.9031038,755.7800052147267,804.4200081330328,805.0299081042862,730.7301689040153
1731143037.9043958,758.8635815825459,804.1953870694045,805.4884451051498,734.1644367524926
1731143037.9070003,779.060625497751,803.9721703132465,805.9448071259218,751.7608799417225
1731143037.9108973,796.5245002152145,803.7487290252125,806.3989082935378,770.2122580480382
1731143037.910991,793.4531647991516,803.5241482827311,806.8508828228012,776.7269363007636
1731143037.9118922,769.2595229633783,803.2983853825951,807.3011997906785,769.1081911366325
1731143037.914794,741.6902653469285,803.0717927482436,807.750427606584,757.0063708601605
1731143037.9186904,732.8211515901463,802.8446669715455,808.198549527632,753.3537305402604
1731143037.9199548,751.0343900699772,802.6170923985894,808.6442361930816,763.2003322778614
1731143037.9225872,783.5880823034811,802.389009292264,809.0850707227389,779.4025503606764
1731143037.926484,806.2390939156007,802.1603328196957,809.5196559608887,788.8581605604782
1731143037.9303803,802.5880390240854,801.931013152875,809.9510339138732,783.9770212688395
1731143037.9307444,777.4848024074743,801.7010279983435,810.3881873094934,769.5410118873664
1731143037.9342773,753.3291973915186,801.4703567984233,810.8408975227861,759.046946869526
1731143037.9355135,752.106576492914,801.2389854585051,811.3066207799529,763.6215589247006
1731143037.9381738,777.7556705876931,801.0069489126987,811.7578689682529,782.8124081807042
1731143037.9420705,813.0738617000916,800.7743633415063,812.1490966413926,804.7899793327007
1731143037.9457471,833.4059873862658,800.541369408756,812.4589212840582,815.5740800989496
1731143037.945967,825.9256511729632,800.3079521445312,812.7530595366576,809.6541057685707
1731143037.9495964,799.1593454911987,800.0737443694471,813.2036235290559,793.6129241133614
1731143037.9498637,775.4617671359226,799.8380840960039,813.9777712560963,780.2960385378284
1731143037.9510725,772.797659082121,799.6005808760721,814.9809954666104,778.6027698647099
1731143037.9537604,790.6210951661634,799.3620413481467,815.6253208613748,787.0945627814331
1731143037.957657,811.1639729312108,799.1248830935854,814.9614047917283,796.1205927618905
1731143037.9615536,814.7844316526667,798.8917555508607,812.3698211215691,796.1988265317912
1731143037.9654503,796.5295165765077,798.6619945223534,808.3904460124456,785.6754133100296
1731143037.9666314,770.3082678488078,798.4281911149295,804.7457479903971,771.7564121275406
1731143037.9684484,757.5377125408052,798.1780153277005,803.1560456506547,764.5374443870081
1731143037.969347,769.7907465953838,797.9056150552898,803.9057812796777,768.9985830894942
1731143037.9732437,799.4322506012936,797.6287255186126,805.6186709985554,781.1317551969706
1731143037.9771402,825.4470216061824,797.3942034703894,806.540792799381,790.9777221923193
1731143037.980503,829.622011114316,797.2486207552392,806.1075210722523,790.1617726144628
1731143037.981037,810.3875356956755,797.1704216570955,805.3157932952302,778.2616623942787
1731143037.9821904,783.6555395768254,797.011606991161,805.5829171526125,763.2439819484105
1731143037.9849336,770.1429678539793,796.5473634087864,807.1750339398931,755.6349819339171
1731143037.9873006,779.222865155378,795.7077844593649,808.7083504365798,760.8911440537939
1731143037.98883,802.1758687839683,794.9059175269916,808.3289761261702,775.9306093381656
1731143037.9927268,820.272623991413,795.1423678301276,805.657950813589,792.5137447609981
1731143037.9966235,820.9125829562963,797.5282247278419,802.7006548179583,804.4445053324922
1731143037.997749,808.0963309677201,802.3131160128014,802.598129999887,812.2143798230937
1731143038.00052,798.2033748969425,808.1826607117187,807.0160415071575,821.0015187712221
1731143038.0044167,804.8129640380461,812.6628348492533,814.4488511293607,834.1086392905912
1731143038.0061526,825.9553429040011,813.5974984442715,821.1476405780712,848.242486362494
1731143038.0083134,845.0320076465476,810.6513624898771,824.0350763311651,855.2930232369938
1731143038.01221,844.703156452123,805.6346596159946,823.0579639205628,849.1466952762132
1731143038.0133083,821.930364363322,801.3109474268464,820.8867324299418,831.4413779672752
1731143038.0152595,791.4569125590592,799.5504053215628,820.2963705442424,811.1802647471216
1731143038.0161066,774.6405818159909,800.2420798070759,821.6278435313603,798.4741103749275
1731143038.0200033,782.5859846889136,801.7603103566652,822.554305075134,797.4955639893584
1731143038.0239,807.2973335649904,802.4805258386392,820.2545977611823,804.1530618560231
1731143038.0250049,828.2472935536197,802.0015625971239,814.0206037769747,810.0607831997838
1731143038.0277967,829.2077734529257,801.1063664234844,806.0786080596922,809.4337042185961
1731143038.028867,811.5467331394314,800.7040723085445,800.0461952454986,803.4165217629987
1731143038.0316932,792.8896866786172,800.8835746796456,798.4170343231851,798.5720858939754
1731143038.03559,792.2011703173441,800.9597505690399,801.0830822195528,800.952729544001
1731143038.0394866,813.7453105609985,800.3386761115544,805.8201531644162,810.6295264075117
1731143038.0433831,843.208314283603,799.261239912479,810.0140399664698,821.108385150955
1731143038.0438569,858.9656865727542,798.7121276387577,812.1432111337394,824.1935757145869
1731143038.044426,849.1557604158713,799.6474938498267,812.1195001979079,816.6335390984895
1731143038.0472798,821.0465867615143,802.2752258683009,810.7209913163954,803.4271778573694
1731143038.0500157,795.6917920795003,805.9371478452813,808.9104768299317,794.9527847787165
1731143038.0511763,792.1656125996951,809.5389063976733,807.5015240002538,799.5493385057598
1731143038.0550733,813.2710921517015,812.0961844755436,807.0514209324966,816.8188016805505
1731143038.0589695,843.4430148577727,813.0717050356758,807.7394967920799,836.9458576266453
1731143038.0599847,860.5410799137309,812.4906899705707,809.3010330605705,847.1644276925957
1731143038.0627089,852.6538123941702,810.9378220581118,811.2412628240697,840.8848095958274
1731143038.0628664,826.8516665845121,809.3926284813562,813.2541041648213,822.4789314531366
1731143038.0667632,802.8384497660669,808.7832106576858,815.4147768119249,803.833244245498
1731143038.07066,796.5454296538321,809.3923181169187,817.854309768763,795.3441564822891
1731143038.0745564,807.1934584757811,810.5839895089581,820.2003821320938,798.596451739793
1731143038.075544,818.7010857546832,811.214400373,821.4359273429583,806.4906222027091
1731143038.0784533,814.2537783660002,810.4933147525481,820.5114850227433,810.2484034777747
1731143038.081561,791.5760253952423,808.58731130285,817.305514968178,807.0577039838087
1731143038.0823498,765.7767991887683,806.466343116462,813.0755306298141,801.9689658409093
1731143038.084772,757.1552397646551,805.1858696793821,809.8566163228115,802.8521555625016
1731143038.0862465,774.0771812064846,805.2334754679001,809.1458377061077,813.0721887578352
1731143038.090143,805.33107468348,806.3542156631314,810.9127875744454,828.1984150973393
1731143038.0911028,828.6700176166422,807.7559179555337,813.7854637344772,839.4536147198907
1731143038.0940397,828.7637717737117,808.4049816458272,816.2276077272846,840.9058354682217
1731143038.0979364,809.6660154190643,807.3730002732485,817.6144195090195,834.3190413622877
1731143038.100413,791.2276048280928,804.3742157634587,818.3004955127153,827.6031614855558
1731143038.1018329,792.3614968967537,800.326245437509,818.8667927889494,828.1964769193037
1731143038.1057296,815.2482306516382,797.3239602480974,819.4843582169284,836.8996500755143
1731143038.1066616,843.6949711349516,797.5977643631943,819.9480638948994,847.1654733873443
1731143038.1096263,856.6989150563531,801.9355397610406,820.07067650726,850.2309735191617
1731143038.1135228,845.5260166123753,808.7908982568111,819.8916629456115,841.7978702303383
1731143038.1174195,820.203178442,814.9650291315286,819.5861733798345,825.0418328834913
1731143038.1192653,800.6993426306474,817.5129426829745,819.3000535773831,807.9611989850179
1731143038.119528,800.6545510961935,815.5215450612739,819.0815400146092,797.505550969639
1731143038.1213162,816.9213434179371,810.5311220900908,818.9087677243045,795.0770003289982
1731143038.1222205,832.8771579237671,805.4325136149494,818.7440549361678,796.5918010409025
1731143038.125213,832.4186388276493,802.7196780812654,818.5666825515787,796.7031321698464
1731143038.1291094,813.3185056383059,803.2427723330427,818.376242470335,793.6590777241012
1731143038.133006,789.1908810239377,806.0649132075494,818.1813391148775,790.8040253724375
1731143038.1369028,778.3152434777843,809.2384925441945,817.989086118813,793.3905030348869
1731143038.1377797,788.2840621178686,810.8808741709602,817.8015176995867,803.3047194793768
1731143038.1381173,809.205724990253,810.0074507736165,817.6172176964427,816.3349869817254
1731143038.1407995,821.4420423430984,806.8794816991431,817.4341744645487,824.7422787226255
1731143038.144696,811.8147751317418,802.8191960425745,817.2513791669697,823.3967588774884
1731143038.1485927,784.9601760510574,799.5476563199496,817.0688853836532,814.4069329208552
1731143038.1524894,760.3200244348708,798.30333630535,816.8871701717891,806.0535951402107
1731143038.1533384,757.0157995090091,799.2353273557884,816.7065941910244,806.4505381022582
1731143038.1542845,778.7099058946764,801.492448750297,816.5272418342299,816.8726597261942
1731143038.156386,810.4908426269147,803.9284850224157,816.3490245821935,830.2518294418181
1731143038.1569693,830.2212209305341,805.8272175505455,816.1718327066279,836.36069847605
1731143038.1602826,825.4762072976142,807.0738143496069,815.9956125836518,829.8303686748791
1731143038.164179,802.8420866368878,807.7868868210944,815.8203635123116,814.6687052912009
1731143038.168076,782.2349384292462,807.9603123227826,815.646102422225,801.4747975797903
1731143038.1688974,780.738831377396,807.5481249816588,815.4728382727004,799.3037403651283
1731143038.1719725,799.04819284133,806.7995411206422,815.3005681629429,808.5848999181235
1731143038.1758213,821.6364440541649,806.2779710076958,815.1292847653386,820.8655144965506
1731143038.1758692,830.4033955594062,806.3646383794777,814.95897956872,825.7288134967681
1731143038.179766,820.2032008466733,806.7398203048433,814.7896350684795,819.3642571804425
1731143038.1836624,803.1084804417674,806.5023836635265,814.6212138357722,807.8101400889766
1731143038.184456,797.9075684841188,804.9715416614285,814.4536638177395,802.1615675325623
1731143038.1875591,813.819689529285,802.4671697700983,814.2869550018328,809.599499387729
1731143038.189041,842.1150422513358,800.2935037277146,814.1211335561422,827.5062881068608
1731143038.1914558,862.5816445199498,799.8365523986513,813.9563356175505,845.3459069502866
1731143038.1946735,859.5655770377598,801.47524367196,813.7926862639063,852.6286025010334
1731143038.1953526,834.6175484916712,804.2110631481022,813.6300785236064,846.4865078888763
1731143038.199249,805.5156860906484,806.381617986093,813.4679951865031,833.0217590230982
1731143038.2000153,792.3357839308954,806.9540003330314,813.3056896413863,821.8985478321101
1731143038.2031455,801.7724942014061,806.3690596465453,813.1429391955521,819.0583812074244
1731143038.2070425,822.5240184234964,806.1975673929091,812.9810350892243,823.454736282472
1731143038.2109392,835.5005263136652,807.8194223948176,812.8228838610178,829.7447934709654
1731143038.2135255,830.1562800872296,811.182778074051,812.6708936642328,833.6934129711912
1731143038.2148356,813.047543633556,814.6810177489753,812.5227792138598,835.2277951117532
1731143038.215574,801.4425446899907,816.2674226203775,812.3686206228227,836.8594892270263
1731143038.2187324,807.6489270698826,814.8936785071791,812.1951085053698,839.6116387945152
1731143038.2226293,827.5651242623035,811.125470584227,812.0003169503054,840.6418912950933
1731143038.2237968,843.2632205056143,806.5569726446635,811.8114324792255,834.986357092649
1731143038.2265255,837.5834701477988,802.6855324716556,811.683396635478,820.1322904840653
1731143038.2304225,808.7329781493901,800.2388705561523,811.6545287618937,799.5730325061284
1731143038.231133,772.7991931919221,799.3179199158977,811.6647636720446,782.0223077865305
1731143038.2323775,751.8066017181477,799.8599421141101,811.500204042936,776.1910656605626
1731143038.234319,756.6536648470608,801.7508326509965,810.862379258255,784.6690471838789
1731143038.2382157,778.6463536601954,804.5221815887705,809.5927556774517,801.671467454338
1731143038.2421122,796.6757165057561,807.1854903123848,807.9155814384169,816.8174977948546
1731143038.2460089,794.3902219243147,808.6551439421769,806.4525778711323,822.3290552432479
1731143038.246692,773.3417040727866,808.5198845505589,805.8851792976477,818.0441818086827
1731143038.2499056,751.3348882392045,807.4287420377423,806.4512945909794,810.3467300390018
1731143038.2512298,747.5520015549325,806.6197896629252,807.6776413617257,806.2416593322416
1731143038.2538023,766.8944221814626,806.8992089168986,808.6144367041966,807.7625585948721
1731143038.2576988,796.2553814764723,807.9264930577938,808.4527857764639,811.2334367911893
1731143038.258553,815.3514624598139,808.4565656799471,807.1231272556137,811.5203023484945
1731143038.2615955,812.9855458667391,807.388651458051,805.4915344728587,807.2942628026626
1731143038.262251,795.5617014758524,804.7598058078045,804.975515778957,802.7523912997428
1731143038.2654922,781.1655473407078,801.82763517382,806.6584801816932,804.310422562096
1731143038.269389,784.2535348288778,800.1383882660723,810.3098049372765,814.9162379671724
1731143038.2700818,803.6646639871532,800.3389807664075,814.0207481509623,830.6948050388471
1731143038.2732854,823.9711611361641,801.7048094978582,815.0476348553875,843.0081559255038
1731143038.277182,829.0075369842898,802.7319129890834,811.6427781884506,844.74640183772
1731143038.2778096,815.9684718580598,802.2598584790029,804.6352800985284,836.0069548285526
1731143038.2810788,797.9193545897001,800.2402399073013,797.3487031867022,824.4333144359003
1731143038.2849753,792.7507651209966,797.6810332897334,793.605385094894,819.6418325878591
1731143038.288872,808.5479211774272,795.9864358996268,795.2077838293837,826.020841080393
1731143038.2889338,838.0752065992414,796.2307677115011,800.8597149396192,839.515020929703
1731143038.2927687,866.1086780425463,798.7133169072333,807.3457779103202,850.6749804638702
1731143038.2933092,881.5731206170296,802.8245418859799,811.9214755229177,851.3120349302069
1731143038.2933686,883.5688488626649,807.178263627859,813.9593864379727,839.7268537239555
1731143038.2966652,878.2565969538541,810.0578237225794,814.6818674046837,821.1305902892576
1731143038.300562,872.2120760998505,810.1622681881923,815.4767943925915,803.6069927997374
1731143038.3044586,868.5249767714541,807.3441916838199,816.378373575576,792.8358750556354
1731143038.307786,866.9906327202029,802.8308926481344,816.0038095831942,789.2025821539754
1731143038.308355,866.1599994376659,798.6502116392328,812.9452049372827,789.0080768111937
1731143038.3089275,864.9687863781556,796.540429183345,807.3891112760923,788.5570201288151
1731143038.3122518,863.1876910559205,797.0387787212604,801.503511417092,787.7715822099207
1731143038.3161483,861.0910708426971,799.3491104425464,798.101363275373,790.2796518966007
1731143038.3200452,858.9988104219119,802.0462785056259,798.5647489942379,799.7804988006598
1731143038.323942,857.0506259859702,804.0808333922881,801.76133347336,815.7855921779037
1731143038.3244865,855.2215209494768,805.3390333836868,804.9226278017438,832.6102201276777
1731143038.326638,853.4313098318709,806.3750468862788,805.7559680685479,842.8130261988936
1731143038.3278384,851.6261645779696,807.6192228409247,804.0057064830648,842.4412132686803
1731143038.3280654,849.797189775177,808.8086923791354,801.2633058520457,833.8432663315458
1731143038.3317351,847.9603258568461,809.1591223520925,799.4127810869729,823.776740089562
1731143038.3356318,846.1321862997074,808.0838630782655,799.1536495983279,818.3331100014775
1731143038.3395283,844.3192455023983,805.7602355203969,799.7429474212531,818.7355393921679
1731143038.3400452,842.5195257931899,803.0462320323041,799.9533142064045,821.3347917467163
1731143038.343425,840.7286109289547,800.9234297228433,799.3323905639581,821.6771762082066
1731143038.34549,838.9437657648944,800.0516805096222,798.762443112062,819.0980481190874
1731143038.3473215,837.1646562958546,800.7595875781766,799.8998210906266,817.7804740985484
1731143038.3512185,835.3921277755882,803.2158979256267,803.8440006507969,823.1741642903058
1731143038.3551147,833.6268807875771,807.3217484366763,809.9393442050045,836.6853003536658
1731143038.3556042,831.8689445602258,812.2802748421643,815.6529902601117,853.201426062716
1731143038.3590117,830.1179197935967,816.3718193055663,817.8530414317719,863.8372538984745
1731143038.3628216,828.3735513353736,817.5076843389229,814.7954263365363,862.0364405102384
1731143038.3629084,826.6361398981163,814.4852125667932,807.4506939616307,848.3134126573879
1731143038.3643422,824.906379670351,808.086626122701,799.1327526951368,829.8135579872243
1731143038.3668048,823.1844586671189,801.03623567752,793.606887733719,814.9142934230229
1731143038.3707016,821.4688719325422,796.5963085455306,792.9939159081829,807.1458008759848
1731143038.3711631,819.7562330753669,796.6599663832604,796.892181683499,803.3933628361997
1731143038.3745985,818.0435834169535,800.6706795101993,803.1497221230594,797.8184363619649
1731143038.378495,816.3331007878794,806.1261630733508,809.4999798233292,788.016865816022
1731143038.3823917,814.6355449384931,810.2593949218603,814.7860714500735,777.9399923171468
1731143038.3831942,812.965777633121,811.6729402495031,819.0046449016688,774.909906011785
1731143038.3862882,811.3263754172892,810.8490360225376,822.4012706294479,783.2022972802055
1731143038.386722,809.687367295797,809.3665368483208,824.5752902764406,799.6455536324758
1731143038.3901849,807.986409305232,808.5649980931419,824.4848347113499,815.0541124466239
1731143038.3940816,806.1762497494649,808.6613355440685,821.4206919076104,820.5879453436646
1731143038.3975778,804.3132228723006,808.8691664714981,816.0682152024874,814.1675593173395
1731143038.397978,802.612577273884,808.3054598547653,810.5409217806359,801.9505507889788
1731143038.4018748,801.346286020867,806.9195438420858,807.0904991969594,793.664683234841
1731143038.4020462,800.5231571423282,805.6842240240024,806.4530787712738,795.3629652760351
1731143038.402281,799.5281515521889,805.8531554880137,807.3048356567984,805.1922216487336
1731143038.4057715,797.1931822181051,807.8480064393437,807.4486074721484,815.4282437472262
1731143038.409668,792.7752030852148,810.7101088381379,805.8033583906606,819.1110889959409
1731143038.4135647,787.6428452809005,812.6557643525276,803.4584652258576,815.9392388708972
1731143038.4174614,786.2197968441614,812.3608043785309,802.8104712693197,812.596568884731
1731143038.41784,794.0125819853649,809.9450618169636,805.4738600257148,817.1151784651903
1731143038.4208984,812.2912041406981,806.841010715677,810.7312118935725,831.7510419580838
1731143038.421358,833.513584226386,804.6463365667333,815.8269029042541,850.1890017215517
1731143038.4252546,844.0074592537799,803.8874864869414,817.8745816180779,861.5442257893794
1731143038.4291513,834.6444458984948,803.6802003057663,815.8698262901587,858.2707328257117
1731143038.432334,810.4298504333353,802.548962856872,811.2804066750917,841.9827483131094
1731143038.433048,788.6489464409665,799.7567459684606,806.8575393429662,822.7238037373522
1731143038.4333987,785.6632846488511,796.1058512686815,804.6845775673206,812.1363955513613
1731143038.4369447,803.5148976424119,793.5804658035042,804.9697964125015,815.5386115162356
1731143038.4397504,828.0657320316781,794.070366470183,806.3658345905102,828.7004997597655
1731143038.4408412,840.4742327147545,798.0730879669575,807.320298690294,841.5195899977588
1731143038.444738,832.436112073163,804.2586682043241,807.2216665980518,845.4961297757479
1731143038.4486346,812.4363544144321,810.1668442085381,806.4977102470748,839.0801664588179
1731143038.4489577,797.874920435328,813.5619647315452,805.8916079319316,827.0300969793045
1731143038.452531,799.8935440818453,813.5832889171929,805.7807491707297,815.1656771436366
1731143038.4564278,813.8517217025786,811.0057485300666,806.0681293218852,805.6197096740813
1731143038.4586024,823.4636885029279,807.5267889998089,806.4727950397877,796.5858816797547
1731143038.4603243,814.9661645524607,804.6241942509882,806.8017968603406,785.9566984050331
1731143038.4642212,789.3183790381834,802.7638910300064,807.0197233760111,774.6827996408474
1731143038.4645166,762.215371094256,801.4182775932657,807.1807362274257,766.4175424142223
1731143038.46709,751.8465865952718,799.7453114859454,807.3435784190686,764.0694559943832
1731143038.4681177,764.3949377162323,797.3541489549551,807.5322419529637,767.076086386115
1731143038.4720144,789.1427149031929,794.6313645151231,807.7407955280798,772.1271417132733
1731143038.4759111,807.2491574536496,792.5032231500159,807.9541632942482,776.0833828201095
1731143038.477455,807.0215946277835,791.9011248476476,808.1627721323264,777.8994972193767
1731143038.4798076,793.0144423569875,793.3069370452636,808.3654099525018,778.2989513770195
1731143038.4800756,781.3329234279707,796.5881321590193,808.5652303503135,778.4226435016
1731143038.4837043,785.1160793699962,801.0943087676147,808.7653076166873,778.9134350158919
1731143038.487601,802.5469651130826,805.8668797810076,808.9667757690974,779.8098597006708
1731143038.4914978,817.655838828806,809.8502941136602,809.169241084691,780.8702430678069
1731143038.4953942,813.4040156190857,812.0959711366302,809.3719142284942,781.8845658289528
1731143038.4956346,786.289229424522,812.0024553600343,809.5743444530606,782.7879082977237
1731143038.496307,750.5084105770553,809.5730501040339,809.776523929275,783.6182820826083
1731143038.4992907,728.1586103688531,805.5370685620508,809.9786556123366,784.4341046074097
1731143038.5018466,732.9459390072036,801.1346990781329,810.1809206797053,785.2659504426541
1731143038.5031877,759.9345539298973,797.5626844381742,810.3833907475621,786.1132021365366
1731143038.5070844,789.3865979771335,795.4213438275006,810.5860584773911,786.9620992173343
1731143038.5109808,801.9694345882137,794.6162319474278,810.7889031974014,787.8017097748573
1731143038.5111933,793.483920707574,794.8030323143271,810.9919335953642,788.629030710843
1731143038.5148776,777.2118799192077,795.9181531063177,811.1951919603459,789.4462280400884
1731143038.515159,771.8290155270935,798.215106022923,811.3987285995762,790.2562210491767
1731143038.5187745,784.9178014284904,801.7269917275264,811.6025639303361,791.060311248449
1731143038.5226707,806.0355838344082,805.705007455147,811.8066647032501,791.8581721299312
1731143038.5265677,815.3010379776783,808.6899375279381,812.0109692058218,792.6488667988613
1731143038.5267522,800.3401454791067,809.335998249543,812.21548019165,793.4316833746875
1731143038.5304642,767.4796857881332,807.4111022680162,812.4203804836615,794.206376613904
1731143038.534011,737.9518827995352,804.1509652676815,812.62603754339,794.9729881819968
1731143038.534361,732.0580802801751,801.5722173407577,812.8327464064205,795.7315546146921
1731143038.5366027,753.693172780028,801.1504021971505,813.0402384443966,796.4819033492682
1731143038.5382574,787.2680312701176,802.8289032826449,813.2473586465285,797.2236289504625
1731143038.542154,809.5462514293724,805.1521883411863,813.4526030997706,797.9562969364304
1731143038.5423112,807.3973215341152,806.4583156617695,813.6558759247332,798.6798368777235
1731143038.5460508,787.5824243606329,806.178679435863,813.8605292637822,799.3948663134373
1731143038.5499473,770.6118234926257,805.1721130669287,814.07309639587,800.1024516282034
1731143038.552863,773.4719557980983,804.856725668603,814.2980456345605,800.8029354370418
1731143038.553844,795.4511022688077,805.9772900990403,814.5285751720935,801.4942904855711
1731143038.5577407,819.0096829947087,808.1299431122467,814.7415754580147,802.1717474829093
1731143038.55787,824.9682457420449,810.3695834412482,814.9096013429089,802.8309165379283
1731143038.5616374,809.0258918961874,812.1648638566548,815.0349857509688,803.474497419368
1731143038.565534,785.5944850197981,813.7220234330274,815.1857881565883,804.1175882453157
1731143038.5694306,775.9388249708351,815.451751221898,815.4834848852375,804.7820195311997
1731143038.571359,790.7874394801183,817.2393668830418,815.9954525629552,805.4733924594393
1731143038.571715,821.7208930693337,818.3021951136858,816.5597012786851,806.1512541901623
1731143038.5733273,848.0087606904243,817.7728294882369,816.6989413135634,806.7266531458522
1731143038.573429,853.096134147203,815.459440296838,815.8433289242074,807.1269229178727
1731143038.577224,837.508917070982,812.1203915917894,813.8734855427297,807.4226224583621
1731143038.5811205,817.8997055068605,809.0397526915331,811.5201321717484,807.9143147877328
1731143038.5850172,812.9826554993812,807.2444659212581,810.005774415668,808.9990259536524
1731143038.588914,827.8547824679507,806.9315778380216,810.0602614034831,810.7159944978894
1731143038.5889878,849.86176470648,807.4686769840372,811.3181098679195,812.1996804108569
1731143038.590567,859.6730601001461,807.8984700527138,812.7494621912801,811.6908180640492
1731143038.5928104,848.1683007376062,807.5439042109828,813.5668912058901,807.7640331205375
1731143038.596707,824.5273652783956,806.3041972046506,813.6636913643632,801.3992164879855
1731143038.6006038,808.467030162088,804.5372170403745,813.383768501574,796.7974178287451
1731143038.6045003,813.3444251808661,802.7565343185754,813.0910438232061,798.8068870816588
1731143038.6045468,834.6514495840095,801.4141470001415,812.9440539203008,808.2324234504615
1731143038.606115,853.5802355020047,800.8017671643114,812.9183579941608,819.728844391129
1731143038.608397,852.5021303899191,800.955235363931,812.9275598770162,825.2428854408753
1731143038.609419,829.4921053273115,801.5996619223749,812.9130821773181,820.3855225496937
1731143038.6122935,800.095308280271,802.2950124577031,812.8650603572767,808.0696546877779
1731143038.6161904,784.9476145201068,802.7232603452484,812.8007848087568,796.1997623515058
1731143038.6200871,793.2010743307155,802.8424426168207,812.7384342496299,791.3517836508375
1731143038.6201055,815.1069170413978,802.7972052955632,812.685219579145,793.6579725793259
1731143038.6239836,829.8044373992132,802.7423792140034,812.6391370059679,797.0353213902358
1731143038.6278803,822.0916192955833,802.7470444215014,812.5954777245695,794.5368078586429
1731143038.628271,794.7108784163952,802.8024081176654,812.5513153935374,784.4878440882924
1731143038.631777,766.397777614899,802.8723963820139,812.5063207175833,772.395724987299
1731143038.6356647,757.38094805599,802.9319739409954,812.4614883275865,766.8857262466759
1731143038.6356735,773.7815225791319,802.9765642927849,812.417761706696,772.6597113207121
1731143038.6395702,802.9045139206343,803.0132656396623,812.3754735117817,786.0840698271392
1731143038.6408713,822.8315957190068,803.0497644543641,812.334486398028,797.309579827606
1731143038.6434667,818.8953022567242,803.0891975240539,812.2945474993351,797.7755945687941
1731143038.647123,794.5553687325263,803.1307846882606,812.2555135484674,787.3193685056607
1731143038.6473637,768.4223952793933,803.1725477588599,812.2173790000528,774.8366763830443
1731143038.6512237,759.6109695219681,803.2132276931029,812.1801998484001,771.3412861456737
1731143038.65126,772.7032824539186,803.2526594826376,812.1440180645046,780.7629568815969
1731143038.6551569,794.3098365354846,803.2912500258681,812.10883428148,796.3058760239646
1731143038.6590536,804.3010425971733,803.3293966181208,812.074624726749,805.8819561504905
1731143038.66295,792.8063777488351,803.367242904596,812.0413768730325,802.2807214136323
1731143038.665975,768.9626874246849,803.4047318808688,812.0091151303408,789.3618495360978
1731143038.6667824,753.9260471456371,803.4417533874263,811.977890290271,778.8934225799595
1731143038.6668468,763.639901297846,803.4782410842952,811.9477202494953,780.7750810695367
1731143038.6707437,795.3619487538622,803.5141892000009,811.918509439567,794.9417083618973
1731143038.6746402,828.9448833294275,803.5496258562495,811.8900318745247,811.528352685575
1731143038.6756277,841.9806523561849,803.5845824118643,811.8620811340935,818.801815873949
1731143038.678537,826.8658430030792,803.6190729957954,811.8347878079327,812.1347459492803
1731143038.682341,796.3749003757281,803.6530822409574,811.8088652149489,796.87368271058
1731143038.6824334,773.4568063599494,803.6865642967102,811.7853324143821,783.2750151218587
1731143038.6848276,773.4447260775354,803.7194683405769,811.764424827325,778.1671877877425
1731143038.68633,792.8565234007963,803.751798729652,811.7441987179512,780.3704298358095
1731143038.6902268,813.6059921276005,803.783676920318,811.7204519376764,783.3680586506426
1731143038.6941233,818.8226690307181,803.815320101848,811.689822174121,782.3686754673769
1731143038.6979003,806.8715926722925,803.8468555234693,811.6557745105589,779.2042774301385
1731143038.69802,791.8331515408759,803.8780200614983,811.6326093784877,780.6708041066057
1731143038.7019167,790.4278403104634,803.908028283212,811.6390458900347,791.9233333562153
1731143038.7036796,806.9754538188564,803.9360243505072,811.6769021624095,810.927091157149
1731143038.7058132,829.368165001105,803.9622358782698,811.7061641573703,828.9203046757777
1731143038.70971,839.3360018211981,803.9890839877789,811.6481055040127,836.6307844814752
1731143038.7103837,828.1795122466989,804.0205778436265,811.4497826225996,831.327604699132
1731143038.7134593,804.7500658117159,804.0585979179583,811.1995619810258,819.2813761066894
1731143038.7136066,788.9440405605238,804.0973432500065,811.1995760773277,811.6918587744848
1731143038.7175033,795.8016423918891,804.1215778973592,811.8515382655739,816.8068865825501
1731143038.7213998,823.0490858959636,804.1162617639854,813.3324457594549,833.7603170779132
1731143038.7225316,852.4079035433779,804.0886559432939,815.3330408076886,852.7765354992458
1731143038.7252965,863.9570238992848,804.0872810468182,817.219361824403,862.0126702369836
1731143038.7290182,852.0126220911427,804.1858865280335,818.5175092755484,856.1737891337087
1731143038.7291932,829.4722360060769,804.4089890046116,819.1632548023214,840.2532619293221
1731143038.7330897,817.0046962826395,804.6286932818265,819.2741127731658,825.38008622544
1731143038.7369864,826.0687789664702,804.5415543083745,818.8622458198237,820.1644064443808
1731143038.740883,849.744601923094,803.8556396615536,817.9181468913891,824.5765100645808
1731143038.7413838,868.6059390132858,802.6650035096922,816.7104757770073,831.0183424080818
1731143038.7445772,866.4413975905899,801.6803359826142,815.8297307740512,831.110985772728
1731143038.7447798,843.0408743206101,801.8829238708486,815.8124946699263,822.2973909222995
1731143038.7451398,814.147036151046,803.660282680825,816.6638878311921,809.1126594545863
1731143038.7486763,798.975615538959,806.183780154644,817.7058265061298,798.6908888578844
1731143038.752573,805.2485518182435,807.7578274633003,817.8893338118577,794.6454244914449
1731143038.7564695,823.4773209670797,806.9738245640507,816.3737085335533,794.4457501118175
1731143038.760136,835.0245541587043,803.7394831874493,813.048078264194,792.3423952630527
1731143038.7602358,827.5737766534653,799.422335971981,808.7213676209777,785.2592047127966
1731143038.7603664,805.4797600833713,796.1241723184411,804.8314953426932,776.5253448413231
1731143038.764263,786.3081100711273,795.6523745133295,802.735960891454,773.9797701883915
1731143038.7681596,786.1156544064099,798.7224867730968,802.9376537233748,783.6564990358829
1731143038.7720563,805.5962218729599,804.6169824249583,804.7552316643319,804.1422877413981
1731143038.7756948,828.8110329561606,811.3283334502898,806.7174688991529,826.4164348894561
1731143038.7759528,835.805256159902,816.1799970270173,807.4482249373343,839.6139839332263
1731143038.7790878,818.7886060995402,816.8558507400797,806.4571693920216,838.3449565018007
1731143038.7798495,788.642942615498,812.5473544513166,804.3588791894665,825.9887818855393
1731143038.779896,766.5394293493089,804.6496550324775,802.4460051953279,811.6529971265743
1731143038.7837462,767.4689433982811,796.4071658538197,801.8833463040621,803.4057393861683
1731143038.787643,788.798913495181,791.3880881165788,802.9331066019881,803.0231908486695
1731143038.7912538,812.8274105213343,791.5073063275829,804.6425113857896,805.9633816412559
1731143038.7915394,821.1429337501442,795.8695221678774,805.302768191845,806.0120619656242
1731143038.795436,809.2057161486853,801.3338698780377,803.5811826016227,800.4962801267856
1731143038.79794,789.4405724905223,804.5139045344054,799.6407827128976,791.9046782933382
1731143038.7993329,780.4958425005123,803.855556577776,795.3223592560264,785.0805403970767
1731143038.8032296,791.6165489567194,800.409012369878,793.0389673238093,782.9268935539919
1731143038.8068128,814.9939128951114,796.9283826393126,794.1235773440852,784.5248558331702
1731143038.807126,832.2664033058766,796.0818886393305,797.962929269432,787.0224575804251
1731143038.8110228,829.6838526510132,798.9486864495053,802.6335894659933,789.0697505322742
1731143038.8146522,809.4578089518726,804.546489255485,806.4204669886683,792.2741115757678
1731143038.8149197,788.0849889613647,810.4466278646195,808.8442014684268,799.2241256786891
1731143038.816792,783.0571500618925,814.0609166448463,810.395721292207,810.0325059462252
1731143038.818816,798.7143721966497,813.969435226099,811.4700236419933,820.8884542726191
1731143038.8223715,822.702946874192,810.6242079338317,811.7155483599047,826.3850384534227
1731143038.822713,836.0486139357567,806.0093372072508,810.5002283822565,823.9515720520009
1731143038.8266094,828.8082127936971,802.4229226055792,807.9811864200592,816.6290669348391
1731143038.830506,808.4181914950642,801.1510283852064,805.5428779905654,811.5566552699191
1731143038.8344026,793.5332629045934,801.9001286938645,804.8891638922225,814.9805592881148
1731143038.835644,798.177513040262,803.2866372999865,806.4349478088197,827.4802422585147
1731143038.8379304,819.4463645128527,803.9157430354062,808.5517433632396,843.093589139059
1731143038.8382993,839.364987009011,803.2500960951768,808.6597400163588,853.194700481399
1731143038.842196,839.731398895781,801.7618164122679,805.4671165309954,852.5077149325916
