timestamps,eeg_1,eeg_2,eeg_3,eeg_4
1731108137.5103643,800.1112054807393,802.5403517766791,804.2110890093749,804.2535143033814
1731108137.5142715,798.3684826755261,811.3516485146694,800.699538815024,804.1379626926088
1731108137.5181787,797.4813759267978,818.2428943190845,798.2820025936821,805.3721362572277
1731108137.522086,798.112411682073,821.701920793309,797.7786968984294,808.2577675310417
1731108137.525993,800.4891151567027,821.0566215021572,799.3767626939857,811.9852187807062
1731108137.5299,804.2143715738885,816.8113111858864,802.3734979185665,815.4917454649898
1731108137.5338073,808.2973280232616,810.6445172288358,805.3519500429377,818.2481671138113
1731108137.5377145,811.462350288112,804.8953580738163,806.8628011800181,820.1900559838699
1731108137.5416217,812.6246048320634,801.6510367841469,806.2379613514426,821.0902251927413
1731108137.544768,811.3608232564238,801.8738393769152,803.9709340784665,820.338711727731
1731108137.545529,808.2245991088707,805.0967620098667,801.3701561777077,817.5634184794283
1731108137.549436,804.7390312853668,809.9028516255285,799.7141543045412,813.4430232269358
1731108137.5533433,802.8949154481865,814.840957927629,799.4998914833922,809.7372660247745
1731108137.5572505,804.1745959509725,819.0848679129886,800.2849154202445,808.3421297150037
1731108137.5611577,808.5152870765708,822.3847439498354,801.1480997468582,810.1080657575994
1731108137.5636668,813.9130239775377,824.5229370384257,801.3454524616251,814.2701135335196
1731108137.565065,817.1840955554214,824.9445218625661,800.6951224735124,818.7790141824263
1731108137.568972,815.6921772900935,823.0192800511944,799.544882258369,821.3228186187173
1731108137.5728793,809.0377457940481,818.708473646318,798.4842757055108,820.5876803501392
1731108137.5767865,799.4850670847501,812.9509444257043,798.018703478649,817.0920773175213
1731108137.5806935,790.6661558132322,807.3216269241418,798.3196953638828,812.9277412237074
1731108137.582566,785.4031976349711,803.2008878178218,799.109357630202,810.396569822162
1731108137.5846007,784.2263945204234,801.1275891208505,799.7582051907142,810.5195908995696
1731108137.588508,785.5873907355169,800.8007141563834,799.632661923545,812.6240617390814
1731108137.5924149,787.3471357647163,801.6147290889359,798.5367114502448,815.2324913715048
1731108137.5960858,788.1693573970801,803.2104150573531,796.9073632555935,817.2603747743908
1731108137.596322,787.8247059097613,805.5735998117839,795.527458723903,818.4055348459167
1731108137.6002293,786.6142139946833,808.6168057138916,794.941452870639,818.6497873976582
1731108137.601465,784.8700527116272,811.6432412778919,795.100149730593,817.7475829754469
1731108137.6041365,783.0888600178474,813.2838539051467,795.5863534194112,815.4081622896945
1731108137.6080437,782.2900736452065,812.1902555798521,796.1938614215758,811.9275040301536
1731108137.611667,783.8241707358441,808.0998224951086,797.2608292045429,808.4700454835196
1731108137.6119509,788.48900994205,802.410453470701,799.4143855803201,806.5995216797905
1731108137.615858,795.6864503824497,797.6261799826693,802.9836510332105,807.4210370001394
1731108137.6197653,803.4555625485293,795.8943006291402,807.6277136907656,810.96931811154
1731108137.620364,809.4425014039324,797.6540447455138,812.4389983833198,816.161085499106
1731108137.6236725,812.0635557357459,801.4201936916917,816.3177998885677,821.2452181965394
1731108137.6272478,811.0810496410037,804.8647400131691,818.3027295196506,824.5415523307079
1731108137.6275797,807.4307765748076,806.3563546365409,817.8019314207993,825.1970629557605
1731108137.631487,802.6739294225056,805.8264778540432,814.8467390893451,823.5864050814886
1731108137.635394,798.4470200458761,804.4463576607476,810.3121104920708,821.0557391475115
1731108137.639263,795.9988793133957,803.5356827137489,805.8061438957134,819.1102069772322
1731108137.6393013,795.8063312604177,803.6208376682426,803.0582362992405,818.5874221338853
1731108137.6428287,797.4165802782074,804.3128371949755,803.085030486781,819.3781614140539
1731108137.6432085,799.7280162352527,804.9537673219536,805.6888674827484,820.7848331473598
1731108137.6471157,801.6530161296231,805.3605810296633,809.6237539606581,822.0915010841483
1731108137.651023,802.7291136942368,805.9634231262575,813.2711375573105,822.8359450510033
1731108137.65493,803.2054569062549,807.2349056653869,815.3646203119747,822.657295586287
1731108137.658162,803.5631205173319,809.021118014041,815.3902706284508,821.0439461472341
1731108137.65841,803.9436208449766,810.5207596932564,813.5887991779578,817.4131362041014
1731108137.6588368,804.0348962755854,811.0223706211361,810.7069298069729,811.6324165998678
1731108137.662744,803.5013744360269,810.693630781101,807.6679374827337,804.6048356869428
1731108137.6666512,802.5017836804722,810.569282097734,805.2511501169636,798.2949576829602
1731108137.6705585,801.7580818795487,811.6257241309052,803.8332976772742,794.8675063828089
1731108137.6739912,802.082286765854,813.7570587276819,803.2768981388124,795.3372619726783
1731108137.6744657,803.7645680346131,815.6383985339062,803.0552994506693,798.7085138003603
1731108137.677061,806.298368718666,815.684603936141,802.597567129009,802.3959296598774
1731108137.6783729,808.5793574054584,813.3383419270551,801.6649398835573,803.7711511199667
1731108137.68228,809.3741154653012,809.6469231922241,800.4946437588399,801.7461303256521
1731108137.6861873,807.8033381499799,806.6858565343816,799.5962149742185,797.2494538902278
1731108137.689572,803.717904528596,806.2681131903787,799.3786555354978,792.3575354484038
1731108137.6900942,797.9040967188444,808.8349916637682,799.9351485828851,788.8878518907601
1731108137.6940014,791.9941604170472,813.2068013605193,801.1225435868514,787.5281754179914
1731108137.69535,787.9744721436701,817.2511282399238,802.7384534222108,787.9364119478174
1731108137.69596,787.3994954701061,818.983296598294,804.5271891578815,789.4025074863664
1731108137.6979086,790.6874901428821,817.4676711290659,806.042412665363,791.3734883113411
1731108137.7018158,796.9210836366301,813.1255253742615,806.6772117458671,793.5124871226155
1731108137.7051532,804.3005249691685,807.427574418486,806.0344863461662,795.4946981304204
1731108137.705723,810.9864857887524,802.2169988866616,804.3693773104412,796.9281625141705
1731108137.7096305,815.8395818963932,798.9912908276497,802.6283398265754,797.5575694311442
1731108137.7135377,818.6827765763258,798.4147724058763,801.9296575812341,797.5670589182321
1731108137.714859,820.0547219447636,800.2033458046928,802.8505693497059,797.6532498820816
1731108137.717445,820.7049586951298,803.3615809286921,805.0587826368762,798.6899554393359
1731108137.7207344,821.1390720076066,806.6141044407046,807.5236187216126,801.1464046631947
1731108137.721352,821.4057646336573,808.8319250369719,809.1224158251691,804.7050258800442
1731108137.7252588,821.1613026925116,809.3316564472639,809.2676834113623,808.4658115786098
1731108137.729166,819.9202522510443,808.0375414594275,808.2303277781233,811.6510190593357
1731108137.7303,817.3364196484615,805.5232314622792,806.9843458816067,814.2031717742722
1731108137.7330732,813.3969283273453,802.8779010694093,806.6128451327249,816.6696519416392
1731108137.7337582,808.5283392037969,801.3032322223254,807.5840040036525,819.4245199449147
1731108137.7363155,803.655827606841,801.4919836436296,809.3694351924337,821.9942346017292
1731108137.7369804,800.1270637214349,803.119778079689,810.7273774080569,823.2413951227171
1731108137.7408876,799.2853865924558,804.9083007477916,810.5233524603582,822.3290798952723
1731108137.7447948,801.6643021819021,805.4131181787124,808.5285065032543,819.5498816259172
1731108137.748702,806.2751923900665,804.0765759120219,805.6002328381309,816.1688444183734
1731108137.7518964,810.7540770724959,801.7208063667657,803.0982595914223,813.3987942906795
1731108137.7526093,812.6688590262694,799.9981970954385,801.9809683170005,811.5105931101535
1731108137.7526572,811.2434622569809,800.1682010934837,802.2580306811728,809.9354673395612
1731108137.7565162,808.110950718425,802.1713916111815,803.1509467286263,808.1843340787103
1731108137.7604234,806.2890206636405,804.7397919090514,803.7395537111062,806.5750848878471
1731108137.7643306,808.0303430362602,806.4055987293152,803.5527768718104,805.9838814533002
1731108137.76525,813.2122217582762,806.541664345726,802.7162845742597,806.8707543458536
1731108137.7674775,819.5176632605621,805.6205188121886,801.6822109694031,808.6085719203669
1731108137.7682378,824.1904700389445,804.6030756870508,800.8529803184264,809.8767548477998
1731108137.771556,825.9287678817975,804.0717872329467,800.3826775051489,809.8203828972313
1731108137.772145,825.4990586848231,803.8285318521018,800.2112173144803,808.8649983559417
1731108137.7760522,824.7734089858877,803.2056428040461,800.2043230554464,808.3428750737885
1731108137.7799594,825.1293009668741,801.7643065806297,800.2655395248414,809.2182019133494
1731108137.7830586,826.5289517056109,799.816460883234,800.3841522407906,811.106970705598
1731108137.7838666,827.8850303690273,798.3908756891736,800.6411880990589,812.5452522892531
1731108137.7877736,828.1907069245882,798.6623711422596,801.1755000801478,812.2649489455821
1731108137.790455,827.3425848767798,801.2040671460466,802.095898496724,810.2742074513199
1731108137.7916808,826.0498728988733,805.5320248408746,803.3712622826552,807.7773753822264
1731108137.795588,825.1569990633301,810.2485536151727,804.7791591958346,806.1277454190526
1731108137.7986398,825.1425309507207,813.741797084679,805.9610938528059,805.8683646378823
1731108137.7994952,826.1270008583712,815.0512267544123,806.544482786566,806.6503664597856
1731108137.8002,828.0352588486695,814.364304122846,806.2556140190271,807.8331374772348
1731108137.8034024,830.4675336964532,812.7882658384102,805.0028374816859,808.9759904407642
1731108137.8073096,832.4092283556797,811.5032841069025,802.9602674863503,809.7823856534262
1731108137.8093543,832.3642137839319,810.8957835647883,800.6261595676328,809.8162461279238
1731108137.8112168,829.170726531059,810.3840531916735,798.723909082475,808.5563321502568
1731108137.814221,822.9632096872117,809.1376499326324,797.8503606352912,805.8593190582553
1731108137.815124,815.4034337894193,807.0710288091167,798.0330528667613,802.3186630076058
1731108137.8190312,808.8650113818645,805.1373219009079,798.6012903614516,799.0405596114753
1731108137.8229382,805.1682156954433,804.5421545362154,798.6443967113486,796.9519836222446
1731108137.8268454,804.806040096124,805.5642285821115,797.79741765551,796.2245138048265
1731108137.8282533,807.0787991763028,807.1311602901759,796.6521191395595,796.2665158334964
1731108137.8298018,810.7603338631862,807.624727635752,796.2961378690211,796.2222075107582
1731108137.8307526,814.6536396143432,806.2268271396553,797.2802621437777,795.5607594743483
1731108137.8346598,817.7956001598268,803.6187591317725,798.953666973841,794.3803373524137
1731108137.83515,819.5451108863587,801.4606614016758,799.8741699263169,793.3065898970001
1731108137.838567,819.7736546508562,801.1520232263927,799.0171622920581,793.082520508105
1731108137.8424742,818.9987424226503,802.8984436680518,796.7047401757046,794.0650840467775
1731108137.8453827,818.1447927617658,805.7138822803569,794.3823315111388,795.8972556658875
1731108137.8463814,817.9516140270305,808.1793686436907,793.4276864755543,797.5817664627051
1731108137.8471522,818.4888385987775,809.3071827493253,794.0655868839305,797.9833119233787
1731108137.8502886,819.2179419639282,808.9795736110822,795.3244775699147,796.4935368163747
1731108137.8541956,819.5334305876713,807.8350807558312,795.9761694071941,793.4291350744847
1731108137.8581028,819.2547866265,806.7831440446914,795.5352457033163,789.885513078701
1731108137.8609638,818.6398210660058,806.4418474442745,794.4542956467778,787.1511607005015
1731108137.86201,818.0257391665032,806.7937425229394,793.4809542520616,786.0751137381494
1731108137.8659172,817.5409572835551,807.2618866000756,792.8868448213263,786.7441876630879
1731108137.8660512,817.1181123728027,807.1845197603727,792.278299101106,788.5726866558593
1731108137.8698244,816.657927800338,806.3774967793263,791.0762675361451,790.6844124275236
1731108137.8701,816.1276109022829,805.3388602473611,789.1589881582673,792.3648508388707
1731108137.8737316,815.5525579908359,804.8694047169125,787.0925151156458,793.3449643422989
1731108137.876545,814.9702473620748,805.3736487571746,785.7863931714179,793.778212892069
1731108137.8776388,814.4008618677832,806.4550372055152,785.8842715790973,793.9899411428903
1731108137.881546,813.8448147131398,807.229414157818,787.3576069627102,794.2277503333111
1731108137.8849504,813.2938258315198,807.130841338221,789.5594843368979,794.5713946672785
1731108137.885453,812.7410450980179,806.4678166697557,791.6430774626277,794.9852454821444
1731108137.8893602,812.1844871560374,806.1628304952012,793.0307630293771,795.4084890258462
1731108137.892126,811.6254604232993,806.8767529573495,793.647434470109,795.808186831666
1731108137.8932674,811.0658311134974,808.3438912102904,793.8242114408175,796.18419565411
1731108137.8971746,810.5064977822635,809.565211789475,793.9839783748733,796.5506385967345
1731108137.9010818,809.9473399229561,809.6672014031466,794.3316091269639,796.9189779263254
1731108137.9038494,809.3878322999071,808.5879192815946,794.7512992217762,797.2923864781216
1731108137.904989,808.8275612942953,806.9779777176303,794.970710053246,797.6685032708053
1731108137.90505,808.2663762605684,805.5417654709237,794.8539817014026,798.0440746131992
1731108137.9077072,807.7042897947571,804.5664169169061,794.5665844447554,798.4175069367944
1731108137.9088962,807.1413337402065,804.0500585771081,794.4400666650978,798.7889273890687
1731108137.9128034,806.5774878853492,804.0972830077203,794.6346211500041,799.1591354460649
1731108137.9167106,806.0126846641302,804.983544436765,794.9330579180153,799.5287327577896
1731108137.9206176,805.4468399797449,806.7717972133452,794.937238540767,799.8978729546756
1731108137.9227483,804.879868827607,808.9696570464416,794.5541951907937,800.2664340479075
1731108137.923288,804.3116796540639,810.7101027276576,794.2933174758039,800.6342651723345
1731108137.9245248,803.7421705398204,811.3476709984118,794.9741191352869,801.0013123766958
1731108137.928432,803.1712541112778,810.893187220209,796.9954581393683,801.3676151956632
1731108137.9323392,802.5989098582089,809.8925948431067,799.8297647002443,801.7332494171795
1731108137.9362464,802.0252134957934,808.9433629765068,802.3064902196293,802.0982785181353
1731108137.9388692,801.4502630984565,808.3505127672101,803.5523382250378,802.462732661308
1731108137.9399998,800.8739713491756,808.1511474849037,803.8160936042271,802.8266096722372
1731108137.9401536,800.2958505527666,808.2792914779059,804.450032614539,803.18989437017
1731108137.9416475,799.7150956801073,808.5662912069082,807.009133514625,803.5525984613898
1731108137.9440608,799.1312410505493,808.6148621915622,812.1403499422141,803.9148085303661
1731108137.947968,798.5451968308893,807.8561728479069,819.081361424071,804.2766952064574
1731108137.951875,797.9596619523584,805.9196542150877,826.0995002094045,804.6384205442537
1731108137.9544504,797.3774857323738,803.0193387846592,831.5001696523759,804.9999395054745
1731108137.9557822,796.7976388829694,799.9244734591355,834.4718688918778,805.3608398138978
1731108137.9596894,796.2114799510541,797.4502061615267,835.2650292281332,805.7205023730254
1731108137.9605465,795.6051372027066,795.8970566440408,834.7733719088815,806.0787746833112
1731108137.9635966,794.9726573159035,794.9395824302374,833.9738496814463,806.4368597690113
1731108137.9675038,794.3350937134179,794.0269089723286,833.5955268517648,806.797414826548
1731108137.9700315,793.7456786729614,792.8804500681812,834.0369388595867,807.1626678817248
1731108137.971411,793.2551419202157,791.6523680433565,835.3489665631647,807.5306608576634
1731108137.9749498,792.8348530093177,790.7140573676695,837.1947693103878,807.8925949750871
1731108137.9753182,792.3139610533309,790.3889124392914,838.8853835382829,808.2365999963407
1731108137.9792254,791.4416923131026,790.8669928745783,839.61921190857,808.5609705665482
1731108137.9794457,790.1540016709662,792.2159269410568,838.891772757123,808.8901900403763
1731108137.9831324,788.9395099200083,794.2883092034789,836.8448019534006,809.2741566209984
1731108137.9856124,788.9397851196904,796.5664950553395,834.2760029560624,809.7494874796973
1731108137.9870396,791.3944210181244,798.2305293577912,832.2191970302488,810.2689508270523
1731108137.9909468,796.57134578327,798.5928868948454,831.3332449897921,810.6596473218291
1731108137.994854,803.0830317315855,797.6115049377381,831.5384948587619,810.7098433624035
1731108137.9983444,808.4720081690743,795.9814420531246,832.1836411013335,810.4318853510869
1731108137.9987612,810.8208810290533,794.6298650938045,832.5999449052495,810.3617952970409
1731108138.0011935,810.0532658057521,794.0099994376012,832.5839017268927,811.5370492309971
1731108138.0026684,807.7895595638832,793.8144617144849,832.4407094804427,814.845192293187
1731108138.0065756,805.9113720690381,793.3602331497465,832.6151520007896,820.0145649028552
1731108138.0099,805.0897756057582,792.2906636594804,833.2500575624093,825.2238969096952
1731108138.0104828,804.4633587595519,790.9696427041972,833.9959783497691,828.0965905231658
1731108138.01439,802.5914921021124,790.2409204690872,834.1570517744241,827.485157228385
1731108138.016775,798.7898962298435,790.7911323190917,833.0612059180555,824.4002100089787
1731108138.0172436,793.8000203683644,792.6710764367302,830.4756525647276,821.1112059403124
1731108138.018297,789.3760990853833,795.3404862875145,826.8509289639125,819.2111081408294
1731108138.0222042,787.1456345813773,798.1159077722546,823.1709490645488,818.3926514547404
1731108138.0261114,787.5077004790879,800.5730015891945,820.386864594183,816.9274418540415
1731108138.0300186,789.2767806582846,802.566649192013,818.8048451461265,813.2679255864275
1731108138.0323558,790.3505413980774,803.950431841484,817.9722720674899,807.3320959683062
1731108138.0339258,789.0493377186194,804.3808412308179,817.2185366965585,800.5190466803169
1731108138.0361426,785.2722429707123,803.4799814407671,816.3572813416838,794.6903386451448
1731108138.037833,780.6342386253756,801.2286141979774,815.8616645918726,791.1081637647483
1731108138.0417402,777.4041188131785,798.194718571957,816.3413851005962,790.09581742125
1731108138.04485,776.9541837679051,795.3431990334427,817.8354416723602,791.3727068866101
1731108138.0456474,778.8707529027025,793.5548123244583,819.5879494903653,794.4548585206593
1731108138.047937,781.427352097188,793.2149229297489,820.5102262465834,798.6843215429045
1731108138.0495543,783.052861142419,794.13189713921,819.9531983435336,803.070655626863
1731108138.0534616,783.5875090026783,795.7729860198474,818.1976910338175,806.4542019964732
1731108138.0550416,784.2731273081026,797.6137113034396,816.2913017787495,808.1202876921348
1731108138.0573688,786.5103499480091,799.374670058614,815.3113126160636,808.325024383279
1731108138.061276,790.499077810913,801.0227841051354,815.5450963551358,808.0877958817545
1731108138.0635178,794.9687978540064,802.5825954163555,816.1948961410188,808.3280853978611
1731108138.0651832,798.2150489755985,803.9507442737425,815.8864208079038,809.1800930790745
1731108138.0690904,799.5069870337869,804.9023717138755,813.6624368037914,810.1244560548195
1731108138.0729976,799.6549540495377,805.2861388741078,809.7486204517378,810.6399725440044
1731108138.0739405,800.3083542500323,805.200159875768,805.5448605888553,810.6238665390853
1731108138.0769048,802.6229523570372,804.9526507404904,802.8639964419343,810.306169742916
1731108138.0790987,806.3620777417074,804.8383007909702,802.9147321550282,809.9559136298171
1731108138.0798,810.0289140247883,804.9509360724622,805.6070703087571,809.7037017827788
1731108138.080812,811.804429542231,805.1929046641769,809.5445147044393,809.5432380167277
1731108138.0847187,810.5963633996612,805.4222529067346,812.7458644350324,809.4146931567146
1731108138.088626,806.6308923994414,805.5701895351402,813.76096349297,809.2730672118786
1731108138.092533,801.4327577573773,805.6509791574107,812.5144998090044,809.1080080112764
1731108138.0928397,797.3084125503952,805.7099758955724,810.2477431002151,808.9305831019724
1731108138.0946798,796.4660251574354,805.7789699146382,808.5218428749489,808.7541782903851
1731108138.0964406,799.9447862058643,805.864529838763,808.0238584706509,808.5848281920032
1731108138.1003478,806.7923612040837,805.9584460372969,808.1385478538668,808.4216495910625
1731108138.104255,814.1472312610357,806.0513543026499,807.5999433640711,808.2613486998472
1731108138.1081622,818.5268386709732,806.1392810403765,805.5858018556057,808.1016639244829
1731108138.110261,817.702153862993,806.2230780787014,802.2936679782191,807.9422001688713
1731108138.1117387,811.881914720372,806.3051614747774,798.6270694232018,807.7836207328222
1731108138.1120694,803.3416851739229,806.387131490817,795.4596715006779,807.6266382147246
1731108138.11475,794.8656492495586,806.4692591577581,793.187819888629,807.4715495436187
1731108138.1159763,788.2704595399872,806.5510961748364,791.8157487394562,807.3182954186799
1731108138.1198835,784.0213790857662,806.6321866187977,791.2583387285639,807.1667080106631
1731108138.1237907,781.870305098389,806.7123777193324,791.4543846159224,807.0166848084532
1731108138.125842,781.6234015251098,806.7917641056874,792.216608996989,806.8682220926634
1731108138.127698,783.2942046212637,806.8705093201557,793.0635426236844,806.7213671558656
1731108138.1306376,786.7182903630901,806.9487260697168,793.2817629670287,806.5761654544757
1731108138.1316051,791.2776603022609,807.0264565211755,792.227560539522,806.4326386111792
1731108138.1355124,796.1491879824492,807.1037079048896,789.6596399562208,806.2907894317248
1731108138.1394196,800.8134340363287,807.1804896656374,785.8762796860852,806.1506153972252
1731108138.1414232,805.2398417858935,807.2568280834744,781.5878776062727,806.012117345071
1731108138.1433268,809.5184945115236,807.3327620300273,777.63077434362,805.8753006161656
1731108138.1472335,813.3048180164143,807.408333111011,774.6814438009526,805.7401722258498
1731108138.1495366,815.674394025078,807.4835793358538,773.0642582310916,805.6067381511031
1731108138.1497,815.6512401775302,807.5585341837686,772.6755178332992,805.4750025217628
1731108138.1511407,813.0490424084063,807.6332289134341,773.0394663866738,805.3449683006179
1731108138.155048,808.871162918143,807.7076956075546,773.5110202375179,805.2166381196606
1731108138.157004,804.7827152547455,807.781969278861,773.5716702471688,805.0900141685433
1731108138.158955,801.9983055423693,807.8560876193308,773.0741815788444,804.9650969622254
1731108138.1628623,800.5753597021338,807.9300871652191,772.2937522538051,804.841884078087
1731108138.1667695,799.8230408633275,808.0039966659818,771.7623836291677,804.720370896302
1731108138.1684358,799.4731223492025,808.0778328767449,771.9943404573143,804.6005547813046
1731108138.1706767,800.4362699048161,808.1516075227869,773.2519300760804,804.4824409751822
1731108138.1725852,804.2654061527547,808.2253499442347,775.4517618939416,804.3660437974936
1731108138.1745842,811.6597442911246,808.2991333791861,778.2245919727171,804.2513751882672
1731108138.1784914,821.3291579917527,808.3730716237985,781.0605227298418,804.1384205145779
1731108138.1823983,830.3304431126343,808.447251670384,783.4436601136085,804.0271199589442
1731108138.18465,835.747484858143,808.5216152809218,784.9412762919598,803.9173899634092
1731108138.1863055,836.4552184194212,808.595893843317,785.3041745990731,803.809206686041
1731108138.1873348,833.6676926891334,808.6697618313592,784.6260028748499,803.7027124034215
1731108138.1881664,829.9525206049925,808.7432757310155,783.4680242180305,803.5982206201646
1731108138.1902127,827.5046873806132,808.8173390185752,782.7488610504947,803.4959780970094
1731108138.19412,826.9073279205168,808.8935517648426,783.3182419348956,803.3957072990266
1731108138.1980271,827.1763559146773,808.9728470650618,785.4270917007657,803.2963031709454
1731108138.2019343,826.9278688132783,809.0532868778864,788.4767767143427,803.1963298908404
1731108138.2037475,825.661277814514,809.1291054649691,791.2702259095643,803.0956570846914
1731108138.2058415,824.0844800395768,809.1940432153949,792.6365153216937,802.9973697457656
1731108138.2062335,823.2777136889526,809.2498074405767,792.0731541251025,802.9075423901774
1731108138.2097487,823.5737445552217,809.3141360480105,790.0710888946644,802.8303845591022
1731108138.2136557,824.2607419796656,809.4161358824363,787.9421273885098,802.7597113618766
1731108138.217563,824.3363781070691,809.5685478227676,787.1680993142801,802.6743765566237
1731108138.2193284,823.4800159253574,809.7258988069041,788.5543990853519,802.5499118794006
1731108138.2196,822.2690945897207,809.7683449251059,791.7014993697795,802.3920224500426
1731108138.22147,821.5175631996168,809.5616711948131,795.2326640177562,802.2755359327699
1731108138.2251327,821.4900501676908,809.0974576127469,797.7193568468692,802.3495621805787
1731108138.225377,821.7624689136172,808.6287059576548,798.6639232717987,802.7877406479439
1731108138.2292843,821.7639873211023,808.6566948775896,798.7830779484356,803.7288803949151
1731108138.2331915,821.3888067395973,809.6633582269963,799.3731202040385,805.2500010530457
1731108138.2349095,821.1132888838791,811.6628478143471,801.2859113707992,807.2935039639334
1731108138.2370987,821.5965749164972,813.9038204340573,804.3285989751324,809.4934112262772
1731108138.241006,823.1564507648881,815.1144329854824,807.4895064085998,811.1142845764887
1731108138.244032,825.4866392929264,814.303369578032,809.7115939402275,811.3778542550871
1731108138.244913,827.7268000355049,811.556522623282,810.5810983613696,810.0416817749502
1731108138.2488203,828.8150668379571,808.1190499364737,810.4695617979756,807.7068062069344
1731108138.250491,827.9813784726301,805.6022574456273,810.1144602269874,805.5018805073554
1731108138.2527275,825.1788308462903,804.9251230666825,810.0047583118719,804.3512143001138
1731108138.25455,821.2230077905477,805.8332437513918,810.0462516822887,804.393851566778
1731108138.2566347,817.5181283106687,807.31414144816,809.7568481775021,804.9680242458336
1731108138.260542,815.4732798806039,808.4716936505857,808.8055779327738,805.1235381357873
1731108138.2629309,815.8929543106807,809.1207681571586,807.3966926354847,804.2865890847165
1731108138.2644491,818.6335786800431,809.7060759053095,806.1296880162217,802.6676196707372
1731108138.2660718,822.6655921478495,810.7469511903918,805.464279837272,801.1771368408787
1731108138.2683563,826.4867854869092,812.3330047631277,805.3091176405982,800.8600730089136
1731108138.2722635,828.7023441030829,814.0402681901123,805.1374928425253,802.1425742076015
1731108138.2761707,828.5437463885306,815.2301894699069,804.5330834064936,804.4177061922544
1731108138.2800777,826.1229274022838,815.424780027505,803.6780708015904,806.4085289468178
1731108138.2816527,822.3137131487142,814.5069160014775,803.3529462866824,807.1771922549542
1731108138.2818298,818.3187711195053,812.7232583972844,804.4200052134041,806.9686922285352
1731108138.283985,815.1414324607072,810.5909683602318,807.159297624566,807.0251774535984
1731108138.287892,813.2246170429967,808.7463897152136,810.9408155597896,808.3655068345205
1731108138.2895,812.4111005130535,807.6974615862671,814.4928101080081,810.5946861918353
1731108138.2917993,812.1944100814428,807.5204020854743,816.6134586805093,811.9684584759929
1731108138.2957065,812.0729274379569,807.7020486576171,816.8513403471667,810.852520477072
1731108138.2972338,811.783682460697,807.3440129410889,815.6901921311271,807.3429073240692
1731108138.2996137,811.3141290768498,805.7153751080886,814.1239264313958,803.5333652749941
1731108138.300729,810.7692954313632,802.8302620611598,812.9460472651729,802.0870217429438
1731108138.303521,810.2413134090641,799.6120503596087,812.2766181940677,804.2943294425504
1731108138.307428,809.7599091165865,797.4316254114766,811.6548862736066,809.2208950661399
1731108138.311335,809.3096313568664,797.2537628830277,810.5771290033318,814.5254057176164
1731108138.312815,808.8653271443998,798.9679131903102,809.0104916365264,818.1054633551324
1731108138.3152423,808.4134001089016,801.4138173319907,807.4603737846576,819.2142207289947
1731108138.3191495,807.9537096299782,803.1286396424608,806.5735446154151,818.3907519627529
1731108138.319628,807.4919734966944,803.295246557582,806.6534402715232,816.6339275736522
1731108138.3230567,807.0328394919518,802.2093346410637,807.494998758187,814.7107808999891
1731108138.32445,806.5775748144508,800.950090453842,808.6218275217335,813.074583287531
1731108138.326964,806.1251845188503,800.5389091078388,809.6631030893125,812.1464959809545
1731108138.3283958,805.6743051879757,801.226902938905,810.5463025671843,812.4072134704516
1731108138.330871,805.2242486975357,802.4046445343744,811.4043621623354,814.0665536732458
1731108138.3347783,804.7750285229843,803.1238117088075,812.353834947618,816.6333383310283
1731108138.338527,804.3269322222229,802.7731154693055,813.3654760329748,818.9083524419585
1731108138.3386855,803.880165880363,801.4025331790215,814.3079092754692,819.5560933763614
1731108138.3425925,803.4347516629244,799.5412007561588,815.070998929005,817.8500670388263
1731108138.343977,802.9905984934156,797.7742015667168,815.6332695219089,814.0140202305165
1731108138.3464997,802.5476036042626,796.4669196743573,816.0324459743517,808.9639553857259
1731108138.350407,802.1057043815072,795.7879751461592,816.3037260538227,803.7678204190739
1731108138.354314,801.6648759501367,795.862948951912,816.4597593486708,799.2660519382258
1731108138.357426,801.2251049567743,796.8093112287168,816.510789041576,796.0003014368109
1731108138.3582213,800.7863669945959,798.5898753236463,816.4588189151128,794.277538077806
1731108138.3594,800.3486196832931,800.8426133174743,816.2260243633831,794.1678188540923
1731108138.359558,799.9118126591317,802.8898822220953,815.5828581754965,795.4293262634832
1731108138.3621285,799.4759096494266,803.9973185813636,814.2144883878852,797.5094219538774
1731108138.3660357,799.040909080924,803.764902452025,811.9853384142133,799.7354522523367
1731108138.369943,798.6068388605726,802.4088530646537,809.2484887460164,801.6342543959591
1731108138.37385,798.1737036942151,800.7146092031036,806.8995117414461,803.157933126204
1731108138.3751392,797.7413994262963,799.6267942436239,805.9983107177412,804.5987925020821
1731108138.3763251,797.3096737471794,799.6933736635636,807.1379297653334,806.2077267142533
1731108138.3777573,796.8782504173248,800.7164747849546,810.0159053059466,807.8383770605568
1731108138.3816645,796.4471527999375,801.8592901361951,813.5636109581995,808.9949944744028
1731108138.3855717,796.0170210180273,802.165275686587,816.5506719217041,809.2899692722361
1731108138.3894787,795.5889536940666,801.1613391254753,818.1947172117638,808.8329799491593
1731108138.39072,795.1634739868726,799.1567616300593,818.3464363043306,808.0629040021934
1731108138.393386,794.7389614430512,797.0711928423397,817.2418890602713,807.1362559612753
1731108138.39435,794.3111206942881,795.9495267592441,815.1795842109212,805.5796486491444
1731108138.395224,793.8756349668,796.4836560915866,812.4337245543742,802.7555623006718
1731108138.397293,793.4343725276393,798.7680301836934,809.3699046949145,798.8290839131525
1731108138.4012003,793.0008392134241,802.3158353770119,806.5006198480315,795.248255465934
1731108138.4051075,792.5959576912222,806.2475466058926,804.334235673638,794.0541557061929
1731108138.4063013,792.2274987593202,809.5713734387597,803.1506469939377,796.4154674448997
1731108138.4090145,791.8614453912434,811.5096795943624,802.9397089665231,801.5888585615303
1731108138.4129217,791.4164196808106,811.7991673205648,803.5582361979316,807.2245825667866
1731108138.4141233,790.820494708891,810.8142161071889,804.9174050041375,810.8219658218194
1731108138.4168289,790.1324881994312,809.3601856660664,806.9821076887961,811.2215993237703
1731108138.420736,789.6428831184185,808.1985137746716,809.5798793248807,809.0633855062376
1731108138.4218824,789.7988895783034,807.6500828953737,812.2462917571027,806.0049040361085
1731108138.4246433,790.8854374760583,807.5780798129503,814.3277936577916,803.4183062306428
1731108138.4285505,792.687890154068,807.6691251981097,815.3135877691353,801.5693385114597
1731108138.4292998,794.5359463923265,807.7006944032989,815.120493618701,799.7855858743455
1731108138.4324577,795.7771969574414,807.618901595321,814.0658460819227,797.2989506382468
1731108138.433022,796.1918017003304,807.4729366226987,812.5405744246523,793.9841400097201
1731108138.436365,795.9175492376555,807.3245515581643,810.6787851052276,790.4473855613295
1731108138.4374635,795.0568810844085,807.201980216281,808.3350863535751,787.5458820156423
1731108138.440272,793.4758012627653,807.1012939902581,805.400818446217,785.8327610270766
1731108138.4441793,791.0357479000189,807.007152008768,802.1704478843764,785.3336291200131
1731108138.4480865,788.0276326530707,806.9088740353142,799.4072358520012,785.6971401871865
1731108138.4519212,785.3761188683144,806.8044444902004,798.0067708869768,786.5063978116109
1731108138.4519937,784.3568603658991,806.6968220572379,798.482189325166,787.5258317005838
1731108138.4530444,785.9375148297902,806.5892462653102,800.6200426309974,788.7756415099425
1731108138.455901,790.1613069883495,806.4830450061905,803.5247951390668,790.4387824626449
1731108138.459808,796.0246182666313,806.3778867877188,806.0286233073167,792.6702681329705
1731108138.4637153,801.9806970893619,806.272926150921,807.2436792795438,795.402467295042
1731108138.4642498,806.734585088734,806.1676173036708,806.9561622707716,798.2406222832853
1731108138.4676225,809.7908670812157,806.0618767319784,805.6547582995439,800.5335933698117
1731108138.4686255,811.4787679162772,805.9558642786031,804.2247602120672,801.6673304119541
1731108138.4708202,812.6134280503785,805.8497368855823,803.5477359516755,801.5159993761049
1731108138.4715295,814.0933560107223,805.7435444450201,804.231001776072,800.804160416904
1731108138.4754364,816.5392179668576,805.6372520969365,806.4870373487543,801.0203173776348
1731108138.4793437,819.9475653864282,805.5308035167496,810.0482919862591,803.6818206673934
1731108138.4832509,823.4963201976235,805.4241626772284,814.1022615125629,809.2250720058443
1731108138.484207,825.7986312534558,805.3173196858503,817.4138956105719,816.2742904983684
1731108138.487158,825.6607026825272,805.2102755230969,818.7758390700056,822.0226008440984
1731108138.4897192,822.8879103162,805.1030248315415,817.6335810356927,823.7417555632007
1731108138.4910653,818.4892892708041,804.9955487768914,814.4618232510048,820.4889457719136
1731108138.4949725,814.0770599599622,804.887822616427,810.553989452298,813.7504800225303
1731108138.4988797,810.9521031145064,804.7798355842874,807.3178037087221,806.4842052514329
1731108138.4992,809.5978286326646,804.671609967516,805.5630523503836,801.2725542092478
1731108138.4997878,809.8414245694294,804.5631948083532,805.252189353699,798.9837629266713
1731108138.5027869,811.2925612126464,804.4546133855712,805.7861230564372,798.8398667852404
1731108138.5066938,813.5145141282022,804.3457806331395,806.5019266975321,799.5864057917112
1731108138.508618,815.8273731856359,804.2364700038727,807.0035522837208,800.6398008924455
1731108138.510601,817.1492131020179,804.1264425268114,807.1992903593083,802.2926735826424
1731108138.5145082,816.2961873067584,804.0157650779424,807.175196232929,804.9738849722528
1731108138.5153687,812.6904947839521,803.9051062096784,807.0656702063129,808.3540135659481
1731108138.5184157,806.9506796935913,803.7955499668226,806.9515386600127,811.1475763566181
1731108138.522323,800.8114047354717,803.6875591265215,806.7450865194481,811.8173780053128
1731108138.52623,796.2804425923962,803.5794667225009,806.1122700824881,809.609417764279
1731108138.5275173,794.5369563477054,803.4670629099516,804.589173366544,805.0949196522423
1731108138.5301373,795.3343129540866,803.3463306322515,801.9553286184197,799.8518938680546
1731108138.5309498,797.3463787523407,803.219530030066,798.6391919368614,795.6231500493724
1731108138.5340445,799.1979890633855,803.1002283053982,795.7486209832217,793.5946579027025
1731108138.53415,800.3949950239119,803.0085622846054,794.5258342994885,794.1549172078578
1731108138.5379512,801.4563871997134,802.9506576497298,795.5293904158924,797.0145215967664
1731108138.5418584,803.1975339394901,802.891087278193,798.1856806872371,801.3804754086284
1731108138.5457656,805.805193380479,802.7491136008215,801.1356622107977,806.0800446208436
1731108138.5464163,808.5167254460368,802.4555482321259,803.1393429838905,809.7848857280314
1731108138.546531,810.207111370667,802.0674310516166,803.7953267152978,811.4621810398007
1731108138.5496728,810.3947338912586,801.8488211432515,803.5311753198711,810.8851132553898
1731108138.55358,809.7685955287661,802.166471943905,803.0372700014008,808.7976832345597
1731108138.5574872,809.7065184565599,803.1697283348915,802.7478744599428,806.4778834802496
1731108138.5613945,811.1274474277893,804.5092495375513,802.7236548695247,804.9542821810662
1731108138.562112,813.6456618925482,805.4452244433126,802.8259291578805,804.4966808818573
1731108138.5653017,815.7879223149574,805.3536351036746,802.9166954792653,804.734367508915
1731108138.5653152,816.138497094594,804.2079984477489,802.9443703350122,805.1422831642153
1731108138.5691,814.4511036247699,802.613337616653,802.9267043565392,805.4104550263105
1731108138.5692089,811.7647528685952,801.3778843134919,802.9001365099302,805.4998829915027
1731108138.5731158,809.4811553995886,800.9708426458478,802.8863545831631,805.5074843807051
1731108138.577023,808.339962496528,801.2343107756782,802.8871411241988,805.5264456769659
1731108138.577693,808.1747704104548,801.4892565754469,802.8945961740417,805.5896111098127
1731108138.5809302,808.394645383182,800.9495751259607,802.9015813689815,805.6832050785135
1731108138.5842142,808.534706616294,799.2428777196436,802.9057332284551,805.7819742166589
1731108138.5848374,808.4550014253005,796.7794656345486,802.9082046446277,805.8715010988357
1731108138.5887446,808.2362832902387,794.7045997397116,802.9109267950487,805.9510366351876
1731108138.5926518,808.0016410869333,794.32933368281,802.9149460037892,806.0261810397408
1731108138.593274,807.8147862879358,796.2885194339815,802.9202618999498,806.1017719872133
1731108138.596559,807.6738928853907,799.9735220337359,802.9264119985654,806.1793045817107
1731108138.6004665,807.5500483150291,803.7072822771959,802.9330116894382,806.2579108339689
1731108138.6031134,807.4207534770247,805.6504337556878,802.9399373622855,806.3362568568016
1731108138.60405,807.2803301993348,804.8970001645214,802.9472415474794,806.4136491903042
1731108138.6043732,807.1338894186517,802.0364222292601,802.9550062660902,806.4901104784401
1731108138.6082804,806.987998772003,798.7721238780504,802.9632625652476,806.5659655950823
1731108138.6088552,806.845761587886,796.8207353157691,802.9719900068238,806.6414760004599
1731108138.6121876,806.7068664782865,796.8548992340363,802.9811505636827,806.7167216617938
1731108138.6160948,806.5697423511328,798.2530406793733,802.9907127577654,806.7916599741917
1731108138.620002,806.4332718047901,799.7880067848979,803.0006508701179,806.8662217549729
1731108138.6220124,806.2972439604642,800.6131969057564,803.0109311902909,806.9403664947084
1731108138.6239092,806.1619822788707,800.7110368640127,803.0215093133312,807.0140968375222
1731108138.624436,806.0278501817833,800.5556806429666,803.0323552887462,807.0874598892431
1731108138.6278164,805.8950133647293,800.501856613334,803.0434964669158,807.1605409215551
1731108138.6317236,805.7634618360719,800.5601743408764,803.0550315198233,807.2334244460822
1731108138.6356306,805.6331307333429,800.6665738665829,803.067055344746,807.306105832224
1731108138.639,805.5039877520192,800.9791767625959,803.0794877778768,807.378402433654
1731108138.6395378,805.3760487965831,801.7813749838629,803.0919298318837,807.44999450611
1731108138.6400173,805.2493485692045,803.1202354434475,803.1037939747667,807.5207159746653
1731108138.640911,805.1239083639423,804.6749790484763,803.114882418367,807.5910089700359
1731108138.643445,804.9997297015216,806.0898244828143,803.1261664855258,807.6620996102887
1731108138.6473522,804.8768201844264,807.4242811594692,803.139900428631,807.7352682846321
1731108138.6512594,804.75523302792,809.1621171331707,803.1580212414425,807.8100724780058
1731108138.6551666,804.6350778170689,811.6613300337381,803.1788868651063,807.8827155092423
1731108138.6555984,804.5164563376926,814.5630264702539,803.194889726498,807.9471264404089
1731108138.6590738,804.3993248607527,816.8020505112175,803.1955739776909,808.0007787967027
1731108138.6598103,804.2833882363913,817.3079816660437,803.1790195375295,808.0530778942887
1731108138.662981,804.1682209040996,815.8127720836133,803.1658910440841,808.1275376673999
1731108138.6668882,804.0537378910884,813.0703611854767,803.1992050063333,808.2463628554232
1731108138.6707952,803.9407941823467,810.3292832187508,803.3110270829852,808.3965672762114
1731108138.6711795,803.8312113410923,808.5330092665596,803.4600854905106,808.5025670066594
1731108138.67395,803.7264333257423,807.8761120728745,803.4906953194447,808.4542270761044
1731108138.6747024,803.6249475023495,807.9575742172404,803.1956976082046,808.224838151919
1731108138.6786096,803.5205820845277,808.2706043286527,802.513663765006,808.0320055712767
1731108138.6787095,803.4053177992151,808.5853880714994,801.7317250605487,808.3804552478363
1731108138.6825168,803.2785154945327,808.9808322518677,801.45366503889,809.8169960444718
1731108138.686424,803.1576591656125,809.60236652146,802.2431559050265,812.4574386703922
1731108138.6867604,803.0770158981429,810.3959146710617,804.1769429013164,815.6533642187024
1731108138.6903312,803.0601578013172,811.0280608182742,806.6762289140539,818.1439401289864
1731108138.6942384,803.0716966084176,811.0437237421202,808.775066076049,818.6425828518717
1731108138.6976085,802.9910618538381,810.1513706108458,809.6584013340737,816.508905602134
1731108138.6981456,802.6764300598572,808.4444864302309,809.1353720290599,812.1901495768954
1731108138.7020526,802.1477591996497,806.4130190250212,807.7765736545799,807.2249925923877
1731108138.7023416,801.7879231628922,804.7428652146045,806.6308369694093,803.6539248476225
1731108138.7059598,802.3153289745082,804.0323194266558,806.6293786394262,802.9167703089604
1731108138.7089,804.3257216777763,804.5712291482616,807.9548002199653,804.8181025302879
1731108138.709867,807.5941647646055,806.2519240113863,809.765072862028,807.4281752841506
1731108138.7137742,810.7996180949951,808.6094324948887,810.5703641792556,808.2904419140631
1731108138.7165074,812.2151257897718,810.9646021166658,809.1634976681117,806.2067095399766
1731108138.7176814,811.011868150579,812.6317924358551,805.5249976314086,802.1844954490249
1731108138.7179227,808.0318703961126,813.1332531058885,801.0176931465849,798.6948758886406
1731108138.7215886,805.2020320105502,812.3585726349021,797.657675352318,797.8227398705977
1731108138.7254958,804.0175102238741,810.6182796295194,796.9459785063608,799.8494966780531
1731108138.729403,804.4486443894336,808.5412439737194,799.0669456016057,803.3635442129661
1731108138.73331,805.241134041234,806.7999025446362,802.9401239613029,806.6077634382401
1731108138.7335036,805.256255509722,805.7830725529764,806.9573501047429,808.7806911233819
1731108138.7354066,804.5591494802261,805.4522525508418,809.8063744877425,810.2514039047542
1731108138.7372172,804.2820241606321,805.4903872230086,810.8826709442823,811.7447016799783
1731108138.7411244,805.4616863074828,805.5789740009778,810.2329361320667,813.4195133656781
1731108138.74385,807.940345943457,805.5651653147377,808.3058413659583,814.688668070607
1731108138.7450316,810.2947049467974,805.4521797229266,805.7564054933832,814.8274530504059
1731108138.7489388,810.8452481777119,805.3048469024351,803.3178013710719,813.6981533558418
1731108138.7490847,808.9218991687932,805.1728464619653,801.6370793985999,811.9027100571788
1731108138.752846,805.4100153088576,805.067939186824,801.0686781897871,810.291831102628
1731108138.7543056,802.2095878605592,804.9781199883575,801.552855586032,809.3576521718805
1731108138.7567532,801.0552946729763,804.8886309839643,802.6894534634027,809.0414739675919
1731108138.7606604,802.5362561724279,804.7927394690468,803.9720364762669,808.9893266088934
1731108138.7645676,805.9169128919724,804.6913645853423,805.0301558142256,808.8982035125593
1731108138.7646658,809.7678206784545,804.5881384352788,805.7407613797919,808.6653744536278
1731108138.7684746,812.9030065637504,804.4855889063425,806.1840337543676,808.3360707971167
1731108138.7723818,814.9864568708022,804.3841891099917,806.5245666789932,807.990102997497
1731108138.7732046,816.4621292404182,804.283232738087,806.907936047141,807.6720253518125
1731108138.776289,817.9696271405043,804.18194732861,807.3920326609209,807.3833125908668
1731108138.7788,819.7613362595446,804.0800142854803,807.8854168195758,807.1059680808892
1731108138.7801962,821.5704030444083,803.9775089735409,808.1042578162786,806.8248548866433
1731108138.780247,822.9721855383664,803.8746287025248,807.6243183868858,806.535513017653
1731108138.7841034,823.886656614535,803.7714990036928,806.0880262977475,806.2408500184281
1731108138.7880106,824.7800156711223,803.6681343105861,803.5078586821471,805.9451156416313
1731108138.7919178,826.359843436435,803.5644901993412,800.4732635102401,805.6504735691987
1731108138.7921035,828.9316573043475,803.4605242005994,798.0392635546735,805.3568313895146
1731108138.795825,831.8684149749805,803.3562243323831,797.2281842059957,805.0631772882031
1731108138.795828,833.6586511330893,803.2516054229651,798.3756786053459,804.7687292011243
1731108138.799732,832.6751942937495,803.1466882113551,800.7911399733395,804.4732853542758
1731108138.8036392,828.2931955877349,803.041474662233,803.1007327672934,804.1770124321034
1731108138.8075464,821.6396345625446,802.9359326053986,804.1483289033769,803.8801241872611
1731108138.8110027,815.3786867013301,802.8300075772627,803.8135342606139,803.5827136028506
1731108138.811409,812.4843525506612,802.7236748302493,803.0747159444236,803.284756075644
1731108138.8114536,814.5720970616504,802.6170116708679,803.2091452384345,802.986184812732
1731108138.81375,820.7071135991365,802.5102164769893,804.7259490881356,802.6869511199793
1731108138.8153608,827.5046703018162,802.403478610374,806.8699453596389,802.3870407295061
1731108138.819268,830.7371613818732,802.296690678742,808.1134651110979,802.0864591821479
1731108138.8231752,827.7120117736139,802.1892113023204,807.3011971611679,801.785209121909
1731108138.82699,818.9484691839297,802.0800893832204,804.6013863956975,801.4832752685212
1731108138.8270824,807.9174230196703,801.969035792402,801.5343312942504,801.1806255325387
1731108138.8299017,798.9424301870927,801.8577215623675,800.0247761390641,800.877231904164
1731108138.8309894,794.7884540820709,801.749948733929,801.1568332815896,800.5731041092877
1731108138.8348966,795.6402051905383,801.6489500316616,804.5280507171999,800.2683086872842
1731108138.8388038,799.8673596667519,801.551933698314,808.6242515106668,799.9629313988797
1731108138.8425713,805.4735320987406,801.4461479329008,811.8535600009811,799.6569644565284
1731108138.842711,810.8842961703198,801.3141979620317,813.4294071743876,799.3501822751415
1731108138.8466182,814.7957261563323,801.1531484908,813.5252065141301,799.0421698621585
1731108138.8487,815.8801689833506,800.9978929662825,812.7800725979115,798.7326642555071
1731108138.848801,813.1258208692961,800.9203664909946,811.7062537737991,798.4221278369075
1731108138.8505254,806.6806591229935,800.9733593266569,810.4650829269958,798.1120279623184
1731108138.8544326,798.3475686479786,801.0860644645729,809.033387247189,797.8040271042527
1731108138.8581522,791.0501721921272,800.9959283932959,807.4603766386645,797.4978156835916
1731108138.8583398,787.4292848218643,800.3540441245515,805.9588890941377,797.1889375716971
1731108138.862247,788.4518226755571,799.050365709318,804.8098199778605,796.8697599573128
1731108138.866154,792.9317143546414,797.5388169429041,804.2011997491653,796.5363501057545
1731108138.8676996,798.2335588045902,796.7711467429078,804.1116312667842,796.199102175211
1731108138.8700612,801.6940870431074,797.6221960050015,804.2993843214067,795.8866534120017
1731108138.8737333,801.9468129664275,800.21174810308,804.4282854400592,795.6285345129679
1731108138.8739684,799.4721259083751,803.6817035230387,804.2896950630729,795.4136871821692
1731108138.8778756,796.1345801961618,806.6118449002206,803.9630510873546,795.1535134516414
1731108138.8817828,793.9982376286754,807.7860809554304,803.7350955299055,794.7103363554885
1731108138.8836498,794.1238711927729,806.8341104095163,803.782443540875,794.0402166191146
1731108138.88569,796.0958740921549,804.4041540135433,803.8883784769407,793.4051237216092
1731108138.8865988,798.5639999831037,801.8109593337914,803.5188109802075,793.4756735537198
1731108138.8893144,800.3501130923117,800.3711777816457,802.2920442300741,795.127918203941
1731108138.8895972,801.2232695056613,800.7778889116985,800.4758656881758,798.9453857906504
1731108138.8935044,801.7332852061372,802.8375183733992,799.0319790532996,804.7109026697233
1731108138.897411,802.3609003947657,805.6932928810869,799.0577164002017,811.2293570019391
1731108138.9013186,802.9159464287159,808.3682288854504,800.9872623422349,816.6403534881508
1731108138.9048955,802.8622065124565,810.2651395524966,804.1657355698877,819.1602275105239
1731108138.9052258,802.2315598064672,811.3222136168939,807.1690224601871,818.003624932969
1731108138.9054978,802.0640003974763,811.7927798974234,808.6832057538654,814.0233501945052
1731108138.909133,803.7159835601508,811.8752164666361,808.313467606035,809.5293507063653
1731108138.9130402,807.553973574205,811.4884277536039,806.72768830589,807.116914934509
1731108138.9169474,812.2802313670397,810.3623156907347,805.056872882144,808.1003850888461
1731108138.9185998,815.6630751257139,808.3843103900051,804.0646717153703,811.6702058093322
1731108138.9204764,816.2031552500015,805.9319403903564,803.7516994723131,815.5172421892136
1731108138.9208546,814.3900633118458,803.8718334852773,803.6394778563891,817.5442697953439
1731108138.9243968,812.4538285450064,803.1209969487612,803.3791922110413,817.3614819575419
1731108138.9247618,812.7066421703897,804.044474951171,803.0997890323827,816.4005797929476
1731108138.9286687,815.7530100492982,806.1682540084628,803.2154226833259,816.5963231289714
1731108138.932576,820.0184405886234,808.451326095715,803.9227046267794,818.7191469439043
1731108138.9360576,822.9765787280816,809.8649802724393,804.870151867478,821.6571406807456
1731108138.9364831,823.0244937215388,809.7979652138068,805.3015185577917,823.1368353562239
1731108138.9403903,820.4704427747919,808.1029138006601,804.5673940745646,821.2794482803674
1731108138.9432957,816.9916681055184,805.0327264082048,802.6125459253659,815.8664918759147
1731108138.9442976,814.2580824837485,801.3142283240663,800.0757848585079,808.5063852969073
1731108138.9482048,812.9108154668127,798.1931818625825,797.9263440179395,801.6801005137903
1731108138.9516387,812.4679601517857,797.0747367032171,796.889485443394,797.3290935068163
1731108138.952112,811.8709451055353,798.7514568677478,797.0617755445548,795.8661282733935
1731108138.95355,810.1183964942985,802.7614612360933,797.9744747999885,796.1775645706155
1731108138.9560192,806.7025312180912,807.476764006175,799.0175117049024,796.541169963004
1731108138.9599264,801.8131633553379,810.9653372408897,799.8507788431797,795.7930613352037
1731108138.9621947,796.2949130058033,812.0465002764248,800.4601364546504,793.9409338901197
1731108138.963833,791.3567218482846,810.8368780401842,800.8617229912371,791.8607204741922
1731108138.9672196,788.1621028737516,808.4993751127196,800.8159028488815,790.4196783968516
1731108138.9677403,787.4951967863971,806.453919112536,799.9327182432477,789.7961223945828
1731108138.9716475,789.5804493314997,805.591210699803,798.1752583834378,789.5615009001314
1731108138.9755547,794.0013394865741,805.9367575187869,796.3138496162913,789.3948291102425
1731108138.979462,799.7063941282395,806.8695368386448,795.7917704468831,789.6865008172409
1731108138.981094,805.2177949741821,807.6427300512912,797.8960657611213,791.3399606094744
1731108138.9828007,809.1266439471033,807.8132425639805,802.7699256981778,794.8422733323279
1731108138.9833694,810.714676985819,807.3434725873366,809.0764310437689,799.4790253146512
1731108138.9872766,810.3066036451254,806.4342342515383,814.6979001201032,803.5667331484536
1731108138.9885,809.0111432822291,805.3160110894521,818.0219152060212,805.642123435398
1731108138.9911838,807.9184434846568,804.1586577771445,818.8532060394316,805.5696052661987
1731108138.9950907,807.3124475713112,803.0898947005292,818.2981878787573,804.5499650845597
1731108138.998382,806.5663468713636,802.2259929619738,817.8300069832901,804.054373255078
1731108138.998998,804.8887188568751,801.6556227935941,818.3469778904577,804.6833682303118
1731108138.9999928,802.3186018187787,801.3965011238301,819.8607348566675,805.8938001282501
1731108139.0029051,800.0377873033773,801.388422833666,821.7818206833388,806.6480879288198
1731108139.0068123,799.5813008080341,801.5696409400217,823.3382354291989,806.3009083331804
1731108139.0107195,801.5092829957972,802.0012865648202,823.8125968839865,805.0340787814719
1731108139.013963,804.680811703793,802.904743062172,822.6744947615335,803.6336411981467
1731108139.0146267,806.8720840886392,804.4886872108669,819.7887578661632,802.8643349148253
1731108139.018534,806.3946314165529,806.6383906587135,815.6267715549129,802.900497774768
1731108139.0188918,803.4960392776746,808.7613824543683,811.2030708603321,803.1957675635301
1731108139.0224411,800.3963223413114,810.0466656094069,807.6278727491546,802.8503134890021
1731108139.02345,799.8000273986661,810.0398928507454,805.5445488456593,801.1660277765419
1731108139.026348,802.9044199324,809.0787511965557,804.877642497654,798.0058520707126
1731108139.029544,808.4135380805476,808.1621554411279,805.0664802164022,793.864949431953
1731108139.0302553,813.4176084178713,808.280324999429,805.5471386819102,789.8307848187975
1731108139.0341623,815.5688134985769,809.7139722929729,806.0620968554305,787.484882270214
1731108139.037791,814.8505259412684,811.86196708668,806.5774499743501,788.4944460701074
1731108139.0380695,813.4387430751378,813.7127461492851,806.9743690911412,793.7328766023808
1731108139.0419767,813.7067153451584,814.5412892557429,806.892365844502,802.3565649887972
1731108139.045125,816.0636213563454,814.2778816879453,805.9326437529148,811.6811217149015
1731108139.045884,818.5412739491253,813.35127444865,804.0408680002241,818.2853219733682
1731108139.049791,818.5681686041835,812.279498628122,801.6778002248224,819.7901485086791
1731108139.0536983,815.475976527691,811.4089524860442,799.5801924422634,816.1767280051367
1731108139.05669,811.5987922252839,810.9116600416363,798.3072243383931,809.8464250199195
1731108139.0576055,810.8694136664532,810.8147800494967,797.9510263754353,804.43293936365
1731108139.0584,815.72755014539,810.8641338525247,798.2053364637002,802.9440461906661
1731108139.060706,824.5578299843296,810.3825696228284,798.660404385684,806.0426651682599
1731108139.0615127,831.7967219738321,808.4977595687297,799.0519448553338,811.40730150647
1731108139.06542,831.1472573408424,804.8074407734831,799.3181448864002,814.8986864549528
1731108139.069327,819.9490469355993,799.9696136757439,799.5146542380618,813.2270110695952
1731108139.0732343,801.4865558641039,795.5458328025161,799.7101772265693,806.419036178912
1731108139.0755887,783.2776530096152,793.0322140640674,799.9352346490845,798.0959704889801
1731108139.0762873,772.4556286062533,792.8482082997214,800.1845823750158,793.1416784176407
1731108139.0771415,771.6191423980653,794.1793973792978,800.4407875706961,794.4885470925639
1731108139.0810487,777.9779806087929,795.7516573402644,800.6920397075404,801.3932957399414
1731108139.084956,785.935936079497,796.739672079314,800.9363130220668,810.1929272231334
1731108139.0888631,790.8732259170641,797.059871117472,801.1770481395932,816.6170450580813
1731108139.0918682,791.5324646173623,797.0551123567953,801.4178823018198,817.9726199617808
1731108139.09277,789.8292522006496,797.0633827108212,801.6602619622574,814.1277041899275
1731108139.09335,788.7191896705265,797.2178697437398,801.9037855591507,807.2090487825632
1731108139.094488,789.7982307007994,797.4832752886958,802.147505460243,800.4525583112835
1731108139.0966773,792.2255110894317,797.7748406289222,802.3908286426034,796.7218234628477
1731108139.1005845,793.5774934211565,798.0398067742684,802.6336821250394,797.2494660197669
1731108139.1044917,791.9349132340232,798.2722372304012,802.8762590259211,801.2097688863689
1731108139.1074493,787.6216315359459,798.4900691936764,803.118743053488,806.4436945739022
1731108139.108399,783.2072123070793,798.7103118635971,803.3611958609765,810.9196788890976
1731108139.112306,781.6624904224245,798.9389592385442,803.6035847281383,813.8844589227955
1731108139.113387,784.0366791293532,799.1735349081708,803.845853182977,815.8601474836767
1731108139.116213,788.4985388502884,799.409477799524,804.0879659537752,817.6459217575516
1731108139.1201203,791.5703991026477,799.6441893470451,804.3299149912568,819.3595678919195
1731108139.1230304,790.6500843591197,799.8775468847296,804.5717053582108,820.4269968383716
1731108139.1240275,785.8881619869799,800.1105774253988,804.813341523962,820.4264662059901
1731108139.1279347,780.0207684551226,800.3441693583029,805.0548220094541,819.8264288958808
1731108139.1283,776.3855716899554,800.5786052740307,805.2961396856739,819.7657637670493
1731108139.131842,776.7064417127688,800.8137394865273,805.5372828204182,820.9817739324895
1731108139.132286,780.2493941600943,801.0493418064677,805.7782359798261,822.8681701702836
1731108139.135749,784.7265981250672,801.285298448203,806.0189841381134,823.6130876497497
1731108139.1386116,787.964642339492,801.5216267325216,806.2595223481808,821.4466536339024
1731108139.1396563,788.9805857832877,801.7584008398528,806.4998654863997,816.0523129259992
1731108139.1435635,787.9027502859363,801.9956845174413,806.740043220928,809.0328547249954
1731108139.1474707,785.2698301160888,802.2335059290642,806.9800667778662,803.0743563730225
1731108139.151185,781.605339870611,802.4718637152012,807.2198778312791,800.4201861722095
1731108139.151378,777.5896387641476,802.7107445050455,807.4593301345226,801.6725998547589
1731108139.1541924,774.3736887100412,802.9501439099483,807.6982743069286,805.599362391808
1731108139.1552851,773.4125650174599,803.1900894423718,807.9367595783101,809.9373419291904
1731108139.159192,775.7268596207127,803.4306532013883,808.1752144270994,812.6433619038503
1731108139.1630993,781.1422176094071,803.671926814738,808.4143154859721,812.8849731361943
1731108139.16325,788.2038913443745,803.9139406198074,808.6543217175607,811.2865855504094
1731108139.1670065,794.969491430599,804.1565651336351,808.8941324231504,809.3939187590497
1731108139.1697736,800.1360308932399,804.3995120223911,809.1310721567254,808.740916043053
1731108139.1700842,803.6130784585749,804.6425654570003,809.36267961037,810.0692007200121
1731108139.1709137,806.1029578952766,804.8860144733545,809.590558657612,813.0950438540058
1731108139.174821,808.1485236315937,805.1309253777484,809.8234298268704,816.8552052930423
1731108139.178728,809.5923786956422,805.3786461663166,810.07388862653,820.3013919579272
1731108139.1826353,809.9489817363452,805.6292442888622,810.3452441940932,822.6919620842655
1731108139.1853547,809.2655168597784,805.8797333290066,810.6144401543096,823.5826561876028
1731108139.1865425,808.5723259198214,806.124385749717,810.8307748606718,822.6625342966863
1731108139.1889832,809.4219944984361,806.3594425599788,810.9535056410225,819.8512116155098
1731108139.1904497,812.833222998384,806.5912008076308,811.0260706726482,815.7021427139999
1731108139.194357,818.4453663560801,806.8401863573516,811.2301226417368,811.6082091308749
1731108139.1982,824.5344345196943,807.1301018048806,811.8217837291476,809.2767137967741
1731108139.198264,828.9590762648534,807.4572620290547,812.9103554159697,809.6271639262882
1731108139.2009356,830.4994477576889,807.7585803128243,814.2285827559351,812.0031383204305
1731108139.202171,829.7439300860793,807.921230000857,815.1801501962647,814.5132600594341
1731108139.2060783,828.8535118440465,807.8706349044302,815.2517259712301,815.3513898836824
1731108139.2078822,830.1872350379945,807.6986760661781,814.4503671575419,813.9992799558469
1731108139.2099855,834.5914142095351,807.6791510249896,813.3083683295669,811.2765609916061
1731108139.2138927,840.5614957507969,808.0262258019683,812.4121544424676,808.2782411900937
1731108139.2165167,845.0239586998837,808.5223415200809,811.8975754732983,805.277440814315
1731108139.2178,845.3292784067274,808.4364780868448,811.3655967236017,801.6395812192641
1731108139.221707,841.0537008020966,807.0028289797555,810.235531347429,796.7653436696573
1731108139.225614,834.2640113404132,804.1540450818696,808.1624272159929,791.1083902178177
1731108139.2267811,828.0554855855034,800.8422897678911,805.1781512778824,786.2906169044073
1731108139.2295213,824.4866353874347,798.5768766463683,801.5603746633459,784.1577228061943
1731108139.232098,823.4141658591294,798.4630151021145,797.6809735084839,785.4849390558759
1731108139.23315,822.945282273622,800.4342909364409,794.0015037874883,789.3102668012104
1731108139.2334285,821.0129391453231,803.2464710346615,791.1250538124816,793.4403345525086
1731108139.2373357,816.8734975739832,805.2837681442105,789.7018578055427,795.8443613546316
1731108139.241243,811.5104196686868,805.6543492832832,790.1422206405375,795.9433403856306
1731108139.24515,806.7595339724555,804.7867218766639,792.3282493034794,794.7821645521884
1731108139.2456803,803.8808357905685,804.0416847407668,795.5698787033456,793.923301187535
1731108139.247679,802.6852537982833,804.6049545200957,798.8701333333311,794.0106885330842
1731108139.2490573,801.8687630788747,806.5406252984342,801.3424111188323,794.2857000127808
1731108139.2529645,800.2130044814143,808.7749027463315,802.5485797176561,793.4786775857982
1731108139.2568717,797.6058037508,809.9820301798826,802.6008000501606,791.2108634238692
1731108139.260779,795.0599132009128,809.5839313805379,801.9904131280734,788.560171184061
1731108139.26326,793.8403033533715,808.0575791641074,801.2323091330304,787.2378358336492
1731108139.2645793,794.5375966616209,806.4292003995603,800.5360987918368,788.1270457801511
1731108139.264686,796.8016073387541,805.509491726297,799.7490919006057,790.5218244352199
1731108139.2681,799.74297532509,805.4890312853071,798.6487344680786,792.7587346744726
1731108139.2685933,802.5019945699661,806.0557265431703,797.3549798293635,793.6797325524402
1731108139.2725005,804.5642944485819,806.7576251629832,796.4617505247569,793.6336495805174
1731108139.2764077,805.7846176993103,807.2764879027535,796.6838654169704,794.1426532755513
1731108139.278841,806.3038600018724,807.5046564373156,798.2661690621478,796.5386894458471
1731108139.2803147,806.4980724917195,807.5183240586838,800.6792506301571,800.7651400235891
1731108139.2834785,806.9555840261884,807.5422876139011,802.9171338201002,805.353862170511
1731108139.284222,808.3817322136223,807.884941625041,804.1789588485043,808.5175443886786
1731108139.2881289,811.3268211591949,808.7766269251584,804.3653648132844,809.3488570307024
1731108139.292036,815.7761603787951,810.1543575403044,803.9915163777886,808.1624934986053
1731108139.294422,820.8932655881306,811.5847186270179,803.646121586149,805.9337217764642
1731108139.2959433,825.2877882589872,812.4908559023689,803.5091463984822,803.5943591250474
1731108139.2998505,827.8210611525855,812.5827000273351,803.3365839980005,801.8437217700123
1731108139.3023772,828.3869155456712,812.112159063154,802.8573694044679,801.3568939725637
1731108139.30305,827.9532633539303,811.6342407749263,802.1551123856127,802.7813682940953
1731108139.3037577,827.7311125248241,811.4054617022431,801.6558342038245,806.2518252206198
1731108139.3076649,828.1485515861316,810.9813654352054,801.7352009297264,810.8747574327858
1731108139.3100033,828.5260928713907,809.48534057415,802.3196025616663,814.8842633373702
1731108139.311572,827.7449413516706,806.4080672973871,802.8654102297962,816.6389321828235
1731108139.3154793,825.3544451948842,802.2489040399541,802.7653536391848,815.8131871874726
1731108139.3193865,822.2243742082444,798.4052766362224,801.8556998828894,813.7930247570762
1731108139.3212764,820.2171616868043,796.3733403944478,800.6087232390084,812.7744975455902
1731108139.3232934,821.061906389069,796.8872990898524,799.8523252484277,814.0799266709076
1731108139.3255842,825.1549581513625,799.5928898950149,800.2273611731025,816.970970606587
1731108139.327201,831.0986866034343,803.3640939935353,801.7797398970706,819.0255901171141
1731108139.331108,836.3706739763144,806.938852764046,803.9774073748802,817.9478384562016
1731108139.3350153,838.7802853510558,809.4631860345204,806.1396850061147,813.4166425748544
1731108139.3379998,837.7747833252339,810.7076727587453,807.9620491580824,807.4204169713317
1731108139.3389225,834.6969539363043,810.9485126223364,809.7124496218969,802.7454086147285
1731108139.3401754,831.8282618222256,810.6662887890649,811.8861294546665,800.8644193522778
1731108139.3411653,830.9273713881811,810.264068608431,814.5479483858466,800.9859633371841
1731108139.3428297,832.2974084732443,809.9383442181802,816.9352875484052,801.0038963417971
1731108139.346737,834.9610756223784,809.7083674155642,817.7885927743878,799.4561654645568
1731108139.350644,837.6743406648386,809.5173535840078,816.299433623638,796.7979214631024
1731108139.3545508,839.9052047920909,809.3152677650079,812.9571255509477,794.976514104733
1731108139.3567464,841.9905731809355,809.0875172664519,809.5120972901165,795.7904856476059
1731108139.358458,844.4155471795046,808.8442697704924,807.918228098687,799.4753122763037
1731108139.3590744,846.954252274798,808.6001082162423,808.9753564728493,804.613686955223
1731108139.3623652,848.5427783708269,808.3624351233858,811.7162726631209,809.2645542777349
1731108139.3662724,848.0417129620577,808.1309449581895,814.0467508259185,812.2647222150555
1731108139.3701797,845.1548838865721,807.9022036451769,814.1738311138605,813.7043208543442
1731108139.3723276,840.6088214614027,807.6735683924719,811.7550932082271,814.4082361944991
1731108139.3729498,835.4335969385025,807.4443768799196,807.9595707791133,815.0676042546714
1731108139.3740869,830.0538781762289,807.2152203945307,804.5019265852013,815.7938259162418
1731108139.3779733,824.0460534710143,806.9868477451985,802.4587266962601,816.3152479634821
1731108139.377994,816.7766113362712,806.7595953532684,801.7316563590974,816.4083002034887
1731108139.3819013,808.3635271367145,806.5333996214657,801.4299822480564,816.0470594193723
1731108139.3858082,800.1366513627131,806.3080520089387,800.7344128786178,815.18120374641
1731108139.3879085,794.1452506441254,806.0833993519036,799.5208747787235,813.4970261804762
1731108139.3897154,791.9617536487197,805.8593957067335,798.3195905541694,810.526860231849
1731108139.3936226,793.594855034414,805.6360577056461,797.7606626948825,806.0981188126563
1731108139.3968723,797.3532307599088,805.4134053086618,798.0335148429199,800.7570596474192
1731108139.3975298,800.8846068656582,805.1914320252591,798.7980909690193,795.7693436966492
1731108139.401437,802.721121976267,804.9701064214069,799.5595294358433,792.578559197558
1731108139.4034896,803.184587438085,804.749389126665,800.1288038775992,791.9890578554719
1731108139.4053442,803.9123373350288,804.5292514665066,800.7448106034217,793.5947281163247
1731108139.4079,806.3141049615901,804.3096866622349,801.7458080148062,795.9056831780348
1731108139.4092517,810.1386578108744,804.0907044195944,803.085625586726,797.1901205219791
1731108139.413159,813.2966040069714,803.8723015787839,804.1531869687515,796.5067198323175
1731108139.4157715,813.1534109700683,803.6544179632726,804.122576695149,794.2037903574375
1731108139.417066,808.3861044482045,803.4369176172562,802.6060556432635,791.5362268449614
1731108139.4190707,800.0354710474764,803.2196536493514,800.0794689277691,789.7222660514271
1731108139.4209728,790.9376747590247,803.0026330065726,797.6799277696671,789.1653263645086
1731108139.42488,783.9081065622364,802.7861751373306,796.4702374831915,789.3829213519971
1731108139.4287872,780.0108367490725,802.5708266847905,796.7192917177081,789.6080692485674
1731108139.4326944,778.2170880458982,802.3568329192317,797.7569245730124,789.5381386638426
1731108139.4346516,776.6954519063859,802.1433461837055,798.5048039198263,789.6477442792257
1731108139.4346704,774.6964792209754,801.9281729782624,798.2649591577065,790.8440332118195
1731108139.4366016,773.5267083438792,801.7091418389043,797.1973639657099,793.7282615982401
1731108139.4405088,775.8119674521566,801.487253871001,796.1965825489614,797.9976707655055
1731108139.44285,783.5330396891535,801.2694017446763,796.2967890910949,802.4195004759282
1731108139.444416,796.1979045887067,801.0661349466615,798.0011801029933,805.436040519932
1731108139.4483232,810.4210906517087,800.8811571742442,800.9485322610802,806.0696669130674
1731108139.4502327,821.2736087060343,800.6968820953182,804.1271200112553,804.6061288367708
1731108139.4522302,824.6844985688869,800.4718970110735,806.50876126585,802.6137637108458
1731108139.4535697,819.5517781257295,800.1700661608633,807.6805554998518,802.1701268534204
1731108139.4561374,808.362147793316,799.8217017578183,808.0280612542714,804.6281539898222
1731108139.4600446,795.9345313194397,799.5727689947664,808.341676658154,809.6568204763339
1731108139.4639518,786.976196990577,799.6419557581027,809.1527140395485,815.2871249838913
1731108139.465814,783.8645172009172,800.148045050639,810.3038564119189,819.0780629819897
1731108139.467859,785.9298504327197,800.920672094959,811.0654283145891,819.6389875126333
1731108139.4717662,790.5098563976861,801.5189299979467,810.6985405395457,817.389383655297
1731108139.4724686,794.8453441783389,801.5364783332908,809.0579324200771,814.0383507706077
1731108139.4756734,797.4202706638767,800.9611650090233,806.8157711361195,811.3261168054855
1731108139.4778,798.0023755624045,800.261638005471,805.1442527097654,810.0977914195603
1731108139.4795806,796.8341385250926,800.1180220467346,805.0445814183714,810.3152866807836
1731108139.481395,794.0545633897,801.0077280427561,806.7423454242564,811.6746579816435
1731108139.4834876,789.9161212812796,802.9190953625996,809.5347178385509,814.010579544243
1731108139.4873948,785.2845094022342,805.3179800008952,812.1841664468104,817.0624848790977
1731108139.491302,781.5207180341986,807.3419993787777,813.6068646226477,820.0011468175892
1731108139.4913676,779.6518935315645,808.1586769505786,813.4480798699467,821.4924957305087
1731108139.4952092,779.70357029571,807.4061650166645,812.2466801840282,820.5425483786375
1731108139.496976,780.8804543048395,805.5224676527884,811.131269250982,817.4066065345665
1731108139.4991164,782.2844621668764,803.6672159103673,811.2002994210569,813.5560147922124
1731108139.5030236,783.433834073771,803.1037478869298,812.8753514233683,810.6046263907817
1731108139.5069308,784.2940343748598,804.3558991692179,815.5763789617369,809.2311165426411
1731108139.5102663,785.0336680444464,806.7817719893923,817.9684981341187,809.0498437054518
1731108139.510838,785.7998155913915,808.9826518513407,818.7130047311985,809.2695414018534
1731108139.512557,786.637249638654,809.7875311924765,817.2784559568836,809.3383486774044
1731108139.51275,787.5183971608449,809.047979794861,814.2557348378512,809.1259115273767
1731108139.5147452,788.401669796291,807.6437271237086,810.9420038156617,808.7559799535617
1731108139.5186522,789.2653744820257,806.7662357741591,808.4932490819839,808.3814343712648
1731108139.5225594,790.1098854435061,807.0789453248605,807.2535490392356,808.0712549103492
1731108139.5264666,790.9447994770532,808.3241605960064,806.7017907917599,807.8149695690299
1731108139.5281382,791.7776567664822,809.5200394927258,805.9786049265224,807.5744079771439
1731108139.5291655,792.6103803082359,809.5284375179381,804.5635648359639,807.3233174589551
1731108139.5303738,793.4412571159384,807.696782071151,802.627594036142,807.0569652665147
1731108139.534281,794.268063367728,804.3258596928292,800.8541435463286,806.7828262638383
1731108139.5381882,795.0897286968008,800.7180059299507,799.891631410274,806.5089547541243
1731108139.5420954,795.906332892327,798.632372408534,799.8459269206193,806.2386251191301
1731108139.5437193,796.7183878839502,799.2972770337473,800.1961834288516,805.971015229538
1731108139.5460026,797.5262606057872,802.5478355876983,800.2130155216923,805.70406000756
1731108139.5477,798.3300160015822,806.7407035995327,799.5687249524967,805.4364545621654
1731108139.5480647,799.1295380943053,809.6423589368036,798.6575034717305,805.1680398508693
1731108139.5499096,799.9246961606724,809.7885364102467,798.3514213655062,804.8992519507691
1731108139.5538168,800.7154302145855,807.4091446497387,799.3576806323919,804.6305133141317
1731108139.557724,801.5017525537695,804.243896162666,801.6614608784007,804.3619805440115
1731108139.5593002,802.2837113197594,802.331819072377,804.4760888939097,804.093604229894
1731108139.5616312,803.0613490567415,802.6272631997017,806.7315109997091,803.8252852709663
1731108139.5655384,803.8346657730762,804.4669134784382,807.733861001898,803.5569716765959
1731108139.5669637,804.6035975983295,806.2731653171714,807.5356968542395,803.2886636780577
1731108139.5694456,805.3680425961564,806.8884626524464,806.8078322061004,803.0203734346549
1731108139.5733528,806.1279634110595,806.420867909042,806.3559078539962,802.7520982302331
1731108139.5748813,806.8835318502859,805.9202318289546,806.6040488039832,802.4838373986238
1731108139.57726,807.6351688220641,806.2404391322551,807.3183418088755,802.2156389248222
1731108139.581167,808.3832838369542,807.1520180037553,807.6991900349565,801.9476205837339
1731108139.58265,809.1276916493186,807.502639209978,806.8293852050999,801.6798999659068
1731108139.5850742,809.8671232387802,806.245230936036,804.2933974415441,801.4124248263062
1731108139.5858626,810.5996662152598,803.3944832960191,800.602095828495,801.1448271584148
1731108139.5889814,811.3247276891739,800.105423917109,797.0568990180366,800.8765472977034
1731108139.5904624,812.045686541276,797.8780038026661,795.0213092278145,800.6074041485114
1731108139.5928886,812.7702946811394,797.5832691054856,795.0530630235785,800.3383718643205
1731108139.5967958,813.5052588358667,799.0310258069987,796.5469572987488,800.0717064837879
1731108139.600703,814.2451620991467,801.2857500736089,798.2008904705626,799.8093761636279
1731108139.6046102,814.9643295679141,803.395975786225,798.9902813757906,799.5498272448975
1731108139.6047618,815.6273938591629,804.9943928929213,798.9360828194722,799.2855802811897
1731108139.6060436,816.2280861168805,806.3836329972385,799.0938944823821,799.0062520743162
1731108139.6085174,816.8375461579554,808.0926815917363,800.7534390949077,798.7098092954133
1731108139.6124246,817.6052948610082,810.2579269410982,804.4071064508362,798.4166168659877
1731108139.6163316,818.650948122255,812.3176669822992,809.2262565220354,798.1695760466044
1731108139.6176,819.8661907095363,813.2833809100607,813.4387763743531,798.0017289121038
1731108139.6202388,820.7898508914946,812.4102936259432,815.3631229001895,797.8753574411732
1731108139.6216245,820.7419606659889,809.7798023487713,814.394266159599,797.6435781528579
1731108139.6236608,819.1734827883063,806.3667469488366,811.3044021380762,797.1209737841469
1731108139.624146,815.9428527238953,803.5260522182756,807.7356377359541,796.3079053700826
1731108139.6280532,811.3078950933314,802.2213377719761,805.2913022137478,795.6545269715882
1731108139.6319604,805.725772737734,802.4828305642415,804.7926472789967,796.0587251965059
1731108139.6358676,799.7036953093746,803.4330823747314,806.0353212062982,798.326010581903
1731108139.6372056,793.805915404994,803.8542184741951,808.0354624194687,802.2974429766879
1731108139.6397748,788.700135962961,802.9294912678978,809.5603519494297,806.4373198514583
1731108139.6425598,785.0686822000865,800.706547356399,809.7103344671557,808.5497751301172
1731108139.643682,783.3606942340804,798.0400410761961,808.3283808127236,807.3117414457832
1731108139.647589,783.5513741576812,796.0954333887084,806.0374483609997,803.4504748695942
1731108139.6514962,785.1231494108406,795.7074650462488,803.8531877685344,799.5506219285141
1731108139.65255,787.3543547465349,796.9097937418426,802.5925446927237,798.4848067124041
1731108139.6527867,789.7761373691332,798.8638396988104,802.4713183840203,801.513283855908
1731108139.6554034,792.4771848448285,800.2774823334519,803.1459676584149,807.4318992473808
1731108139.6593106,795.9608300264138,800.1788741409598,804.1055631099601,813.4472813894241
1731108139.6614587,800.5694515681727,798.6169251989994,805.0776147369822,817.1332614625685
1731108139.6632178,805.9144499875624,796.748443319366,806.1580398094153,817.9170943528504
1731108139.667125,810.8773009406989,796.1169432293101,807.6059170906989,816.9467490303708
1731108139.6683676,814.3101166372655,797.5772798056528,809.4629226592405,815.6534239354739
1731108139.6710322,815.8692834368846,800.6764053488193,811.2764629809194,814.4730711853804
1731108139.6749394,816.1953668792474,803.9556393578446,812.1923477168147,812.8790234220626
1731108139.6788464,816.2530521818895,805.8967700800304,811.4765984211983,810.467757241523
1731108139.680358,816.4876505326247,805.7895384504257,809.1643915981879,807.8239403492349
1731108139.6827536,816.6161060765406,803.982265439054,806.2953149043439,806.2422730747888
1731108139.6839488,816.1771479795458,801.5013616885068,804.3965731820457,806.598378709321
1731108139.6866608,815.1958200947632,799.4108139509425,804.4694030948974,808.4705189804343
1731108139.6875,814.266786725842,798.3229167190552,806.2241225166925,810.3303472169057
1731108139.690568,813.9924138558821,798.2659524669839,808.2054022969281,810.6457451746118
1731108139.6944752,814.3400212023581,798.861492100186,808.7777293478282,808.9884496646024
1731108139.6983824,814.5440821409504,799.6179811103477,807.2606894001987,806.2913851477527
1731108139.699257,813.6785393711175,800.1645317278333,804.3924114503178,804.1146949935052
1731108139.69953,811.4138922474308,800.3631284701136,801.8245948540214,803.5357879264079
1731108139.7022896,808.2730160568588,800.3186719236145,801.0504990938608,804.5091134250309
1731108139.7061968,805.1172849509985,800.2993525783387,802.5051297265035,806.1110312722142
1731108139.710104,802.3136946082062,800.5632135962012,805.3799501665236,807.3482547636315
1731108139.714011,799.3959652471258,801.1517668086307,808.1802236563827,807.7980610671774
1731108139.715111,795.6288702413624,801.8083307368555,809.5957326730432,807.643218296952
1731108139.7179182,791.0294714420331,802.1480313129949,809.1392259033089,807.2908013367951
1731108139.718156,786.8939182265551,801.9922933154575,807.2580544211844,807.0234085923454
1731108139.7218254,785.2288567352665,801.5684995787278,804.9968372894709,806.9044390767425
1731108139.72245,787.4022308163687,801.336084256452,803.4824298594962,806.8669995832796
1731108139.7257326,793.0207522785712,801.5566450655275,803.450666295628,806.831143352301
1731108139.7296398,799.9389334581518,802.0358752756822,804.9268342860021,806.7616424828211
1731108139.730692,805.4920200667444,802.350355418844,807.1692788643619,806.6646258367057
1731108139.733547,808.1371122065617,802.3818738222693,808.9982273099381,806.560210809076
1731108139.7370548,808.34285050071,802.6153388730659,809.4643845464947,806.4619725694748
1731108139.7374542,808.043758645418,803.8298250192574,808.4943286318552,806.3721984877526
1731108139.7413614,808.9811782233951,806.3785924796958,807.0058243484381,806.286898448672
1731108139.7452683,811.1302352752423,809.6607403907201,806.2870651457898,806.2018797489322
1731108139.746273,812.4975319598876,812.267084211074,807.0198558765585,806.1154843383928
1731108139.7491755,810.6468333584795,812.7745930792016,808.6809928033761,806.0281812787179
1731108139.7530828,804.9168508383426,810.6891927919603,809.8129343979356,805.9410622430983
1731108139.755954,797.5379620088698,806.9101057677713,808.99199139954,805.8548058059182
1731108139.75699,792.5219063175709,803.3576880360716,805.7976690650443,805.7694906911727
1731108139.7574,792.9278864570144,801.9086148890917,801.113979657916,805.684890709606
1731108139.7608972,798.5261756310075,803.2404316316529,796.6077916186933,805.6007919089338
1731108139.7618542,805.7488829887158,806.3212605597446,793.8053944872113,805.5171198673711
1731108139.7648044,810.1342241954292,808.9558638379856,793.403783714143,805.4339047870269
1731108139.7687116,809.513231548371,809.1441584081148,795.182251269425,805.3511995809885
1731108139.7726188,805.5179292790269,806.4046119208111,798.3719333665472,805.269033085693
1731108139.774853,802.2220589152536,802.1244669225201,802.0428143823359,805.1874132787876
1731108139.7765255,802.965641922943,798.6219301906187,805.2431729987272,805.1063509549363
1731108139.7774353,807.866512020671,797.5765270262033,807.0557891790065,805.0258660282266
1731108139.7804327,813.9418267050189,799.0120940665438,806.886892567819,804.9459588603263
1731108139.78434,817.6002672970519,801.5729874174676,804.9407970394216,804.8665667907678
1731108139.788247,817.3650834717397,803.7558266966909,802.3781236263213,804.7875631894924
1731108139.7921546,814.6655594701382,805.0123962345261,800.751340898011,804.7088571929119
1731108139.79235,812.3042292234617,805.8716954023103,800.9991428789577,804.6305770875258
1731108139.7930162,812.1132926377236,807.1458293152191,802.8340186860731,804.5531770405254
1731108139.793752,813.7437228306607,809.0200880364935,805.0806801515943,804.4772089862062
1731108139.7960618,815.3443254274899,810.8104106462678,806.627282021588,804.4026480128522
1731108139.799969,815.3002319182706,811.5382070826467,807.1127358778037,804.3281609550759
1731108139.8038762,813.5119169860789,810.7967208197798,806.8729807930257,804.2513067587529
1731108139.8077834,811.2679789106144,809.1756004473729,806.4403471413822,804.1706133342649
1731108139.808597,809.9746490901712,807.8915695199881,806.1430771772417,804.0890006649146
1731108139.8116903,809.8847933099822,807.9202847953258,806.0309319316714,804.0153595164825
1731108139.8126512,809.9091302293298,809.3136568121243,806.0075394826566,803.9595437068209
1731108139.8155975,808.6865857167152,811.2138856346359,805.9754434698492,803.919317434772
1731108139.8195047,806.0239328944614,812.5103278570913,805.8981032586281,803.867556978172
1731108139.823412,803.4207970176352,812.6064992530513,805.7881486035539,803.7586384151657
1731108139.8241785,803.0809564350125,811.7368437407175,805.6715000083834,803.5701438530989
1731108139.8272998,806.1292049194093,810.6679758874501,805.5636072769971,803.3660088919966
1731108139.8273191,811.5783371587819,810.0891142505991,805.4657673586646,803.3174479499161
1731108139.8312263,817.0212425448346,810.1799655708406,805.3723811617032,803.5942792224448
1731108139.83155,820.416762889134,810.6349588018633,805.2783804093818,804.1097872938736
1731108139.8351336,821.3219812653698,811.021783131711,805.1820879202212,804.2867360078585
1731108139.8390408,820.660516455859,811.1012980399182,805.084328253037,803.1850727508922
1731108139.8397596,819.6424453104837,810.8440370176139,804.986482533955,800.2003838469254
1731108139.8429475,818.958319492474,810.2280452919828,804.8893047774703,795.9403754325996
1731108139.8468547,818.6807984550858,809.1299077819015,804.7928047015412,792.3440331893637
1731108139.850449,818.5835625985812,807.4767378358152,804.6966616655349,791.5588062753731
1731108139.850762,818.4571113269785,805.4782850113456,804.6006082948055,794.3750575695155
1731108139.854669,818.2313608589661,803.6292648159103,804.5045626215006,799.6368973020604
1731108139.8553405,817.9403715577977,802.4341986679307,804.4085718099376,805.1656949124131
1731108139.8585763,817.6418351118348,802.1397887256562,804.3127113604223,809.3073714780522
1731108139.86225,817.3676109363253,802.7376472231434,804.2170253727646,811.7290415058519
1731108139.8624835,817.1185757009855,804.1444379747637,804.1215135383618,812.9386049534571
1731108139.8663907,816.881757714806,806.2359448628852,804.0261373798271,813.25483849847
1731108139.869348,816.6463501538352,808.6235421895382,803.9308332550776,812.3767344730492
1731108139.870298,816.4092387410606,810.4766529528105,803.8355454757829,809.9482199092372
1731108139.8709216,816.172569084014,810.7862909391856,803.7402892581438,806.416404122371
1731108139.874205,815.9394126569634,809.0480219859313,803.6452066587536,803.15874344598
1731108139.8781123,815.7113240478362,805.8255124324479,803.5505236194314,801.6058292497313
1731108139.8820195,815.4882382841306,802.6159606137186,803.4563318811745,802.1277257460981
1731108139.8859267,815.2694387452966,800.9885321935278,803.3622749786635,803.732210405281
1731108139.8865027,815.0543796373777,801.6077921776617,803.267466333358,804.8827356596256
1731108139.8882473,814.8429290997074,803.8813632251014,803.1710677838964,804.7337837088332
1731108139.889834,814.6352077701176,806.4696700062129,803.0735652616529,803.7532122256703
1731108139.8937411,814.4313544235415,808.2145417676322,802.9778126347167,803.2748099870226
1731108139.8972,814.2314152704797,808.7568342983142,802.8880185168383,804.3996404473021
1731108139.8976483,814.035371428728,808.4401203596824,802.805419428418,807.109199102058
1731108139.9015555,813.8432183750322,807.7399778609303,802.7225322194506,810.2185029181774
1731108139.9020836,813.6549994913128,806.8380981055607,802.622453074299,812.1594926488419
1731108139.9054627,813.4707413894437,805.724005850545,802.4909068815974,812.0214973599649
1731108139.9071462,813.2903229774344,804.6016576014031,802.3404146574537,810.1416544637848
1731108139.9093697,813.1134110052977,804.0432923061238,802.2274294611387,807.8834609968893
1731108139.913277,812.9396390444108,804.6229487790629,802.2279180941124,806.7998464138715
1731108139.917184,812.7690756669703,806.3491653986043,802.3508860816621,807.7563458461374
1731108139.9176648,812.6026733418518,808.4677318722465,802.4305385543814,810.548113308004
1731108139.9210913,812.4420179468211,809.8807170932974,802.1172106852441,814.1513107406138
1731108139.9249983,812.2878186761566,809.8804992145002,801.085767185045,817.3248019243855
1731108139.9260452,812.1376662751937,808.6368042528411,799.4037802669803,819.1406709222142
1731108139.9289055,811.9853494083462,807.0775482909606,797.7546416834081,819.2186908956643
1731108139.93215,811.8247898173537,806.2512171831032,797.2013070673777,817.7153815919328
1731108139.9328127,811.6590027643348,806.6059271275525,798.5296949406461,815.2020295427012
1731108139.933246,811.5077254871637,807.6630492302457,801.6226755552979,812.4666940243427
1731108139.93672,811.4008658473643,808.311906582976,805.3771499612042,810.2223393569054
1731108139.940627,811.3485114098146,807.5680977237078,808.2988310309945,808.8169266189252
1731108139.9445343,811.3000844275256,805.3335286869527,809.3868345497407,808.1601872942019
1731108139.944944,811.1378699085291,802.6463912958512,808.6850040193785,807.9678845339492
1731108139.9484415,810.7606888807366,801.1753099232283,807.1298431409539,808.1038475009509
1731108139.948827,810.2580212547718,802.1861058665168,805.8506031671352,808.6248050857981
1731108139.9523487,810.048698495254,805.6215827093839,805.4487090938786,809.409081794077
1731108139.956256,810.757874762039,809.963891954345,805.7410540438575,809.7832855285947
1731108139.960163,812.7326175172695,813.0650514767877,806.0793650417597,808.7296084430151
1731108139.963843,815.5221619073624,813.4190086172863,805.9583074296338,805.7184991516979
1731108139.9640703,817.9309961037136,810.9929268155274,805.4650684907538,801.4493140323684
1731108139.964408,818.8117421271438,807.0861506653038,805.2690990532277,797.6710478971979
1731108139.9671,817.9618512828474,803.4386560471687,806.1714579063199,796.05046019674
1731108139.9679775,816.3314938109271,801.2871895387093,808.5167997599032,797.010290567558
1731108139.9718845,815.3736146945719,800.924024277012,811.8525777168245,799.5760618983888
1731108139.9757917,816.0159809644675,801.832748407429,815.0619951635525,802.3509398470777
1731108139.979699,817.9511942728603,803.1411749086884,816.9056301061321,804.656927712529
1731108139.9799893,819.7554372694372,804.1037536435229,816.6646426420315,806.7416055827788
1731108139.9827423,819.8445224622634,804.4262069782923,814.5222467695884,808.9308807183228
1731108139.983606,817.6487884220869,804.3143517876631,811.4638868210261,810.7108986572989
1731108139.9875133,814.0997160621343,804.2169034749415,808.7413306857899,810.8029382671167
1731108139.9914205,810.9586441342855,804.4141906511414,807.2050499317053,808.2810771303784
1731108139.9953277,809.4528683437372,804.759682265922,806.9057407021746,803.7078684675502
1731108139.9955702,809.3159236852326,804.794957311746,807.1976801548393,799.1617785536822
1731108139.999235,809.0387267528671,804.1397007383162,807.2364001028925,796.9593706823833
1731108140.0016413,807.1434277169674,802.8062646496354,806.5126526116806,797.9908842099468
1731108140.00205,803.4500082804274,801.1702552604972,805.0926274396094,800.9690700412978
1731108140.003142,799.3135584297917,799.6629618213709,803.4808673112176,803.2521659339993
1731108140.007049,796.6363972326377,798.4994857034856,802.2721160869553,802.7198295048495
1731108140.0109563,796.4417691621805,797.6878520003904,801.8456009894103,799.3324276662828
1731108140.0111513,798.1654808432713,797.2667912793592,802.2578024288724,795.1743651164381
1731108140.0148635,800.2523885114445,797.4796276885504,803.3077232464926,792.9228159259923
1731108140.0187707,801.544827329875,798.632442971747,804.6355572399366,793.9252645444075
1731108140.0205402,802.2391275592324,800.6920079703928,805.7650093249975,797.3641363691944
1731108140.022678,803.5423085342123,802.995218969711,806.1448802292335,801.0621549463549
1731108140.026585,806.3261106558958,804.4446340918929,805.3086459883319,803.1543671768186
1731108140.0267322,810.0002232174377,804.1717710863966,803.1543429574608,803.2719381585117
1731108140.0304923,812.6526499454444,802.1861101973207,800.1609889802896,802.4555062853012
1731108140.0343995,812.4010353785678,799.4647815795704,797.3146773655011,802.111495662356
1731108140.037,808.8630195049213,797.379193421298,795.7022100352041,802.9727674312928
1731108140.0383065,803.5525776822873,796.883933879293,795.996743885509,804.801667185664
1731108140.0394394,798.8698255874283,798.0301164296661,798.1670782269875,806.8437038105611
1731108140.0422137,796.4595496643936,800.0685087723117,801.5843190015657,808.4842095247631
1731108140.042313,796.2114457482847,801.9989670477464,805.4061897164961,809.5620836464518
1731108140.046121,796.6605003495821,803.1673953807165,808.9384625702178,810.2244074286097
1731108140.050028,796.3939511738382,803.5182482561335,811.7524977215157,810.6247247958373
1731108140.0539353,795.2380782670946,803.4050149722021,813.5912008108638,810.8005159307012
1731108140.0578425,794.2396813378906,803.2187834592453,814.2764084765946,810.7554182197375
1731108140.0578945,794.5678178795989,803.1567962289083,813.769712805259,810.5467290375702
1731108140.0583384,796.4115063459277,803.2209002771805,812.3205813792881,810.2693381902417
1731108140.0617497,798.8624917090812,803.3314318124618,810.5045001104297,809.9962911761077
1731108140.065657,800.7568631835261,803.4246468268267,809.0395269349749,809.7525174692189
1731108140.069564,801.5540071790667,803.4838554664358,808.4635411593615,809.5289306745715
1731108140.07195,801.4900727144415,803.5231445908948,808.8707585360177,809.3082248115136
1731108140.0734713,801.1205590768284,803.5610670349126,809.880756604807,809.080604636971
1731108140.0734756,800.8476702061032,803.6065149212942,810.8838300104155,808.8456937933204
1731108140.0772374,800.7747612452724,803.6586752435165,811.4150835391487,808.6074179019329
1731108140.0773785,800.8180951637449,803.713072099769,811.3827654716653,808.3691005381954
1731108140.0812857,800.8677457274208,803.7664516843106,810.9978419176097,808.1317263460219
1731108140.085193,800.8718106349953,803.8181182024094,810.532167941034,807.8946544474248
1731108140.0890565,800.8359276994338,803.8689097883478,810.140226459245,807.6569404965004
1731108140.0891,800.7869763280158,803.9197999803494,809.8380778862058,807.4180946758873
1731108140.093007,800.7441590205873,803.9712121071893,809.5750275527271,807.1781237566906
1731108140.0961363,800.7113546131816,804.0230684961301,809.3042634837255,806.9372391949223
1731108140.0969143,800.6834024921527,804.0751247868698,809.0101820084291,806.6956040889887
1731108140.1008215,800.6544513670527,804.1272179228785,808.7004347524968,806.4532549565016
1731108140.1046376,800.6219799484779,804.1793221069961,808.3879152284853,806.2101475328054
1731108140.1047285,800.5864453730118,804.231487237194,808.0797201102936,805.9662272635135
1731108140.1069,800.549271992169,804.2837652157383,807.7760198976924,805.7214663682092
1731108140.1086357,800.5113833709447,804.3361769701196,807.4738991226106,805.4758633811671
1731108140.1125429,800.4728850787503,804.388717537893,807.1709345939942,805.2294268560603
1731108140.1150355,800.4334407632376,804.441374532853,806.8664257227359,804.982162450831
1731108140.11645,800.392711979306,804.4941412862132,806.5608470600141,804.7340695371445
1731108140.1202188,800.3505510038297,804.5470198875336,806.2548788332809,804.4851440189606
1731108140.1203573,800.3069660337254,804.6000176534998,805.94886190338,804.2353820529752
1731108140.1242645,800.2620075683727,804.6531414240162,805.6427757707168,803.9847818335901
1731108140.1281717,800.2156890695909,804.7063923418534,805.3364551683619,803.7333434517444
1731108140.132079,800.1679729727836,804.7597636925591,805.0297737914651,803.4810680544537
1731108140.1339345,800.1188020987286,804.8132456313969,804.7226989037138,803.22795725981
1731108140.1357996,800.0681445883215,804.8668387712336,804.415256149072,802.9740130151527
1731108140.135986,800.016022182493,804.9205698437206,804.107477894943,802.7192376059011
1731108140.1398933,799.9624924642937,804.9744905115612,803.799377451921,802.463633561151
1731108140.14185,799.9075696452039,805.0286390628345,803.4909514760054,802.2072035712184
1731108140.1438005,799.8511189641625,805.0829712441276,803.1821931960028,801.9499508371441
1731108140.1477077,799.792835843688,805.1373195308781,802.8731002210924,801.6918800982954
1731108140.1513808,799.7324459941157,805.1914775926736,802.5636712676992,801.4329987685237
1731108140.151615,799.6701265710188,805.2454532310019,802.2538971294612,801.173316615718
1731108140.1528337,799.6068305092216,805.2997456409848,801.9437581400343,800.9128424610614
1731108140.155522,799.543915918439,805.3552762605791,801.6332393171094,800.6515787202729
1731108140.1594293,799.4816984012426,805.4126142171751,801.3223608325625,800.3895188640244
1731108140.1633365,799.4176020218551,805.4706865924477,801.0111972741555,800.126655372095
1731108140.166962,799.3460641003356,805.5261650086792,800.6998423963786,799.8630005412343
1731108140.1672437,799.2626586317531,805.5753175651435,800.3882990517851,799.598606942092
1731108140.1711504,799.1720409207236,805.6189048494417,800.0763558600166,799.3335573087917
1731108140.1717324,799.0932356557388,805.6670423540536,799.7636126277945,799.0678979961522
1731108140.1750576,799.0510642015885,805.7369210742204,799.4498148043284,798.8015378655658
1731108140.1768,799.0478078289045,805.8372407520027,799.135420512595,798.5342137198584
1731108140.1789649,799.0301479794355,805.9444044018356,798.8218842431023,798.2656608169942
1731108140.182543,798.8933796648912,805.994290944634,798.5108688883389,797.9960126746543
1731108140.182872,798.5668403438033,805.9226613352109,798.2021098898023,797.7261533033749
1731108140.1867793,798.1660194315049,805.7612981979061,797.8912479751859,797.4574472869284
1731108140.1906316,798.0845807211027,805.7281273135449,797.5707380889976,797.1904165637866
1731108140.1906865,798.8309640880877,806.1848599775038,797.2365899574966,796.9228957578878
1731108140.1945937,800.5640969298239,807.3865433082249,796.8988653799878,796.6496729953853
1731108140.198124,802.6796738005831,809.1675913596565,796.5856187957843,796.3661614924866
1731108140.1985009,803.9967704148698,810.8756119378219,796.3257411507697,796.076273376826
1731108140.2024078,803.5822689949799,811.6693364841319,796.1073110275087,795.7991220651473
1731108140.206315,801.4828994730415,810.9316686483122,795.838429677948,795.5647882363706
1731108140.2095306,798.6627572179383,808.5211906225933,795.3674538287244,795.3955104737959
1731108140.2102222,796.273438011312,804.8568699388005,794.6018093528114,795.2948095648928
1731108140.21175,794.9594404916435,800.9117885803648,793.6710038349082,795.2933034956487
1731108140.2137053,794.6752135254624,798.0102539125608,792.9855167760489,795.5483306854328
1731108140.2141294,794.9357491426518,797.2904372368174,793.0816151174395,796.3536397259986
1731108140.218037,795.1750051818813,799.012304166675,794.3093952615344,797.9036476927477
1731108140.221944,795.0240250082453,802.2181197685918,796.5619226743123,799.9502414422836
1731108140.2258513,794.4908747804226,805.1309085926084,799.2398935943927,801.7824206712176
1731108140.2284296,793.999953553184,806.1233929113147,801.5017375614649,802.7542728095207
1731108140.2292862,794.181051817541,804.6210961979225,802.662297445919,802.9653670440098
1731108140.2297585,795.4311857363208,801.3533029637781,802.5176378680577,803.3638876624195
1731108140.2336652,797.5427326838231,797.8505045939556,801.4412310820238,804.9902857608641
1731108140.2375724,799.7568440348733,795.5759271154033,800.2247607549241,807.9378635251917
1731108140.2414796,801.2658211173263,795.2372855149468,799.7290595125653,810.9930256522802
1731108140.244867,801.7241601525226,796.6199962016146,800.4720022781513,812.3932884670461
1731108140.2453868,801.2597851240632,798.910647495419,802.3373579915867,811.177701397107
1731108140.2467,799.9862175113207,801.2073208579263,804.597268475278,808.0739472370608
1731108140.2473288,797.6210489058853,802.9038932709573,806.3235710658768,805.1929241870218
1731108140.249294,793.7982060032788,803.8230079024947,807.0156429325789,804.6738925564553
1731108140.2532012,788.8996362753024,804.1458610305581,807.032160370184,807.1842058260781
1731108140.2571084,784.4929089045269,804.2268705038882,807.4196551731303,811.3288122625186
1731108140.2604482,782.6541375918702,804.3603047177169,809.1201894579153,814.4621678116288
1731108140.2610157,784.5497251097919,804.5897635816704,812.1018924823751,814.437416636719
1731108140.2649229,789.5382843345029,804.685524852273,815.1710535732732,811.1018328921963
1731108140.2662275,795.7006144270915,804.3476443242779,816.7528896204742,806.437620157843
1731108140.2688298,801.3615768967207,803.5240664113014,816.0821899622281,803.201037004992
1731108140.272737,806.1961123426782,802.6066627001212,813.8122893582396,803.0547621243916
1731108140.276029,810.9367865044665,802.3156340678456,811.5109325037291,805.5853838490486
1731108140.2766442,816.0945425413919,803.2893018587966,810.4788453153418,808.882256603638
1731108140.2805514,821.044404024486,805.6188574191978,810.8899252462039,811.1101028980169
1731108140.2816498,824.3905407504018,808.6466847822924,811.8935195828993,811.7772565790226
1731108140.2844586,825.2075669711149,811.2139495597494,812.4334844507545,811.7599388907826
1731108140.2851267,823.9011678712341,812.2652000239152,811.9952383290719,812.2265351335882
1731108140.2883658,821.8458341312881,811.4593745426168,810.73361515824,813.4771734478328
1731108140.2916105,820.1619991185829,809.3748170204514,809.0888319686344,814.6766785367307
1731108140.292273,818.7983788452752,807.125083150065,807.3762263444253,814.6170489317365
1731108140.2961802,816.770910066152,805.6293399550234,805.6801368081796,812.7746922545348
1731108140.3000872,813.3391737324471,805.0909441954917,804.0133182524243,809.7727539291986
1731108140.3039944,809.0677945101189,805.1018399217468,802.5156660768604,806.9632000531701
1731108140.3040257,805.813438921076,805.244447104787,801.5105438581342,805.5639944319686
1731108140.3071916,805.5562652264699,805.5965883022484,801.3540841371181,805.9976759401991
1731108140.3079016,808.9224589622175,806.6405192220656,802.1440574038322,807.7646869300228
1731108140.3118088,814.5219158943647,808.6596473199992,803.507806937405,809.7817337049735
1731108140.315716,819.662910263347,811.2003038193825,804.7278453408511,810.9292204107364
1731108140.3165998,822.0116129437458,813.1211613493957,805.2240196350809,810.5509810565518
1731108140.3196232,821.0613575352731,813.24764868648,805.0310156692593,808.7093970376494
1731108140.3227725,818.3867406553169,811.166115278052,804.8027096073592,806.096670585283
1731108140.3229249,816.5005838400695,807.5971380813497,805.2500830400652,803.6507230694978
1731108140.3235304,817.1003188943165,804.0880666386757,806.4644698217118,802.0779528632985
1731108140.3274376,819.9199338058924,802.2118044042046,807.744049851643,801.5561046840088
1731108140.3313446,822.9999515589983,802.7554821674121,808.1226842969875,801.786060612703
1731108140.3352518,824.1850882026419,805.3578450571267,807.1675719628572,802.3035617732784
1731108140.3383536,822.7321030107174,808.7583982964835,805.3612496738564,802.7787727604208
1731108140.339159,819.7923024805762,811.4763887118039,803.7485951940489,803.1126427345978
1731108140.3418238,817.4106928699757,812.541578683475,803.1595256743099,803.3564587300818
1731108140.3430662,816.8919039780247,811.8993389430015,803.6426116451679,803.5905923051671
1731108140.3469734,817.8894065134303,810.2823065175743,804.5249309083042,803.8565687870833
1731108140.3508806,818.9220978393328,808.6477069991124,804.9987453203432,804.1529081106779
1731108140.35155,818.7878777180703,807.5846477594542,804.7555274041747,804.4604571460801
1731108140.3539348,817.615026878551,807.128046606911,804.1910235463208,804.7644013908704
1731108140.3547878,816.6732372188205,807.0569483475733,804.0490831683121,805.0610410505228
1731108140.358695,817.1701518790122,807.3010300029467,804.804505343068,805.3537668027102
1731108140.3607228,819.1109186912267,808.0036368257323,806.2869515595632,805.6469020278637
1731108140.3626022,821.1999250721454,809.1975359668487,807.8383729781762,805.942473678423
1731108140.3665092,821.8496551544187,810.5086830280836,808.8282767415641,806.2402589590696
1731108140.3695157,820.4345628350382,811.2998138739763,809.0492235400693,806.5392106106167
1731108140.3704164,817.7661485545391,811.1729882086549,808.6792681841415,806.8385841240591
1731108140.3743236,815.4651534523713,810.3074030729356,807.9542666094479,807.1382326227821
1731108140.3782308,814.8163071976644,809.2689796239853,806.9512764998668,807.4383599666215
1731108140.3796215,816.0195130177725,808.5271680287611,805.6854185647959,807.7391954055691
1731108140.382138,818.2943481512528,808.1823783712326,804.3263818912336,808.0408375380387
1731108140.3850968,820.5648801181767,808.0643002594969,803.2143317941097,808.3432676985378
1731108140.3860452,822.1084350502729,807.96925159836,802.6303507148066,808.6464268421363
1731108140.3865,822.7693397794013,807.7988521405049,802.5890687670524,808.9502718402763
1731108140.3899524,822.7631951798846,807.5589699026172,802.8726519776352,809.2547902944835
1731108140.3938596,822.3296414424594,807.2958005382715,803.2280521862745,809.5599926627169
1731108140.3977666,821.4714867007806,807.0437375208272,803.5161129939917,809.8659018825787
1731108140.3985207,819.9205919593919,806.8105163062094,803.7241277767303,810.1725425373202
1731108140.400678,817.3787036379973,806.5875430549081,803.8986088905492,810.4799202008846
1731108140.4016738,813.9252636446716,806.364555858063,804.0814623972992,810.7879924188802
1731108140.405581,810.2880062442363,806.1369748077124,804.2861064957831,811.0966604481885
1731108140.4094882,807.6586672781241,805.9055129335437,804.5052255506482,811.4058264083409
1731108140.4133954,807.053986915266,805.6727024613938,804.7271289499671,811.7155245048164
1731108140.4162593,808.6554515605428,805.4402652584345,804.9455388919478,812.0260356435589
1731108140.4173026,811.6756179086461,805.2084889599859,805.1604223941926,812.3377961333176
1731108140.41742,814.9074117873939,804.9768548993814,805.3744489143053,812.6509587511216
1731108140.4212098,817.5224595208832,804.7448117726842,805.5897794719423,812.9647823543564
1731108140.42145,819.4393446409417,804.5121287606003,805.8070040169389,813.2775098997853
1731108140.425117,820.95187980101,804.2788475905827,806.0256660762288,813.5875604151184
1731108140.429024,821.9999572242639,804.045092282664,806.245141917537,813.8960454928375
1731108140.43184,821.8528210476142,803.8109360347938,806.4651227284563,814.2087093529616
1731108140.4329312,819.6548256565593,803.5763745255394,806.6856245208309,814.5337079072466
1731108140.4363189,815.4781675921433,803.3413605041876,806.9067882246702,814.8729367177044
1731108140.4368384,810.9286090831106,803.1058440631778,807.1287141621762,815.2109600144946
1731108140.4407456,808.5461211603237,802.8697946269143,807.3514155331835,815.5144624460032
1731108140.4446528,810.1882621736729,802.6332074505927,807.5748544372673,815.7570104131604
1731108140.4474213,815.550640039398,802.3961005290649,807.7989933288394,815.9667971649446
1731108140.44856,822.0829413945252,802.1584972312318,808.0238201777959,816.2587474164678
1731108140.4524672,826.5567199770258,801.9203884048162,808.2493394206334,816.7844670923189
1731108140.4552178,827.1896183465389,801.6816901815394,808.4755422140457,817.5665939690862
1731108140.4563744,824.7194328171086,801.4422491713959,808.7023812882359,818.3135562653255
1731108140.4564,821.6584738081723,801.2019521894958,808.9297810590266,818.4492740254494
1731108140.4602816,820.4186309157868,800.9609228530608,809.1577013297559,817.4899858234093
1731108140.4630022,821.7886548747159,800.7196362770436,809.3862271704102,815.4989230514994
1731108140.4641886,824.7545864096376,800.4786765716821,809.6155902074731,813.1292641184135
1731108140.4680958,827.474679634601,800.2380151451596,809.846002870385,811.1417271117806
1731108140.472003,828.4556169685773,799.9962227156922,810.0773007394324,809.8405866895746
1731108140.474117,827.1437944582524,799.7506725222781,810.3086587226405,808.9232688346317
1731108140.4759102,823.8294447208916,799.4997546166524,810.5388909021289,807.7849735138304
1731108140.478583,819.2444078644832,799.2465512205854,810.7676717066424,805.9214088194097
1731108140.4798174,814.235774323173,799.0005714492905,810.9971250578233,803.1130168346534
1731108140.4837246,809.6346148007294,798.7724582444532,811.2319594206236,799.4112291511436
1731108140.4876318,806.2027528914455,798.5600667979346,811.4760231977368,795.146188687036
1731108140.49135,804.4648763547652,798.3347904978594,811.7255378031639,791.012705808803
1731108140.491539,804.3681729203381,798.0486001725161,811.9644331812983,788.0108074073532
1731108140.493016,805.0086548719682,797.6798391152703,812.1713396503617,787.0335079390998
1731108140.4941642,804.8457148269582,797.3050692331075,812.3434859714766,788.2726271680723
1731108140.495446,802.5538777077204,797.1346403840431,812.5250403475727,790.9464732180152
1731108140.4993532,798.0100791574511,797.435400078896,812.8041289354873,793.7013379368715
1731108140.5032604,792.53983892037,798.3491385834084,813.2399005133651,795.4516240526026
1731108140.5071676,788.0503290650583,799.7488463407607,813.7285130980656,795.9637839295478
1731108140.5097454,785.734241054904,801.2715292930773,813.9084414797137,795.6821777526396
1731108140.5110748,785.4681857076281,802.4838280167704,813.2537180873289,795.0275436324109
1731108140.511915,786.2747403357954,803.0247094767785,811.3883946624644,793.9390982321707
1731108140.514982,787.1951533507768,802.6872090305741,808.4252940000299,792.165785433615
1731108140.5188892,787.7882911817736,801.525045564181,805.0510672901687,789.9649204325177
1731108140.5227964,788.0820346816612,799.9659787314298,802.2693517766112,788.3427144668988
1731108140.5253265,788.278954424534,798.7407845301578,800.9556572626407,788.3951188990379
1731108140.5263,788.5270296603344,798.5149416911366,801.4585117047947,790.2955200760631
1731108140.5267034,788.8572819398113,799.4408014179578,803.4329627422386,792.9879603817442
1731108140.5306106,789.2307218713796,801.0561872967157,805.9961641865589,795.0660407827037
1731108140.530814,789.6024926128487,802.7156785007747,808.1510207890773,796.1340924837098
1731108140.5345178,789.9531782088603,804.2036665564137,809.262829673841,797.3218116944391
1731108140.538425,790.2863881271104,805.9024728640787,809.3157181040295,800.2748327527905
1731108140.5409076,790.613340183979,808.2618827244509,808.8088204174372,805.378227523819
1731108140.5423322,790.9414831193669,811.0464723175711,808.3945044433297,810.8468919708233
1731108140.5462394,791.2719628847167,813.1636922398707,808.5131394028051,813.7050698833551
1731108140.5497131,791.6024728216665,813.3821140946588,809.2278273407134,812.0275611605164
1731108140.5501466,791.930636948823,811.3754461693918,810.2865203085075,806.619503681069
1731108140.5540538,792.255508386454,808.1492695945484,811.3015508606366,800.7015770437434
1731108140.5564885,792.5773213758247,805.4212785341686,811.9211112603933,797.8183244973782
1731108140.557961,792.8966476253486,804.4466290522339,811.9317845579102,799.6195759312507
1731108140.56125,793.2138237931845,805.2451019661944,811.2893389440488,805.1415136400301
1731108140.561868,793.5288532660353,806.7984587032522,810.0905407953585,811.862432108271
1731108140.5657752,793.8415731997386,807.9461845691699,808.5044952068181,817.4167797717653
1731108140.568612,794.1518312274978,808.183976461552,806.7105310071962,820.6087480540658
1731108140.5696824,794.4595559325262,807.7755137219556,804.9034002281691,821.2970930701488
1731108140.5720696,794.7647376444806,807.2539683946989,803.3616490157984,819.7856007250971
1731108140.5735896,795.0673827078599,806.8773725177699,802.465648795564,816.5373291292567
1731108140.5774968,795.3674849384806,806.515686892976,802.5401758847072,812.3347997373425
1731108140.581404,795.6650223164664,805.956599705126,803.5563388117118,808.3401017541302
1731108140.5853112,795.9599666044122,805.2313409690505,804.9271006381628,805.6344252229034
1731108140.5875113,796.2522925210241,804.6215628235168,805.6510370169716,804.5248307057337
1731108140.5876508,796.5419809999783,804.3877990171244,804.834416406922,804.3179783083871
1731108140.5892184,796.8290178776755,804.5416707537235,802.3082904082333,803.8800147763734
1731108140.593125,797.1133914426264,804.8973478309143,798.8974711077831,802.5499725225206
1731108140.5962,797.3950910307321,805.311382567151,796.0529007455938,800.6416137634764
1731108140.5970323,797.6741069468667,805.8162701050738,794.9889268060999,799.1420737500373
1731108140.6009398,797.9504309986862,806.4851559443179,795.889592032269,798.8859875812099
1731108140.6032317,798.2240569512651,807.184917780856,797.7867887228331,799.8733063731124
1731108140.604847,798.4949806625726,807.5299802165279,799.2438132035195,801.2617462229593
1731108140.6064105,798.763200012778,807.153888063056,799.3395331834676,802.0375513238197
1731108140.6087542,799.0287148158835,806.0618698060583,798.1976857701032,801.812856060698
1731108140.6126614,799.2915267855507,804.696950274046,796.6971028340115,801.0547310555626
1731108140.6165686,799.5516394863618,803.6072457035697,795.7031756404338,800.5452368629863
1731108140.6188128,799.8090581718488,802.998925389697,795.5142655869801,800.6396803302649
1731108140.6204758,800.0637895422404,802.5912984889402,795.886757737579,801.1253200186668
1731108140.6243827,800.3158416749511,801.9085315510229,796.4147947725111,801.8065656368877
1731108140.6253092,800.5652244694911,800.7192430661098,796.8424191035599,803.0375327721288
1731108140.62829,800.8119506297996,799.2006577805015,797.1269880526671,805.3901635510322
1731108140.63115,801.0560364333784,797.7017828808615,797.3405930520471,808.6571996102156
1731108140.6321971,801.2975008410812,796.3989665884146,797.5584189685226,811.332972269514
1731108140.634394,801.536361995641,795.2295896707656,797.8096127071279,811.4264267090842
1731108140.6361043,801.7726326932055,794.1604188006435,798.0851875410926,808.1156834444608
1731108140.6400115,802.0063200074044,793.462977016816,798.3653312384247,802.7553808710512
1731108140.6439188,802.2374350776499,793.6487729752075,798.6379352994549,798.2026979648316
1731108140.6442082,802.4660122690408,795.0749241543377,798.9017549299223,796.925025993296
1731108140.647826,802.6921222332048,797.5791780000649,799.1609825774711,799.4144994803868
1731108140.6499753,802.9158517408956,800.4920159115568,799.4195195343814,804.0896439212474
1731108140.6517332,803.1372354713052,803.0364769641878,799.6786964235329,808.5637710270464
1731108140.6556404,803.3561751290625,804.7963389821359,799.9379001767946,811.1508264076898
1731108140.659547,803.5724466007703,805.8907207458258,800.1960584257049,811.532547693089
1731108140.6631072,803.7859014766065,806.7395760951765,800.4525649103608,810.3694149814049
1731108140.6634543,803.9968277584862,807.620333603959,800.7073865067131,808.4709903795012
1731108140.665556,804.2061565019217,808.3648439305944,800.9607518462466,806.3098314435338
1731108140.6661,804.4150095652005,808.4334833668344,801.2128548257333,804.1541240782287
1731108140.6673615,804.6233718069836,807.318423694247,801.4637495718381,802.4396687133146
1731108140.6712687,804.828656482126,804.9812548677651,801.7133925565167,801.8098202234409
1731108140.675176,805.026107712674,802.0086991236923,801.9617206786023,802.6743106338938
1731108140.679083,805.2128922882357,799.3797182753904,802.2086960021522,804.7178895909783
1731108140.681137,805.3948279063703,797.9916742635318,802.4543104375834,806.9050070256042
1731108140.6820064,805.5894685615907,798.2089507172846,802.6985744909672,808.0531780586706
1731108140.6829906,805.816242505751,799.6647976617089,802.941508899035,807.50886748929
1731108140.6868978,806.0708440873358,801.4447910512571,803.1831380006229,805.4249514357057
1731108140.6908047,806.3003417220615,802.6070522660901,803.4234728470882,802.5661481390971
1731108140.694712,806.4165177538752,802.7481633084251,803.6624830899008,799.9168191839811
1731108140.6967182,806.3799344677686,802.1950044723892,803.9000843317709,798.3106985943261
1731108140.6986191,806.3299414468249,801.6366122338085,804.136185526151,798.0991685989937
1731108140.700905,806.6436533446139,801.5023476121811,804.3708114477499,798.9069744168347
1731108140.70105,807.7780161368528,801.6524278830323,804.6042227768994,799.7153782581915
1731108140.7025263,809.8945878849848,801.6418321443281,804.8368550289246,799.4414093770406
1731108140.7064335,812.5102804065291,801.2369232601341,805.0689235353539,797.734026031727
1731108140.7103407,814.5005513802122,800.6340821308162,805.2998251518158,795.3438790090927
1731108140.712299,814.596837259869,800.1924034146663,805.5279368769288,793.6542829183155
1731108140.714248,812.194024489956,800.024872994164,805.7516310190118,793.6771298391504
1731108140.7181551,807.9762761214607,799.9126700205729,805.9716453802195,795.3222356540648
1731108140.7198043,803.8167194612382,799.6255809071179,806.1931610888886,797.5103170540419
1731108140.722062,801.8338656440285,799.2900302322668,806.4241816388471,798.9560718030466
1731108140.7259693,803.1580505459456,799.3958853841211,806.6676689303114,798.9426113045653
1731108140.7278802,807.2396633466536,800.3953860233637,806.9106051605619,797.571690674046
1731108140.7298765,812.1342350770872,802.2552710667028,807.1218606190645,795.5166990849344
1731108140.7337835,815.541573281223,804.3912178248091,807.2738247700076,793.6457626988451
1731108140.7359998,816.0146257612598,806.0801616621404,807.3884213485713,792.7911408004821
1731108140.7376907,813.7757125435364,807.0186657765208,807.5746318875971,793.6506194582702
1731108140.7387033,810.7389071080576,807.5619921899747,807.9968531328655,796.640468793417
1731108140.741598,809.5794714011329,808.4445073605178,808.7441403398411,801.6071166934992
1731108140.7434614,812.1665902596801,810.1967356103263,809.683285302754,807.5709847704078
1731108140.745505,818.2564213864805,812.6923680011646,810.4657955483704,812.8798615569463
1731108140.7494123,825.4526068164034,815.1379444540814,810.750396078629,815.9700700453798
1731108140.7533195,830.6658961099023,816.4933183018098,810.4580078292298,816.3283972284601
1731108140.7572267,832.0981607278391,816.043696662628,809.80198671291,814.8069553021406
1731108140.7576025,830.2415220858709,813.8021993340164,809.0633030389635,812.909410932639
1731108140.7590425,827.1495340256868,810.5657132178924,808.3509491232692,811.7120539910923
1731108140.761134,824.6882037081689,807.6212246444019,807.5848707752214,811.3907811999507
1731108140.765041,823.2894961850834,806.2201709405188,806.6717995344511,811.5368752081566
1731108140.7689483,822.1799424818648,807.025672861051,805.6313876651649,811.703063143487
1731108140.7709498,820.6838360245926,809.7860518193257,804.5197327898087,811.6911111320759
1731108140.7728555,819.263682311951,813.41994836767,803.2742956006482,811.5291919767699
1731108140.7746234,819.2753053123847,816.4974442301716,801.7310379363403,811.3237338255677
1731108140.7765014,821.6561467367305,817.8892241982865,799.8813605814977,811.1478338675741
1731108140.7767627,825.7956106775089,817.2694943656679,798.136753877575,811.0144436899571
1731108140.78067,829.7192639583997,815.2295813953872,797.279403518666,810.9025291584795
1731108140.7845771,831.5381853031462,812.9436465610648,798.0154026937594,810.7895839280482
1731108140.788484,830.9224273584234,811.555237624213,800.4124352827871,810.6665354654141
1731108140.7902043,829.264298804304,811.6081255348661,803.6680959005997,810.5357617227094
1731108140.7923913,828.3417524393099,812.8145644944798,806.4550685244394,810.4030851740323
1731108140.7954004,828.6484304810062,814.2552699087054,807.6620312747053,810.2721797609748
1731108140.7962985,828.8664829033593,814.8810932965949,807.0256521959107,810.143509415951
1731108140.8002057,826.9333839237948,814.0545545417432,805.2036981669982,810.0158775162141
1731108140.804113,821.7500887254304,811.8579930556266,803.259531682874,809.8881303921358
1731108140.8057857,814.071185552409,809.0108315846234,801.9809384842189,809.7598626264626
1731108140.8059,805.9098668463045,806.46182143367,801.5459634839785,809.6312525939428
1731108140.80802,799.0871157802092,804.9211933196702,801.6974980391567,809.5026269083415
1731108140.8119273,794.1786287232535,804.5983829544626,802.1402127560845,809.3741804869435
1731108140.814299,790.6090716297128,805.2155374729941,802.7522738854847,809.2459384088453
1731108140.8158343,787.5986030377096,806.1878549629104,803.4831617500806,809.1178455278823
1731108140.8197415,785.040254736243,806.8617476901637,804.161993202867,808.9898549989055
1731108140.8213668,783.6110251631675,806.7856043388557,804.5050005788711,808.8619610179512
1731108140.8236487,784.1344082482766,805.9591146043739,804.3496869251983,808.7341871227279
1731108140.827556,786.7556803645398,804.8846419337477,803.8565459085589,808.6065626983133
1731108140.831463,790.5321163773127,804.2682122289133,803.4207663604881,808.4791090899508
1731108140.8331983,793.7201116334053,804.4937566316326,803.3291077509881,808.3518385197129
1731108140.8353703,794.6429678155118,805.2714394225388,803.4739488587495,808.2247591813405
1731108140.8369477,792.6938205286998,805.7964031062318,803.4056724137894,808.0978798055652
1731108140.8392775,788.85614177352,805.3425554391184,802.694539052334,807.9712111441373
1731108140.84085,785.2832894514686,803.8313987049003,801.2930136794853,807.8447652015049
1731108140.8431847,784.0581334655325,801.9244752084235,799.6035843745079,807.7185539782356
1731108140.847092,785.9349533227468,800.5830938626484,798.2286402583287,807.5925887899417
1731108140.850999,790.0106045399951,800.4613839190675,797.6323246113491,807.4668802597531
