timestamps,eeg_1,eeg_2,eeg_3,eeg_4
1731017621.367071,809.1274034467206,803.4450659737097,803.0355015676063,803.8885570234733
1731017621.3704312,813.1122973229643,803.1305323076746,804.4233478833931,811.9180832581025
1731017621.3743336,815.4759246962523,803.4689436012889,805.2838064496009,818.6504702007064
1731017621.378236,815.8682633597977,804.7277688578653,805.385039460354,823.191874723224
1731017621.3821385,815.5015220279147,806.564030046348,804.858486300029,825.4566356510798
1731017621.3826668,816.2168627314529,808.1668850398873,804.007682016912,826.2577086779996
1731017621.3860407,819.0512356870648,808.8168272261089,803.0426469402114,826.7591507722008
1731017621.389739,823.4291173948068,808.5101134080936,801.9675616991805,827.5360961471283
1731017621.3899431,827.5735040902549,808.0705145012034,800.6869121371367,828.0273515686802
1731017621.3938456,829.7350950263034,808.5241687549054,799.1973796177663,826.9462729969199
1731017621.397748,829.2701563588547,810.2249114457932,797.6841787443458,823.3576772258878
1731017621.398263,826.8698126327387,812.5388350652404,796.4508021380917,817.5097708130937
1731017621.4016502,823.9634406940435,814.3998663534974,795.7476210070994,810.752115775821
1731017621.4055526,821.8297841051273,815.1982638017936,795.6246749465271,804.6822009687788
1731017621.4086306,820.9795341564047,815.1509198765875,795.9108188066261,800.2495285141173
1731017621.4094553,821.0948552765261,814.8505839130877,796.3400935757509,797.4605980923499
1731017621.4133575,821.4794376251097,814.5162284366396,796.7384390169716,795.7776019790317
1731017621.4138591,821.700448101125,813.7313638330683,797.1262310637347,794.7824984332284
1731017621.41726,821.9582128997198,811.9323879195357,797.6570718903236,794.536591516738
1731017621.4211624,822.8456375683712,809.1473157111586,798.4538928014829,795.3666160678986
1731017621.4250646,824.627759021099,806.2321536983482,799.4800081707327,797.3303833845729
1731017621.427522,826.6859528767986,804.3317363150517,800.5337803491659,799.9327993043179
1731017621.428967,827.765083722118,804.0227607721083,801.3580945899987,802.4467911469619
1731017621.4294553,826.9456555766088,804.8838503888323,801.7944379541476,804.5849752098941
1731017621.4328694,824.4696298242479,805.8443321636931,801.8867514760949,806.8507473739945
1731017621.436772,821.5777859055364,805.996330089855,801.8468436078435,810.1377549774205
1731017621.4406743,819.4514977454486,805.2180959910582,801.8748054591123,814.8587332081443
1731017621.4445765,818.236132734211,804.1852629823371,801.9700420722938,820.3634337247155
1731017621.4450514,817.0192638168772,803.8590937492883,801.9245635561815,825.1598134159084
1731017621.4464135,814.6975125953987,804.8714778861017,801.5430920806745,827.7483320282532
1731017621.4484787,810.8998128257984,807.1709239490108,800.9007082716654,827.4309044346179
1731017621.4523814,806.2338931979068,810.0343732292421,800.3876718370371,824.6140053546562
1731017621.455316,801.8154688757168,812.3704594448136,800.48749568781,820.563191884935
1731017621.4562838,798.5805364388885,813.1966971550065,801.4758627260385,816.8120842880589
1731017621.4601862,796.8793359018086,812.1245185400267,803.2608735088411,814.4498220822449
1731017621.4606478,796.499250621599,809.5953272927686,805.419888543657,813.5704951297637
1731017621.4640884,796.9505655794651,806.6512828429487,807.3513627914801,813.265248017061
1731017621.4653049,797.7560115028787,804.3124763769514,808.4714944643716,812.3315619240013
1731017621.4679909,798.5669831253127,802.969101449583,808.4257386310394,810.2724356266872
1731017621.4718933,799.0941480432093,802.232764506412,807.2344071846475,807.7145473676073
1731017621.4757955,799.0064468453545,801.3404279628667,805.2499450470316,805.7523875055679
1731017621.476244,797.9950842623998,799.7781143475753,802.9235181837879,804.7595118919847
1731017621.4796982,796.0273032429991,797.6616723486958,800.5713115891381,803.8494083442016
1731017621.4836004,793.5535502530158,795.6418581701352,798.3450768617735,801.6166093502993
1731017621.4841964,791.376427384458,794.4533726919977,796.3964898581756,797.5132343333227
1731017621.4875028,790.1717430176848,794.4396064023367,795.0236339626301,792.5375256668387
1731017621.4903684,790.0255587932899,795.3569660081276,794.6202360604727,788.55414402608
1731017621.4914052,790.4196010618749,796.5565270456664,795.4509157977016,786.870994547315
1731017621.49184,790.7379358968105,797.4008384043242,797.4260648672196,787.3558676995852
1731017621.4953077,790.8843158247489,797.6420626314206,800.0395552486027,788.8005248283779
1731017621.49921,791.4486723185812,797.5313496010656,802.5280516136233,790.0841304756127
1731017621.5030878,793.2210145969491,797.6130356355537,804.2037674673924,791.0824928241013
1731017621.5031126,796.4326457228201,798.3669478641634,804.8193474673164,792.6714856970277
1731017621.5070148,800.387339926672,799.9591342840915,804.7542483796145,796.0222416901748
1731017621.5074365,803.843420836177,802.2630287131374,804.8466916071981,801.8254525103976
1731017621.5109172,805.8584184108469,805.0769110271225,805.895969869727,809.8645585559589
1731017621.5148196,806.3913866118027,808.2861588522134,808.1201398686756,818.9442708214735
1731017621.518722,806.168201275322,811.7830879716521,810.9401343583403,827.0657102548428
1731017621.521979,805.9675834549462,815.2301929721998,813.2581846682028,831.8965661126008
1731017621.5226245,805.9815478057055,817.9669805621885,814.0600897383662,831.6264469673235
1731017621.5230324,805.8068374067589,819.2667503207406,812.9673762336527,826.0059846582093
1731017621.525421,805.0463388779551,818.7997757595391,810.4211134210824,816.963325336113
1731017621.5265267,803.9518262245214,816.8943266615148,807.4125142095228,808.1399028735603
1731017621.5304291,803.4790229124578,814.3077043910861,804.9344444504164,803.259261602441
1731017621.5343316,804.6183008558269,811.6649393945239,803.4879068660476,804.1498362442164
1731017621.538234,807.5295652200599,809.0802253831739,802.9450828526633,809.7267455106561
1731017621.5386286,811.2702554277358,806.3540636164387,802.8298054352161,816.7262828171473
1731017621.540871,814.4544569528068,803.5882156050371,802.771944525438,821.7550526155203
1731017621.5421364,816.3418508584214,801.5967744311185,802.7677225412448,823.2493279926888
1731017621.5460386,817.3947946828283,801.6068968627592,803.0535725001679,822.0372757208461
1731017621.5499413,818.765924788248,804.3744725211923,803.7341099518334,820.2604637280745
1731017621.5538435,821.1588242748534,809.4007281936825,804.5106541966362,819.5924283877806
1731017621.5542247,824.1070009983737,814.9047170758403,804.7663428160753,820.1016326157492
1731017621.557746,826.3242363014372,818.6374089126464,803.9633189020302,820.4797454861422
1731017621.5597622,826.7679450624388,819.028746899685,802.0518580561132,819.254564713319
1731017621.560473,825.432598831721,815.9746063460499,799.5856732133844,815.9564616803846
1731017621.5616484,823.2343235750145,810.8282519885604,797.4690311905273,811.464202994523
1731017621.5655506,821.2404964705593,805.6262569224218,796.5203698627483,807.5105053638935
1731017621.569453,820.0238596761866,802.0050088950836,797.1164347128571,805.8251500466231
1731017621.569821,819.6322642990236,800.4527930409015,799.0667522185978,807.35987624216
1731017621.5733554,819.9650485345323,800.3488515492129,801.7188446007603,811.8159017108534
1731017621.577258,820.982624456184,800.7113235344808,804.2293991913477,817.6252290273977
1731017621.5786536,822.4699690683476,801.0507900029082,805.9132773987798,822.5129534315278
1731017621.5811603,823.6625294909489,801.6404802951636,806.5271942521022,824.5164598682315
1731017621.5850627,823.2900470579093,803.0019279481148,806.3190870807705,822.9456456475095
1731017621.585417,820.2320282878732,805.1014873696492,805.7924929290863,818.6622757936002
1731017621.5889647,814.3588234412964,807.0489879836264,805.3524666456766,813.4671550967821
1731017621.5928674,806.8712623600536,807.6699057716247,805.1052244076257,809.0186431434927
1731017621.5955253,799.8152847296202,806.5113588279548,804.9452852432904,806.0264929836569
1731017621.5967698,795.0842488080738,804.3714384443209,804.8018356020158,804.2114718768865
1731017621.5975451,793.5414919744254,802.7873318982266,804.7870241216493,802.9229030611526
1731017621.6006722,794.6983611747881,802.8246226372045,805.1133774816232,801.8425468590874
1731017621.6010132,796.9988638774735,804.1752907217874,805.8842152023835,801.2127889370356
1731017621.604575,798.5557503905784,805.3590407050904,806.9659239818001,801.4765427127967
1731017621.6084769,798.1100076159119,804.8789053396961,808.0476218096424,802.7356326418474
1731017621.6123793,795.8231502184659,802.3610489300864,808.8260323691468,804.5858242282741
1731017621.6162815,793.3655284381629,798.7746606192849,809.1720830733317,806.5211827845792
1731017621.6164365,793.0142228211402,795.6797427355625,809.1658641424239,808.5252639445233
1731017621.616609,796.1695192242181,794.2304784565216,808.994830681847,811.2125246161954
1731017621.6201842,802.2867126751182,794.6786302015034,808.8176824852222,815.227984618444
1731017621.6240866,809.06401201748,796.5278666306392,808.698674197077,820.302838510121
1731017621.6279888,813.8216600815288,798.9728835195895,808.626870594247,824.8052970699462
1731017621.630577,815.0746732648884,801.2383228876207,808.5676584224602,826.3800652700006
1731017621.6318913,813.1606021344476,802.7389374249498,808.4984644585097,823.4371371189344
1731017621.6322055,809.581091327858,803.1941906449196,808.4161889419784,816.4548130859508
1731017621.635328,805.7554471762857,802.7554341512606,808.3281040499083,808.0099633574636
1731017621.6357937,802.2546494070807,802.0058760035568,808.2414189956636,801.3299773920683
1731017621.639696,798.9986839566666,801.6678607864658,808.1588202885904,798.3535027655597
1731017621.6435986,795.9502557443974,802.1015847840663,808.0793760168464,798.7577527052856
1731017621.6475008,793.456484931058,802.9738146609396,808.0011836661592,800.6452523114352
1731017621.647802,791.9425806231204,803.454514204942,807.9231138729508,802.1997594427444
1731017621.6514032,791.4558453359634,802.8787243628235,807.8450763448424,802.8779937471082
1731017621.6542196,791.6197353989498,801.3520825620657,807.7674845149215,803.2606730371268
1731017621.6553056,791.9579820355433,799.7603650641922,807.6907103224981,803.9460364095727
1731017621.659208,792.18655060726,799.1408927360516,807.6148754272602,804.6391779439278
1731017621.6631105,792.2611688876085,799.9321919472765,807.5399174866958,804.2746734636769
1731017621.663398,792.261646854276,801.7062008619531,807.4657332482451,802.039261854361
1731017621.6656296,792.2690785378733,803.5420258227774,807.392265247678,798.4073158234512
1731017621.6670127,792.313706549365,804.671365811394,807.3195100944118,795.2853409959553
1731017621.6709151,792.384757888846,804.8860850461931,807.2474878747844,794.9995515259484
1731017621.673111,792.4604531539982,804.4890142239851,807.1762139598837,798.7053469305624
1731017621.6748176,792.5278328198887,803.9507333701953,807.1056894619459,805.3246162745419
1731017621.67872,792.5857850235672,803.5880659414963,807.0359056696344,811.9156957458329
1731017621.6789942,792.6389502190942,803.461081657517,806.9668517210789,815.424960632359
1731017621.6826224,792.6915095525918,803.4671678438925,806.8985188752778,814.659245791048
1731017621.6865249,792.7448033712133,803.4861563290344,806.8309006539957,811.0061598138428
1731017621.6904273,792.7980837110483,803.4605076596384,806.7639911219826,807.3420882017058
1731017621.6920023,792.8501435571045,803.3939553628477,806.6977834439405,806.001877248098
1731017621.6943295,792.9003048843148,803.3137145376928,806.6322694648796,807.3667265740764
1731017621.6945903,792.9485136793335,803.2399163028513,806.567439995744,809.9968445677391
1731017621.698232,792.9949917683999,803.1770102675921,806.503285227288,811.9734965044793
1731017621.700682,793.039915858759,803.119904631004,806.4397949444352,812.3273378146865
1731017621.7021344,793.0833090996416,803.0625793834877,806.3769585252726,811.5711584079725
1731017621.7060368,793.1250919197579,803.0023725901862,806.3147648527952,811.088372674786
1731017621.709939,793.1651692681231,802.9397260105053,806.2532022493377,811.8982446396748
1731017621.7101865,793.2034780615438,802.8761371062711,806.1922584671084,813.7170601850172
1731017621.710894,793.2399868432013,802.8126194747712,806.1319207144653,815.024939821761
1731017621.7138414,793.274675351741,802.7493437054034,806.07217568717,814.100086479801
1731017621.717744,793.3075210993601,802.6860100272871,806.0130095885957,810.2240681722845
1731017621.7216463,793.3385022003058,802.6223026992444,805.9544081392041,804.152442122924
1731017621.7255487,793.3676078192683,802.5580956137042,805.8963565824223,797.6079538253655
1731017621.7257826,793.394838589221,802.4934223714048,805.8388396925127,792.3616183618016
1731017621.7294507,793.4201841825993,802.4283635799484,805.7818417858688,789.6445977139946
1731017621.7297854,793.4435866250869,802.3629688370032,805.7253467344702,790.074348104723
1731017621.7333534,793.4649283659344,802.2972426281813,805.6693379798566,793.6722989212694
1731017621.7357342,793.4840962843695,802.2311673516384,805.613798546832,799.6201715126929
1731017621.7372558,793.501128145265,802.1647288865568,805.5587110569641,806.0459865560712
1731017621.7411582,793.5163366022551,802.0979271339277,805.5040577422541,810.4876759981443
1731017621.7413788,793.5302001097272,802.0307709726968,805.4498204592495,811.1546506774336
1731017621.7450607,793.542870269775,801.9632652456011,805.3959807036423,808.1685925403016
1731017621.7486768,793.5535034680252,801.8954000684539,805.3425196252645,803.689453363851
1731017621.748963,793.560156051721,801.8271536406506,805.2894180433801,800.6425299654296
1731017621.7528653,793.5611446433555,801.7585155435681,805.2366564622241,800.9143332680334
1731017621.7567675,793.5578426211499,801.6895215248148,805.184215086778,804.3017428064596
1731017621.7569747,793.556768112455,801.6202655097605,805.132073838792,808.8728673276248
1731017621.7606702,793.5670361393326,801.550843017495,805.0802123730537,812.3481390018692
1731017621.7645726,793.5908762358653,801.481218260451,805.028610093887,813.4700732881415
1731017621.7675683,793.6122538173229,801.4111069036719,804.9772461718698,812.472884063733
1731017621.7684753,793.5990135666402,801.3400652534967,804.9260995607451,810.4799818549513
1731017621.7707863,793.5376507590969,801.2679296884335,804.8751490145141,808.4251683761426
1731017621.7723773,793.5066257838453,801.1954320143155,804.8243731046956,806.4029656365437
1731017621.772571,793.7649626539869,801.1243295989743,804.7737502377395,803.9742022378337
1731017621.7762797,794.7923172898564,801.0562174471366,804.7232586725817,801.1124866079341
1731017621.780182,797.1711883246413,800.9900004230603,804.6728765383274,798.8254335540618
1731017621.7840846,801.2257079207815,800.9199220829546,804.6225818520468,798.6661333019796
1731017621.7864597,806.5462887089668,800.8377515460511,804.5723525366692,801.3607956125725
1731017621.787987,811.826778655672,800.7414578439294,804.5221664389594,805.7578732544797
1731017621.7881672,815.3959529855028,800.6463454064625,804.4720013475633,809.2351386618753
1731017621.7918892,816.2493010369218,800.5856591678496,804.4218350111117,809.4802477546065
1731017621.7957916,814.7986988770983,800.5855993937498,804.3716451563765,806.2610426807076
1731017621.799694,812.6655717625068,800.6164704834562,804.3214095064666,801.6859007412003
1731017621.8035965,811.6214553441441,800.5573193093758,804.271105799045,798.6885800902977
1731017621.8037636,812.4503170212231,800.2372098839966,804.2207118045288,798.9339773515655
1731017621.8053513,814.4790281815201,799.5758672808026,804.1702053442303,801.7430462148722
1731017621.8058388,815.9904750844952,798.7271220380749,804.1195643084329,804.7392313001925
1731017621.8074987,815.2245104641268,798.068496827141,804.0687666744608,805.6013250382535
1731017621.8114011,811.4004239971649,798.0261084101344,804.0177905248471,803.6155782489672
1731017621.8153036,805.1528769224724,798.9095982895655,803.9666140656485,800.0312639678453
1731017621.819206,798.0731395152424,800.8650412560227,803.9152156447207,797.1490716175629
1731017621.8193598,791.6887411284273,803.8434147047318,803.8635737694821,796.8845235949916
1731017621.8231084,786.7073086148571,807.4859654237993,803.8116671236928,799.7302003225467
1731017621.8242426,783.1130636070076,811.0508234118108,803.7594745834368,804.6108074631072
1731017621.8270109,780.8721293877466,813.594737969339,803.7069752337437,809.5260420365722
1731017621.8309133,780.4167162699728,814.4035108152904,803.6541483880845,812.5269040630159
1731017621.8348155,782.3433856146278,813.3853341728174,803.6009736115552,812.5588486093407
1731017621.834956,786.5841530911638,811.1418448361678,803.5474307440634,809.8648095778165
1731017621.838718,791.8798603283888,808.6990704896336,803.4934999146961,805.8166268254339
1731017621.8408911,796.1988642989222,807.0969244343834,803.4391615393016,802.2290156338903
1731017621.8426204,797.9726077689492,807.0123819565484,803.3843963068654,800.4590203928095
1731017621.8431342,797.27728265049,808.4747841742893,803.3291851836517,800.8030283109803
1731017621.8465228,795.9739895508665,810.7431481458502,803.2735094763538,802.5934383453969
1731017621.8504252,796.5015053233367,812.5155266993324,803.2173509640864,804.8757143638551
1731017621.850552,800.0600348223276,812.5693708902456,803.1606920216508,807.0348943308481
1731017621.8543274,805.5200568915319,810.5781289064703,803.1035155658961,808.8290692252808
1731017621.85823,809.978601670658,807.4998856807968,803.0458046906715,809.967326325485
1731017621.8620255,810.6940774386211,805.0532398597518,802.987542129683,809.8982919394208
1731017621.8621323,807.0640493494544,804.4845884641369,802.9287101211066,808.2187832747245
1731017621.8660347,801.2183977699001,805.55058875618,802.8692914245207,805.3356533609626
1731017621.8661482,796.7742173268437,806.6344910786264,802.8092715607596,802.594672108525
1731017621.8699372,796.6000934149939,806.0217729560364,802.748640660667,801.5204033473516
1731017621.8738394,801.0964903857231,803.3212480090401,802.6873917356673,802.6787383424786
1731017621.8759434,808.0757555192796,799.8295112480978,802.6255131563146,805.1229786651274
1731017621.8777418,814.2065589113229,797.5346523239037,802.5629786074722,806.97151010874
1731017621.8809173,817.0015043803337,797.6252906925412,802.499745792349,806.7523413018523
1731017621.8816442,816.0823588110912,799.7364395194305,802.4357773918108,804.526311027266
1731017621.8817444,813.0113128712311,802.4348958915971,802.3710833490946,801.9591744662945
1731017621.8855467,809.9422001283933,804.3645065088734,802.3057513152177,801.2779617082211
1731017621.8894491,808.1298058117841,805.0436524894764,802.2399053061102,803.8212130994967
1731017621.8933513,807.3913508509994,804.8316947641412,802.1735574550737,809.1542466245942
1731017621.8972538,806.8285561129961,804.4113541877747,802.1064265654344,815.3277859805945
1731017621.8973403,806.0724874214676,804.4051651429351,802.0379431973397,820.0799380155316
1731017621.8998086,805.8999247201452,805.3028210539311,801.9676813291421,822.1454325473571
1731017621.9011562,807.6544779602975,807.3862452521772,801.8961549036625,821.8020335065988
1731017621.9050586,811.9531285844458,810.4296727416411,801.8253051735649,820.3758479976655
1731017621.9089613,817.7694327568668,813.4464901673083,801.7575596415707,819.1767319134909
1731017621.9109955,822.7061654220902,814.9460875781597,801.692933950445,818.6703400005812
1731017621.9128635,824.381258840286,813.7451028289893,801.6257879466749,818.4120780710138
1731017621.9129367,822.0213206374817,809.8039529768536,801.5454754736094,817.6531086191608
1731017621.9167657,817.1396102329687,804.4514612007928,801.4450549726646,816.0639005611927
1731017621.9187,812.7130790111844,799.800902966927,801.3359267349277,814.0117078777313
1731017621.920668,811.2711054033266,797.717717978671,801.2544744088111,812.2222139990855
1731017621.9245706,813.1571312340565,798.9470590457965,801.2461231428624,811.1374130043142
1731017621.928473,816.2696949531388,802.8552039256053,801.3467780051728,810.5080099521197
1731017621.9285328,817.6039173382577,807.8529632618037,801.6118275483792,809.5656537913006
1731017621.9323754,815.4990385548649,812.1999130788789,802.1767461275939,807.6391747910728
1731017621.9362776,810.8310334493469,814.735291750782,803.2255450484392,804.6957249153633
1731017621.9375916,806.2009962239396,815.2012834152964,804.7936232932157,801.3619726928318
1731017621.94018,803.8567712457681,814.0994526682024,806.5418855953319,798.4646039101013
1731017621.9440825,804.1195306271082,812.2611561011013,807.749695399685,796.5395744451364
1731017621.944129,805.5168588460157,810.40481013465,807.6295924402395,795.683538002417
1731017621.9460478,806.2551327078678,808.901702008182,805.7973400410085,795.7072199628885
1731017621.9479847,805.6048220261736,807.8299506575846,802.5717910471216,796.3148877751797
1731017621.9518874,804.1110684429506,807.2140764192328,798.8647013808169,797.1859121454136
1731017621.9557896,802.7713787339944,807.204896255428,795.708514794831,798.0412213859609
1731017621.956483,802.1580706990915,807.9760967821607,793.7493856287913,798.731526420057
1731017621.959692,802.197091270502,809.3669665956007,793.0567820088404,799.2622078665762
1731017621.9597251,802.5008230923612,810.6341289364816,793.3273006933941,799.7210711298093
1731017621.9635944,802.7544977114558,810.7378761185273,794.2373172882994,800.1863043864581
1731017621.9674969,802.860109787304,809.1622062191184,795.6251903476247,800.6863108708894
1731017621.9713993,802.8704217347129,806.6354087543172,797.3968153826853,801.2114005363065
1731017621.9753015,802.8688586796189,804.9502929321519,799.3177160273209,801.7419180385265
1731017621.9753215,802.8995264314359,805.74547091293,800.9415992325871,802.2663319310603
1731017621.9753745,802.9619593665952,809.1092108310019,801.7838180377161,802.7838595956881
1731017621.979204,803.0367965443929,813.2192530883418,801.6155134050944,803.2988549730585
1731017621.9811,803.1086510578608,815.4757512456192,800.62498767248,803.8151786644723
1731017621.9831064,803.1734648633028,814.3301675728825,799.2856607945332,804.3340834294415
1731017621.9870088,803.2345935263618,810.3866809344207,798.0263996064673,804.8549335662358
1731017621.9909112,803.2964912692594,805.9311435398032,796.9948966457971,805.3766934311
1731017621.9909177,803.36130978097,803.3177650850948,796.129133511771,805.8988167502017
1731017621.9942658,803.4288744235056,803.4945597375403,795.443765445039,806.4213229238946
1731017621.9948137,803.4981268231039,805.6827956108735,795.1981915267522,806.9444762959694
1731017621.998716,803.5682961011971,808.1981164886295,795.7170925041952,807.4684949389574
1731017622.0026183,803.6392214071728,809.5897989249206,797.0120951699865,807.9934534634766
1731017622.0065138,803.7111082742641,809.2923202881526,798.6122566431168,808.5193293260888
1731017622.0065207,803.7841946652453,807.5883768654222,799.8420613734886,809.0460821537671
1731017622.0104232,803.8585880464594,805.2010335249047,800.3299301273786,809.573699651835
1731017622.0131574,803.9342781021895,802.8863368867387,800.2674628175375,810.1022034860268
1731017622.0143256,804.0112148655404,801.1555121811592,800.1729515269619,810.631635383617
1731017622.0161524,804.0893613928815,800.0944941708253,800.4135641181878,811.1620384337089
1731017622.0182278,804.1686986429731,799.3082037193598,800.9749004824344,811.6934361113956
1731017622.02211,804.249210448328,798.1127082106436,801.6788307897306,812.2258127338256
1731017622.0221305,804.3308853908196,795.9967275077669,802.5563260781554,812.7591143817021
1731017622.0260327,804.4137462991642,793.0984767457279,803.9232654874224,813.2932972246264
1731017622.0299351,804.4978761197134,790.2887476886433,806.0468040769575,813.8284216331714
1731017622.0320487,804.5833814712838,788.6726739845141,808.7390025800153,814.3647201431833
1731017622.0338376,804.6702618551997,788.8114404280055,811.2900285540751,814.9025066421923
1731017622.037706,804.7582546065962,790.2771000684936,812.8162953656968,815.4418470752242
1731017622.0377398,804.8468539245176,791.935664866903,812.7423421009254,815.9821527600071
1731017622.0416422,804.935709171735,792.7462488434178,811.0922152900978,816.5221843070364
1731017622.0455446,805.0253259122137,792.4236248804032,808.4790495084927,817.0610052277442
1731017622.0494473,805.1174508468039,791.471423958763,805.8770971157584,817.599759070974
1731017622.0509405,805.2141609650417,790.6926391053426,804.2988322824128,818.1427792724074
1731017622.0512047,805.3152620935504,790.701680734108,804.4552364442412,818.695533020891
1731017622.0533023,805.4155363627116,791.7852873318365,806.4661106820822,819.2581877424346
1731017622.0533495,805.5056402565783,793.9614185622025,809.7281390667342,819.8183440648415
1731017622.0572517,805.5801919135695,796.9060234692213,813.066256044776,820.3523883737201
1731017622.061154,805.6508323924024,799.7766197013138,815.1980179083574,820.8449168735635
1731017622.0650566,805.7518854810522,801.3570823916094,815.3331532511673,821.3219175153571
1731017622.0688984,805.9206118759832,800.761520310522,813.5666133894588,821.8675714108956
1731017622.068959,806.1471891547122,798.2515416457056,810.7968527158064,822.5780516529531
1731017622.0698316,806.3273668171183,795.3383826637736,808.2139951412296,823.4344649353993
1731017622.0728614,806.2913859125913,793.8518415820959,806.7051620391436,824.1679443631698
1731017622.076764,805.9720309872696,794.6509384565696,806.5469016927723,824.2889497905152
1731017622.080666,805.6635888109755,797.0713043467043,807.4873054451373,823.4140306402254
1731017622.0844946,806.1512563296108,799.550276468704,809.0240970517244,821.7314252650444
1731017622.0845685,808.4315612710517,800.807747557325,810.6237398116435,820.10926564628
1731017622.086257,812.9783271165447,800.5703451671205,811.8054129070481,819.4828592975058
1731017622.0884707,818.9656364954625,799.4067802287532,812.1970231286331,819.8754774492986
1731017622.0887232,824.1462135302995,798.0840186343094,811.6570133441879,819.9736343693897
1731017622.0923734,825.791487419667,797.121914697606,810.399587701636,817.8308755638061
1731017622.0962758,822.296282885404,796.8049124585472,808.9813919274962,812.2638469313994
1731017622.1000907,814.3947295275386,797.3682465823028,808.1045589732342,803.8372259363206
1731017622.100178,805.0639291761803,798.9748210089036,808.3310199021362,794.6586050709789
1731017622.1040804,798.044681517424,801.4598941571895,809.8229062003195,787.1931919963562
1731017622.1076148,795.829269126632,804.186510793139,812.1647505420569,783.0399034985977
1731017622.1079829,798.3492732293116,806.3026656195472,814.3458805511501,782.4725253254977
1731017622.1118853,803.2241395176554,807.2746245262706,815.0630693119125,784.7931818041549
1731017622.115687,807.4563797059468,807.2439281411102,813.394971399402,788.9593398050891
1731017622.1157875,809.4236662984854,806.8746517176402,809.5163623839508,793.9993628217371
1731017622.11969,809.72064094663,806.8087053742598,804.8380825781088,799.1445726899613
1731017622.1213093,810.255237190669,807.188883050514,801.254000528203,803.8250314452554
1731017622.1235924,812.4144203652806,807.6315044873888,799.9447853779142,807.5961398162334
1731017622.126506,815.8560976528187,807.6325662389235,800.6883488558252,810.0178713337968
1731017622.1274948,818.8773447806814,807.0450911367557,802.266648198812,810.6422651089648
1731017622.131283,819.9201504763602,806.2495668017802,803.6082271836882,809.2873310561804
1731017622.1313972,818.8594584263407,805.9126697812575,804.6625712439209,806.4694347283028
1731017622.1352997,817.0313942984958,806.5291196034091,806.2731712339797,803.5334212280098
1731017622.139202,816.1180571217728,808.056127525508,809.2238454524199,802.1418353687283
1731017622.1431043,816.9114361082077,809.8638591007038,813.325212705414,803.3473803938255
1731017622.1453977,818.8786039766859,811.0387908303625,817.3000193527105,806.90923425458
1731017622.1468794,820.6200645704566,810.8821374523579,819.5113726286734,811.3679509557072
1731017622.1470068,820.6717136102228,809.3156307782699,818.9435897796252,814.8309769171184
1731017622.1509092,818.156455944502,806.9274100279613,815.7685051285584,815.9661071144072
1731017622.1548116,813.1691975252487,804.6052400192692,811.2225850341802,814.6447146697424
1731017622.1563616,806.8772114988836,803.0063372035542,806.9763284882395,811.921209923555
1731017622.158714,801.1555901003769,802.2567369345043,804.3984449294808,809.3814940859056
1731017622.1624756,797.6764079402656,802.08537031233,804.0663236618117,808.2271293868544
1731017622.1626165,796.8939387512318,802.2108140102885,805.6725725998643,808.6495947148302
1731017622.164289,797.7454023783921,802.586587755441,808.2727968560552,809.8999917542773
1731017622.1665187,798.4724834985597,803.3035223878339,810.7108973432748,810.9659327582509
1731017622.1704211,797.9550131195983,804.3354782560903,812.0488731813953,811.2919882236142
1731017622.1743236,796.3824727773625,805.4582382387183,811.8540079145547,810.9884258236684
1731017622.1780715,794.7424316747151,806.4237729914025,810.2362270724911,810.4901655751925
1731017622.178226,793.8150441372809,807.1582908291864,807.6407346972982,810.1192393388908
1731017622.1821282,793.680876962585,807.7493849947365,804.5750288160849,809.9602833945482
1731017622.1831806,793.9542285373693,808.2586729174179,801.5028706315617,810.0007000021927
1731017622.1860306,794.2388103767156,808.5909038025586,798.9309970095912,810.1928525266322
1731017622.1899333,794.364749221755,808.5694352535826,797.4365435154043,810.2821779729493
1731017622.191414,794.3602075815551,808.1486494376886,797.4059727072696,809.6360915361206
1731017622.193668,794.3190949014291,807.5687027481357,798.6341293166341,807.419878534294
1731017622.1938355,794.3043121533515,807.3023835931444,800.2377263556951,803.1553490638059
1731017622.197738,794.3259250950265,807.7855967359382,801.1419246715259,797.2838521386153
1731017622.20164,794.3649215776964,809.0698678897736,800.825876857296,791.2602146290827
1731017622.202072,794.4016331045373,810.6225201690613,799.6687086685351,787.0219343153154
1731017622.2055426,794.4283750378991,811.4688455497002,798.5520991282696,786.1060066734832
1731017622.209264,794.4473966951357,810.6867864011975,798.087111007046,788.8857512889869
1731017622.209445,794.4637952573374,807.9994442964743,798.2088286440975,794.3211245927507
1731017622.2133474,794.4806917091945,804.0641933273341,798.4997031249246,800.3911112182358
1731017622.21725,794.4983930050456,800.2107259358675,798.8410748948982,805.0693073457732
1731017622.2209637,794.5157910450881,797.7728229289924,799.6529175828613,807.3645584995669
1731017622.221152,794.5318489560442,797.4681486502484,801.4249098120363,807.80150122989
1731017622.2248602,794.5461962371779,799.2191253728976,804.0045863405207,807.9959731046616
1731017622.2250545,794.5589690303857,802.4315021125896,806.401921416752,809.5711254135372
1731017622.226466,794.570425753244,806.4082619297302,807.3911912222869,813.1110183142977
1731017622.2289567,794.5807063641511,810.5666054814101,806.4123741466499,817.8097638755872
1731017622.2328594,794.5898038033363,814.4037688402237,803.9648234057053,822.0026940742868
1731017622.2367618,794.5976444958688,817.4246732121431,801.1541353962496,824.209337807953
1731017622.2398548,794.6041654490825,819.244162472824,798.8382286998965,824.0231956136424
1731017622.2404563,794.6093417297676,819.8244699023367,797.1485449542698,822.3077009309992
1731017622.2406642,794.6131754599796,819.575196191309,795.7391125029593,820.6129659024193
1731017622.2445664,794.6156751622065,819.1063487448062,794.4049142484855,820.2265371798085
1731017622.2484689,794.6168438744501,818.7722672513152,793.4220043233846,821.486804199358
1731017622.2523713,794.6166784713245,818.4174572733216,793.3177357579445,823.7702354892156
1731017622.2560525,794.6151742348089,817.5860081690754,794.3553600570242,826.0676754076652
1731017622.2562735,794.6123288334715,815.9965554971404,796.2439244715572,827.6614840756897
1731017622.2587464,794.6081435691494,813.8260967289386,798.3092123486593,828.4091387888699
1731017622.2601762,794.6026226782815,811.5826038306836,799.9186945679729,828.510063079849
1731017622.2615182,794.5957722397334,809.7727176650038,800.7746288410143,828.0577650142328
1731017622.2640784,794.5875995960273,808.687595205211,800.8943028543141,826.8224250681404
1731017622.2679808,794.5781133484961,808.3836414259509,800.4280281319625,824.4834175020256
1731017622.2716486,794.5673235897443,808.7126293428596,799.577215002803,821.1232497851297
1731017622.2718832,794.5552420906835,809.3134337271637,798.6788003290712,817.5157780306503
1731017622.2757857,794.5418823754934,809.6460953619882,798.2659548364911,814.8412739509902
1731017622.2776375,794.5272597496867,809.1585739138417,798.9038480231275,813.9275524582049
1731017622.279688,794.5113913195061,807.5350469099881,800.8520855842073,814.5910203985569
1731017622.2835903,794.4942959313535,804.8819704420256,803.8325461873395,815.6697118583285
1731017622.2872448,794.4759939185084,801.7504877094585,807.1206339221071,815.8028519956441
1731017622.2874928,794.4565066944369,798.9841646890553,809.8940112356211,814.3671776421302
1731017622.2913952,794.4358565495022,797.4327697592082,811.5716208082896,811.8244296041714
1731017622.2952976,794.4140672083721,797.5976268847776,811.9526662793353,809.2194471872025
1731017622.2965293,794.3911653370208,799.3181395783619,811.196496262236,807.2611908521003
1731017622.2965703,794.3671820450157,801.6670832081185,809.7846665444447,805.728745878087
1731017622.2992,794.3421521577245,803.2219261029182,808.4711147813633,803.652424979617
1731017622.3028407,794.3161093169346,802.7319590986752,808.0690947934964,800.113363822729
1731017622.3031025,794.2890784554146,799.9052378736067,809.0199041491409,795.0622498846947
1731017622.3070047,794.2610730577727,795.7828248408937,810.9958293687017,789.5594408756718
1731017622.3109071,794.2321074928782,792.2624859281087,812.932660377766,785.2385599023204
1731017622.3148096,794.2022264341189,790.9013364823815,813.6028332253992,783.3310534124649
1731017622.3154206,794.1715312140817,791.8024882458848,812.3574899615342,783.9215853265953
1731017622.318437,794.1401606786984,793.5089411312375,809.4895915427603,785.9683562116132
1731017622.318712,794.108193954864,794.0983598375791,805.9937626890814,788.056179535233
1731017622.3226144,794.0755128297426,792.6474901167107,802.9821250406859,789.2885628638371
1731017622.3265166,794.0417701570092,789.8865644101472,801.1992897247272,789.6643791662734
1731017622.3304193,794.0066507963639,787.5694250306228,800.876058323304,789.7647885884618
1731017622.3316228,793.9704337432897,787.1670373239793,801.8501792662572,790.1229137777585
1731017622.3340335,793.9344377500528,788.9350275438015,803.7418221969912,790.791349261966
1731017622.3343122,793.9005480173018,791.9315601931198,806.0442812406868,791.3499126154647
1731017622.3343215,793.8692929529126,794.780182171629,808.1503601254506,791.2489480550773
1731017622.338224,793.8373434088148,796.5619009648003,809.4341869384945,790.2294312873934
1731017622.3421264,793.7973037921943,797.2944711890514,809.4618712014594,788.5949075370613
1731017622.3460286,793.7431396267261,797.7630490744797,808.2457414537962,787.2027170350849
1731017622.3496296,793.6808307380333,798.8348687187439,806.3391034119549,787.1381145589384
1731017622.349931,793.6357026577256,800.7332294734236,804.6316746995059,789.1668087506387
1731017622.3532038,793.6413941901848,802.8388483096137,803.9162957412005,793.2263316316323
1731017622.3538334,793.7022065884114,804.2128336788195,804.472161443966,798.2976108978613
1731017622.357736,793.748466073563,804.3965163325677,805.9073357065831,802.8416486386845
1731017622.3616383,793.6411646249153,803.7539242872134,807.3452398758376,805.6037654191349
1731017622.3652258,793.2864827118838,803.0610522599601,807.8529638573916,806.264707869581
1731017622.3655405,792.8455685350709,802.8037216226654,806.9019069626925,805.4954667796518
1731017622.3666751,792.8797253857532,802.9024779248149,804.651028597564,804.4411866616109
1731017622.3694427,794.1866353488263,803.0649253267394,801.9202413528039,804.0786992165927
1731017622.372095,797.2515903967384,803.2785689632653,799.845747761395,804.8570854317394
1731017622.3733454,801.644746045045,803.8582097800738,799.3574787019567,806.6518320685061
1731017622.3772478,805.9456150678479,805.0080600329785,800.7275554528754,808.8236643804648
1731017622.380822,808.463589455291,806.4186168665925,803.4149690023245,810.3212393702929
1731017622.3811502,808.3256269686211,807.4014478215919,806.2727833707594,810.0146204681407
1731017622.3850524,806.1085833149115,807.5027282814151,808.0217040220583,807.3537794143754
1731017622.3889549,803.5353884408688,806.9998515639481,807.8287034759704,803.0126312472481
1731017622.3909867,802.4957885094176,806.7240364372925,805.7947621779101,798.9048672729956
1731017622.3928573,804.0781565672186,807.2765650452229,803.0786582024192,797.2776858161627
1731017622.396418,808.1201204916227,808.3478761741147,801.410034620134,799.3361581440043
1731017622.3967595,813.3636102721791,808.8540328218261,802.0815093161809,804.3660447815924
1731017622.4006622,818.0576976179673,807.8829455226553,805.0131284141139,810.0817239133735
1731017622.4017274,820.771558931521,805.6397961032413,808.6376518451044,814.0402698446175
1731017622.4045646,821.067551299934,803.5018863857852,810.835525733961,815.1236580656382
1731017622.4084668,819.6497762140071,803.063458689322,810.306197184043,814.0117439462323
1731017622.409878,817.8901068959734,804.938856047454,807.3676945148071,812.3619431970455
1731017622.4120142,817.0944091513435,808.2620781942812,803.6265512414946,811.4378502137318
1731017622.4123693,818.0177251663874,811.1955170281394,800.8514203025359,811.3191267540041
1731017622.4162717,820.7868014895885,812.0090431562954,799.9249687911554,811.2517358747181
1731017622.420174,824.9666163059369,810.0318916584173,800.5407551691363,810.6777127463805
1731017622.4240766,829.5269974557015,806.0149604922645,801.6601417249759,809.9204953524676
1731017622.4276104,832.871899167321,801.7924576849549,802.2536760532325,809.8833032858387
1731017622.4279788,833.3188962078847,799.3912464284814,801.828509445697,811.0761871101148
1731017622.4287696,830.0566169181416,799.9629500696806,800.5338223449351,812.9217849088859
1731017622.4318812,823.944399721904,803.0963895438811,798.926952615851,814.0101222676022
1731017622.4357836,817.3054721277648,806.981397217993,797.6110908863325,813.0805466120578
1731017622.4367795,812.5463078659193,809.4139040990826,796.9356367593754,809.8866863443744
1731017622.439686,810.5380330617209,809.035663025785,796.8601397790162,805.2928524436827
1731017622.4432063,810.1284249311643,805.9936625357907,796.996065911806,800.6558041755935
1731017622.4435885,809.3006727136652,801.6157758431524,796.7974241488316,797.0564634229127
1731017622.4474907,807.0198827255804,797.4324043316825,795.8502315196085,794.9127952388778
1731017622.4476607,804.1322008939046,794.3353932429142,794.1628636943018,794.1262038860287
1731017622.4513931,802.5326515534199,792.462466602187,792.2955819902427,794.5416046152067
1731017622.4552956,803.4032611380084,791.6952173269658,791.1793923687547,796.32215508515
1731017622.4588027,806.1150063434874,792.1046909548626,791.6324342154405,799.9045036813017
1731017622.459198,808.696541555834,793.8237465459441,793.8197823762098,805.4996440310593
1731017622.4631004,809.3699651747479,796.5343155594137,797.0250009658292,812.4910167518398
1731017622.4665525,807.84733152282,799.2694137149426,799.9485675722252,819.2608680352599
1731017622.4670026,805.4281808026399,800.9554928946758,801.3861294771564,823.7374227412381
1731017622.4709053,803.9460557583916,801.3173344782081,800.8640190698861,824.4264636046505
1731017622.471832,804.425206187844,801.2794725201694,798.8662292234192,821.2843170407475
1731017622.4743989,806.4211788495082,802.3584330101376,796.5904339173774,815.8484679825481
1731017622.4748075,808.4639613849386,805.4353589857229,795.4118884836503,810.527747173161
1731017622.47871,809.215713729285,809.8981262812617,796.2763903776173,807.4817491594303
1731017622.4826124,808.4481319481355,813.8860893207019,799.2344446371891,807.7085865327819
1731017622.4854438,807.1101425034627,815.4781879131771,803.3627718775717,810.7506585434656
1731017622.4865148,806.4901728338458,813.9269313812132,807.2244333362005,815.0584926684724
1731017622.4899952,807.196497569969,810.0721494394176,809.6702887551141,818.7744807771574
1731017622.490417,808.7761408075878,805.7480305503526,810.4524911389929,820.5780369605185
1731017622.4943194,810.1975550945282,802.6834690833994,810.2165724136543,820.2299931148153
1731017622.498222,810.689585067172,801.6150749760202,809.9421275990833,818.5665918875969
1731017622.5021243,810.2066244261996,802.0967201530909,810.3108395702108,816.9388826311751
1731017622.5043354,809.2160603999918,803.0435471496737,811.4115105312059,816.3903652473055
1731017622.5055914,808.1410631475744,803.6071591803227,812.8236359688362,817.0432475230399
1731017622.5060267,807.0675008041196,803.7584424387877,813.8934064015009,818.0827248832647
1731017622.5068843,806.0031953440392,804.1547961114632,814.0535418945339,818.3804406651574
1731017622.5099287,805.3357996984537,805.4257454398395,813.1065972332462,817.3485412574572
1731017622.5138314,805.7914852751977,807.497093012036,811.3524656900125,815.3785494616554
1731017622.5177338,807.6246390675868,809.5392377667863,809.453943651117,813.4615165574291
1731017622.5211875,809.7174448859382,810.573950620647,808.1142016007338,812.2299313577485
1731017622.5216362,809.7491928361308,810.2101784142761,807.7868864523944,811.2208625126354
1731017622.5232267,805.8258558450691,808.9152878146368,808.5381479736945,809.0972912859819
1731017622.5255387,798.4320846529027,807.669804453013,809.9924406657047,804.8007523988406
1731017622.5294409,790.8373898199357,807.3388669760911,811.3380654725661,798.7109368917012
1731017622.5333433,787.182535306928,808.2100387780072,811.5664106461504,792.7097030226942
1731017622.5367837,789.5781936144579,809.9150917746596,810.0446371699429,788.9436259935133
1731017622.5372458,796.6238608324203,811.6810158946765,807.0922896799754,788.3378264840023
1731017622.5411482,804.6190742535074,812.739830891732,803.9865144257072,790.2324326180658
1731017622.5419364,810.396591541705,812.7168169063565,802.2232757370032,793.4080619132736
1731017622.5421183,813.3710409548327,811.8237810375641,802.5700258470023,797.3340402216354
1731017622.5450506,815.2376661601044,810.7475084042671,804.6560607314889,802.2895061135845
1731017622.5489528,817.8436072224823,810.2850291370693,807.3230507650856,808.2931434549836
1731017622.5523798,821.1705168215527,810.9240041394052,809.31902917248,814.1014141962485
1731017622.5528553,823.0610265851924,812.5592437729669,809.8206123844697,817.4707246750905
1731017622.5567577,820.8097619851028,814.431244985256,808.630088015431,816.5772675938384
1731017622.56066,813.3408408578565,815.3357403379806,806.1606320936487,811.3723080038757
1731017622.5610096,802.3691959355262,814.157584312122,803.2628642344777,803.776974350461
1731017622.5645626,791.7383836041654,810.6084827455614,800.8565017293698,796.6679700119622
1731017622.567976,785.3718814100936,805.701997303471,799.4793064381672,792.4628428533075
1731017622.568465,785.1459011517644,801.4148530409299,799.0608066226748,792.1449164977734
1731017622.5723672,790.0032159924973,799.519399635178,799.1234521107016,795.0681205025338
1731017622.5762696,796.8192370324097,800.3724513913172,799.2432216058738,799.4406556495969
1731017622.5769887,802.4043971380361,802.6635235021714,799.3652265954854,803.198767694307
1731017622.5799012,805.3026979085535,804.4047159646068,799.7216320235541,804.9085990518784
1731017622.580172,806.2462354502458,804.4121162885314,800.4663401107853,804.3240869695355
1731017622.583572,807.1344676676805,803.1328642026766,801.376200084167,802.3724151611272
1731017622.5840745,809.4560770821743,802.2179983430967,801.902932127958,800.6101908611503
1731017622.5879767,813.3317866577871,803.2136768051823,801.5653047192513,800.4184264281142
1731017622.5918791,817.6833075678886,806.3743868617596,800.3632517222954,802.2841430723997
1731017622.5957816,821.1068398771383,810.4573491192928,798.8418569183276,805.4961759183905
1731017622.5987928,822.669613258411,813.5793822375625,797.7438750336343,808.4728578686471
1731017622.5991683,822.197397916223,814.4191145450513,797.5897872591668,809.6581276354074
1731017622.599684,820.1276493921094,812.8667311585502,798.5553285385731,808.518126116299
1731017622.6035864,817.1793851908443,809.7750573807375,800.6212096161828,805.9612557199064
1731017622.6074889,814.0135446554399,806.220994320208,803.6526550540202,803.8084654561021
1731017622.6113913,811.0181900299586,802.9716763929238,807.2514852255947,803.6384564411397
1731017622.612041,808.3428000233417,800.4753112391974,810.655535132575,805.8488791795868
1731017622.6147645,806.1395291173923,799.0987682711997,813.0272812225347,809.6099488189748
1731017622.6152935,804.7340642515715,799.1273955710847,814.0270284413638,813.65191463766
1731017622.617684,804.472356790273,800.4171428267977,814.1313583536747,817.1687587928834
1731017622.619196,805.3427967465776,802.1175322698203,814.2916519606832,820.1054010003432
1731017622.6230984,806.7763281740803,802.9546398292423,815.1492118651673,822.699711078473
1731017622.6270008,807.896044314794,802.0417261784442,816.487346754178,824.8129551886126
1731017622.6303606,808.0439192011842,799.5995514959784,817.4016249445582,825.7271071353107
1731017622.630903,807.1518277235174,796.9527113479086,817.0021953305804,824.624464387953
1731017622.6348054,805.7056711161565,795.7556910956943,815.0151437644618,821.3359046961781
1731017622.6365757,804.4183183912315,797.0034651015525,811.8462726310034,816.6954070873663
1731017622.638708,803.8890523790949,800.4657250389932,808.225621204197,812.1535069143339
1731017622.6426103,804.409509741664,804.8053357266382,804.8526847895367,808.907726367494
1731017622.6459568,805.8849254062493,808.2274213452577,802.2762403487669,807.2213315735088
1731017622.6465127,807.7722299746544,809.3188188560104,800.8948936101119,806.4668438040999
1731017622.6470933,809.0448007227054,807.7224806599517,800.878015619026,805.8105820039665
1731017622.6504152,808.3741928416254,804.3393193626441,802.0234402231503,804.8933156716301
1731017622.6543174,804.7373610321217,800.8969912982409,803.7703080792905,803.9355372178645
1731017622.655467,798.3332709425694,799.029516741634,805.493243207441,803.3258245569868
1731017622.6582198,791.1935240357824,799.351899597789,806.8904450801715,803.2123847953527
1731017622.6615531,786.7225689029519,801.1148390978082,808.1022203964401,803.4477143454736
1731017622.6621222,788.0048808937815,802.7132862971682,809.4152369101449,803.7878071245692
1731017622.6660247,795.7753026619274,802.7524858441428,810.8394130199666,804.0752628473492
1731017622.6699271,807.5201533225479,800.9650998030434,812.0034601438709,804.280341539117
1731017622.6738293,818.5416192883117,798.3623067443638,812.4783322802275,804.4441950186987
1731017622.6743586,824.3787749601167,796.5345547515659,812.1730142935476,804.611910134221
1731017622.6771493,823.0091648449419,796.5913752200215,811.3972356388941,804.8018353302565
1731017622.6777318,815.5758983177777,798.4484175938643,810.5808909513162,805.0092866951204
1731017622.6816342,805.524696839886,800.9194866609574,809.975196096281,805.2225913921338
1731017622.6821456,796.9010666279164,802.5287423806334,809.5838133514214,805.4343692063459
1731017622.6855366,792.6593147878983,802.4692191124834,809.2852863717518,805.6437051327616
1731017622.6894393,793.5353947363029,801.0397358575378,808.9730089508228,805.853044948277
1731017622.6927454,797.8098655324566,799.288318132025,808.6110043527422,806.0647609534177
1731017622.69325,802.1379339184022,798.1962581118516,808.2153606647016,806.2797213263741
1731017622.6933413,803.2665484906773,798.0704279724598,807.8142369019853,806.4976144411285
1731017622.6972437,799.8680215984065,798.5653171375385,807.4232985952142,806.717824814719
1731017622.701146,793.355846688695,799.152696200559,807.0430204666195,806.9399988166457
1731017622.7050486,786.9765703935282,799.5291056774109,806.6670365785773,807.1641235456653
1731017622.7083416,783.657558260437,799.6855952643573,806.2900095071697,807.3903471629917
1731017622.708951,784.1388002898349,799.7520557454787,805.91037196827,807.6188003579555
1731017622.7121415,786.7925565663618,799.8390600988274,805.5291502008031,807.8495298584465
1731017622.7128532,789.1887421649172,799.9804918708913,805.1478380279272,808.0825216477995
1731017622.7167556,790.0505296599044,800.1563285756184,804.7671911593758,808.3177482206384
1731017622.717198,790.0248031087103,800.3359625550373,804.3871703444983,808.5551966095423
1731017622.720658,790.7935299198468,800.5033853210787,804.0074136902423,808.7948705917898
1731017622.7239375,793.4225513380251,800.6588742933036,803.627641057451,809.0367804135138
1731017622.7245605,797.3334918963575,800.8095367967769,803.2477764683197,809.2809336519143
1731017622.7284627,800.6401450197914,800.9609766439221,802.8678731936128,809.5273324384859
1731017622.7310328,801.484287793491,801.1146513825237,802.4880018017637,809.7759752572761
1731017622.7323654,799.3167664728343,801.2693271731704,802.1081932000786,810.0268594015278
1731017622.7362676,795.214774322814,801.4233859727049,801.7284404640554,810.279981581623
1731017622.739534,791.094626391706,801.5760574769454,801.3487217445312,810.5353366657934
1731017622.74017,788.4817038272201,801.7274191668032,800.9690132439081,810.7929164920425
1731017622.7440724,787.754232777188,801.8778668972916,800.5892881558326,811.0527112242937
1731017622.7479749,788.2960536354486,802.0276888002504,800.209518016876,811.3147140670899
1731017622.7499244,789.2144583479943,802.1769498492843,799.8296926969339,811.5789261840399
1731017622.7518773,789.941969768235,802.3255818917925,799.4498523589806,811.8453545836011
1731017622.7522502,790.3683974448526,802.4735053418481,799.0700924903589,812.1139967540264
1731017622.75513,790.6382082632877,802.6206881346832,798.6904932855601,812.3848169898373
1731017622.7557795,790.9115608158623,802.7671412206462,798.3109746896631,812.6577379357647
1731017622.759682,791.2541440761877,802.9128909525396,797.9311908568513,812.9326798578189
1731017622.7635844,791.6496217280906,803.0579605274723,797.5506714907137,813.209653835828
1731017622.7674868,792.0564829242201,803.202367002648,797.1693328067548,813.4888449005338
1731017622.7688158,792.4482898240395,803.3461229917694,796.7881054681092,813.7705509127809
1731017622.7707262,792.8215861137813,803.4892318411819,796.4089213879192,814.0548746869576
1731017622.7713892,793.1849461988464,803.6316780373529,796.0332278215235,814.3412896091149
1731017622.7752914,793.5467548547693,803.7734296066532,795.6592351953467,814.6285424131388
1731017622.779194,793.9100749908051,803.9144708209617,795.2802199329724,814.9154817097378
1731017622.7830963,794.2737682298555,804.0548586726511,794.8877493371292,815.2028358736887
1731017622.7863224,794.635602723984,804.1947506584313,794.4816708146025,815.4946150761738
1731017622.7869987,794.9942732005193,804.3343235424096,794.0813203007132,815.7966005091066
1731017622.7873025,795.3496912432843,804.4735558625048,793.7232828394664,816.1102522693766
1731017622.787707,795.7023506892672,804.6120098267643,793.4311503009644,816.4248121584179
1731017622.7909012,796.0526919983364,804.7489293217077,793.1641804813288,816.7166792198509
1731017622.7948034,796.4008633339472,804.8839311610247,792.7917742337931,816.9665893338422
1731017622.7987058,796.7468014335902,805.0180716465652,792.1659545640773,817.193168814601
1731017622.8019185,797.0903993904453,805.1542356507997,791.3190509366938,817.4755786843531
1731017622.8026085,797.4316069434652,805.295383556658,790.673189077276,817.9171606797954
1731017622.8065107,797.7704390797039,805.4403620327314,790.9969653558279,818.5225172727894
1731017622.806599,798.1069398372093,805.580134493597,792.9115282184594,819.045260411211
1731017622.8104131,798.4411494533407,805.7004605286271,796.1942263087662,818.9684798371314
1731017622.8143156,798.773093461065,805.7956618308133,799.5874413946963,817.7597263333872
1731017622.817515,799.1027880143724,805.8881015697898,801.5559391723843,815.2910246347236
1731017622.8182178,799.4302488434072,806.0324293536623,801.4741753579281,812.0687067698557
1731017622.8221202,799.7554961550542,806.277566259341,800.1574424743861,809.0642246509964
1731017622.8223548,800.0785547087908,806.583646514526,799.2091057399023,807.3063694073339
1731017622.8254902,800.3994517507441,806.7487952234417,799.7568991462446,807.4752971187855
1731017622.8260226,800.7182152967893,806.4464352975075,801.6887217691743,809.6009147806087
1731017622.8299253,801.0348736166507,805.4233254246432,804.0007571573008,812.9952603482637
1731017622.833111,801.349455534252,803.7494697369239,805.8330290157063,816.590152479282
1731017622.8338275,801.661990868445,801.9059202678145,807.1576415889919,819.5723832623262
1731017622.8377297,801.9725106354921,800.6045732222233,808.4782826302649,821.8280295564508
1731017622.841632,802.2810469990936,800.4367691546514,809.925995429321,823.753655295023
1731017622.8443818,802.5876331193316,801.5275012608178,810.7779714107146,825.5470292961783
1731017622.8455346,802.8923030285105,803.364767397109,810.0032131558925,826.6252002498344
1731017622.8487072,803.1950915718138,804.9775589047363,807.3540938727846,825.7743169164387
1731017622.849437,803.4960343882206,805.5023738154849,803.9023423549203,822.0136426132258
1731017622.8533394,803.7951678956844,804.8194107466801,801.4226723723036,815.5101385220646
1731017622.8572416,804.0925292624785,803.712371820411,801.1300672130632,807.7939156447896
1731017622.8574069,804.3881563661695,803.3234103238614,802.8536314137046,801.0764063084457
1731017622.861144,804.6820877495072,804.325204247601,805.2803316814092,797.1636807230375
1731017622.8632731,804.9743625794855,806.5077470806184,806.9813888229262,796.6899814953631
1731017622.8643034,805.265020608801,809.0555306901713,807.4081850139602,799.0434364943646
1731017622.8650465,805.5541021344499,811.1506461841572,807.1996378180339,802.8261627204414
1731017622.8689487,805.8416479501913,812.3530634529263,807.6521370837789,806.457949032878
1731017622.8728514,806.1276992983229,812.5728787484733,809.6890126027138,808.6732646600684
1731017622.8767536,806.4122978360017,811.8759966084721,812.9781215675987,808.8745374918011
1731017622.8798995,806.6954856303178,810.4204075817116,815.8649965064102,807.3155792085253
1731017622.880656,806.9773051730682,808.550646441345,816.3502670458249,804.9712110301981
1731017622.8821647,807.2577993658764,806.843820820392,813.5562909395472,803.0058821727063
1731017622.8845584,807.5370114049334,805.9394150974196,808.5886397487996,802.0793038098949
1731017622.8884609,807.8149845480726,806.2117074045077,804.0101281961992,801.9945098156836
1731017622.8923633,808.0917618963722,807.5148391846993,802.2029611855828,802.0150444940525
1731017622.8924592,808.3673864780616,809.2009839139247,803.8160492226559,801.6232049687856
1731017622.8954957,808.6419018661411,810.4261450656754,807.4433039685675,801.0791409289574
1731017622.8962655,808.9153530936923,810.572207737793,810.7006924580335,801.2808819329048
1731017622.900168,809.1877868865895,809.558642667885,811.828008382273,802.9970905619026
1731017622.901056,809.4592499269454,807.8984995516996,810.6717751442246,806.056329192426
1731017622.9040704,809.7297850183461,806.4729282503577,808.5060566305177,809.1343782265955
1731017622.9079728,809.999427904972,806.0879941012818,807.0195545472565,810.3714480469865
1731017622.9110918,810.2682101989185,806.9743210479049,807.2545520818442,808.483970487965
1731017622.9118752,810.5361722280422,808.5142010352081,809.112413179731,803.6830071182642
1731017622.9157777,810.8033802546624,809.4838328277527,811.5519807727868,797.7706614542558
1731017622.91968,811.0699288020663,808.802559127907,813.2274482410013,793.2274247793475
1731017622.9199476,811.3359049237911,806.3217928989377,813.1952073283528,791.7372950963476
1731017622.9235823,811.6013158475173,803.0247231160438,811.3664547103418,793.0910007319975
1731017622.926688,811.8660365694967,800.4208774265934,808.507235453644,795.3380741026527
1731017622.9274848,812.1298800261046,799.5806243845784,805.7989201651143,796.2473150241224
1731017622.9275117,812.3928504200672,800.5334147012575,804.2193892259809,795.054747671939
1731017622.9313872,812.6554543892915,802.4125873734586,804.1122880805217,793.0765251249968
1731017622.9352896,812.9186943929752,804.1339311916535,805.1588359192749,792.5807283379609
1731017622.938839,813.1833323711365,805.0537366578548,806.6715482547252,794.7770357410753
1731017622.9391918,813.44852607647,805.1725406461298,807.951271494571,798.6119948686588
1731017622.942284,813.7109882539426,804.8759054754571,808.5132192608919,801.44798206393
1731017622.9430945,813.9665845200187,804.5458245078005,808.1662216527253,801.1287470991559
1731017622.9469967,814.2152820767922,804.3533115337265,807.0160554452306,797.7509681156887
1731017622.9508991,814.4667001635319,804.2813472654627,805.417048848581,793.7058527757522
1731017622.9548016,814.7389912416429,804.2458177328284,803.8512743729166,791.9979326972314
1731017622.9577303,815.0438305237476,804.1873345148538,802.7669261612168,794.1974065671006
1731017622.9578805,815.360901162451,804.0945741908707,802.4722539922514,799.51699886186
1731017622.9587038,815.625014332222,803.9840572871643,803.130862134213,805.5058467280525
1731017622.9625638,815.7612955929251,803.8739873298396,804.7807828745176,809.7238035310456
1731017622.9626062,815.7808868137352,803.7719313220696,807.2780211787035,811.2853002670009
1731017622.9665086,815.8778196268463,803.6761629398887,810.2003741585997,811.357270151846
1731017622.9704113,816.3862558237934,803.5820441276601,812.874668173445,812.2585254261957
1731017622.9734764,817.4703057083227,803.4865865623702,814.6286813119815,815.5871229979253
1731017622.9743135,818.6280676291998,803.3893811924079,815.151054865255,820.5748259257797
1731017622.976622,818.439749078577,803.2913860771345,814.682712168887,824.0417419434864
1731017622.978216,815.1123813872904,803.1935511208192,813.8332719152216,822.3856972642905
1731017622.982118,807.8177376997885,803.0962319766326,813.0956704405758,814.3922632876939
1731017622.9860206,797.8367831913711,802.999309292408,812.421360214763,802.6633217329454
1731017622.9890726,788.2889542955587,802.9025365979036,811.247848526496,792.2824754945162
1731017622.989923,782.3627319857,802.8057692409009,809.0187807492554,787.5320365163777
1731017622.9938254,781.3720679247474,802.7089994788832,805.7545174898481,789.1437861638358
1731017622.9955134,784.1199285635539,802.612286612408,802.1204312406899,794.1257450819688
1731017622.997616,787.881490150588,802.5156854325047,798.9102450059514,798.0702428236133
1731017622.997728,790.0761392788335,802.4192175611064,796.4698581051591,798.0124066072314
1731017623.00163,789.4722248326933,802.3228776240624,794.6538995567836,793.8907086866299
1731017623.004669,786.4770430556986,802.2266502481893,793.31447987399,788.0962515165579
1731017623.0055325,782.7647224750514,802.1305240638576,792.7112528180782,783.9255666561368
1731017623.0094347,780.5627365966772,802.0345019178668,793.3081615272664,783.979666470216
1731017623.0133374,781.6848995809237,801.9386078584623,795.1328292667648,789.0486437717886
1731017623.0144048,786.5083403268326,801.8428827928067,797.4266090849209,797.6790869609761
1731017623.0172398,793.4908723537083,801.7473564205656,799.0619521996109,806.6440800227308
1731017623.020265,799.8000426340918,801.651999084907,799.4074086420031,812.3727779739368
1731017623.021142,802.8574448546059,801.5566938980104,798.8446200014833,812.7560376909166
1731017623.0250444,801.7639609199649,801.461296588572,798.46561885299,808.2025530018076
1731017623.0289469,797.5937715344428,801.3658137497456,799.2206524847944,801.1649222473151
1731017623.0326684,792.4823661042126,801.2705984730829,801.2233832350947,794.5069759520002
1731017623.0328493,788.364389497468,801.1763023132961,803.7362791381012,789.9964721694246
1731017623.0332963,786.2720419595886,801.083329952149,805.8000330718661,787.9596109473277
1731017623.0358613,786.3864779729003,800.9909293422697,806.9876892013956,787.9746362182088
1731017623.0367515,788.3961222959292,800.8967563537464,807.6769436263863,789.6098045776686
1731017623.040654,791.742993675667,800.7981764621142,808.6017293973044,792.4868130776551
1731017623.0445564,795.7587645443109,800.6957162060265,810.0317149222362,795.95040458459
1731017623.0484588,799.852852803252,800.5965009167858,811.2915562068081,799.1202300360172
1731017623.0514574,803.6656744460789,800.5126694952359,811.1175797771341,801.502411826669
1731017623.052188,806.9467102640155,800.450427178623,808.6537206642166,803.4402199116947
1731017623.0523612,809.2411302362641,800.393291636403,804.2813896157161,805.7060935135719
1731017623.0562637,809.8862715861791,800.2963707045024,799.5409508059554,808.5489143559448
1731017623.060166,808.6330953176678,800.1151963297513,796.1515435530455,811.2702924598354
1731017623.0640683,806.4212156235517,799.8747996386784,794.9279832754397,812.9079336162872
1731017623.0670536,805.3291450478686,799.7374106738147,795.4914728865269,813.358298607432
1731017623.067721,807.2562452441274,799.988221410186,796.9583018426082,813.6943842783671
1731017623.0679708,812.1517697717171,800.9011212789419,798.910428711989,815.2137196450125
1731017623.0710793,817.3923249586915,802.5694393241305,801.7098047439277,818.0983936362243
1731017623.0718732,819.278547714011,804.844489341619,805.8420317297683,821.0783028741597
1731017623.0757756,815.8617024063259,807.412595849412,810.9130754121129,822.5695080342014
1731017623.079678,808.890684190266,809.8950539307809,815.3230031952493,822.250290492238
1731017623.0826497,803.0440892004881,811.8753046697865,817.0960426935912,821.4629515727685
1731017623.0835805,802.7409872448569,812.914188339564,815.2989591513173,821.9010708350755
1731017623.0874827,808.9237604322668,812.6865341987854,810.8762936619595,823.7971368391775
1731017623.0899708,818.3294107171602,811.2335199136627,806.1515259979736,825.4549177772114
1731017623.0913851,825.7539514180573,809.113459603804,803.3305977794003,824.7152397696015
1731017623.0952876,827.4846295624641,807.2190526369839,803.1403936554544,821.0221697559263
1731017623.098246,823.4049596666242,806.2974379373256,804.58211543943,816.1347863455454
1731017623.09919,816.5811946821115,806.5161966854523,805.8738759908656,812.8207366660395
1731017623.102773,811.0453538448613,807.4261076386595,805.784874880898,812.7300998965632
1731017623.1030922,809.4559888506084,808.3358296135167,804.3839726558173,815.278765866623
1731017623.1069946,811.9467550333419,808.7642131288827,802.77187756748,818.3260598719437
1731017623.1088622,816.4750079357073,808.6229327416482,802.1279087108236,819.8672339501628
1731017623.1108973,820.187643430359,808.0864430878178,802.8128864036116,819.300078603236
1731017623.113842,820.9842507224762,807.3747251576534,804.1276327895467,817.4281194012694
1731017623.1147995,818.4596194705817,806.6415501043872,804.8303880920909,815.4657512224836
1731017623.118702,813.7409048886922,805.946032732825,804.0215426931561,813.967771482264
1731017623.122604,808.4281958656801,805.2047210025523,801.7948365193082,812.4841676326627
1731017623.1265066,803.522973058246,804.1652870264021,799.2307822411907,810.1175311725353
1731017623.1277535,799.2236358257899,802.55793543199,797.7426171969827,806.5038398277328
1731017623.1294382,795.6331326080114,800.422527952655,798.1911047011987,802.4334518748017
1731017623.130409,793.5122722842473,798.3167039294361,800.3164206481412,799.5701674391618
1731017623.1343114,794.1479432178784,797.0869082458145,802.8414704924223,799.3915539529627
1731017623.1378253,798.2783913717894,797.2776647748508,804.20389252889,802.1109374543689
1731017623.138214,804.9897296496001,798.6813592240811,803.4867784546401,806.4292930237127
1731017623.142116,811.64959890435,800.4729275810637,800.9730942031963,810.3526630733194
1731017623.1450343,815.1288026203977,801.8235516668896,797.966654337357,812.4515749970561
1731017623.1460185,813.503415219383,802.422286491336,795.9839410289549,812.5867433389251
1731017623.1466453,807.0457812674906,802.4637511967479,795.829512432771,811.6270787631527
1731017623.1499207,797.893901271425,802.2281168828247,797.1594629694878,810.5734787666505
1731017623.1538234,788.7861419200876,801.7606285151861,798.8264601422095,809.9273374702515
1731017623.1577258,781.8262467028272,800.9755471398323,799.7418776462968,809.7519624304506
1731017623.1606307,778.0101057757931,800.0117262467618,799.5873172333526,810.1334722813854
1731017623.1616282,777.5049197593049,799.3911438681835,798.851560038146,811.393860255097
1731017623.1655304,780.0925062256889,799.7310367059803,798.2805920384026,813.726269849118
1731017623.1655366,785.2362992512807,801.2104666016364,798.3121611628409,816.5668932150919
1731017623.1694329,791.7921016751343,803.2686622660779,798.9498248403909,818.3938338664417
1731017623.1728773,797.8805355622504,804.874677417947,800.016074664149,817.3913429760532
1731017623.1733353,801.3813390555773,805.2550795506692,801.3974235123064,812.6949085034768
1731017623.1762269,800.9545304423004,804.5395571245951,803.0313204729745,805.3290352500252
1731017623.1772375,796.9603832156341,803.7488225017732,804.7352154543154,798.0273022721601
1731017623.1811402,791.5906674787395,804.0302295681813,806.1458522032538,793.8958353908731
1731017623.184428,787.9586417912841,805.7200349553418,806.8903419414687,794.7419482718868
1731017623.1850424,788.5276962730117,808.0433197293107,806.8470675174118,800.1382964552579
1731017623.1889448,793.741650141089,809.7219587878715,806.2581807117332,807.7554065676476
1731017623.191823,801.7495467362354,809.9230700693372,805.6033462486131,814.6464891628277
1731017623.1928473,809.5250893786106,808.7245936515175,805.3508382572235,818.6652466749127
1731017623.1967497,814.7077638696849,806.8508536377497,805.7581458210311,819.3063576414982
1731017623.200652,816.8635132025996,805.1272382235477,806.7983905785084,817.7150168119069
1731017623.2033195,817.2323697503737,804.1551006081387,808.1921239635348,815.9971142557935
1731017623.2045543,817.2386203621999,804.2388066863064,809.5137649917551,816.1380391074849
1731017623.2074192,817.0812195076924,805.3222570088111,810.3627432572998,818.9473643836509
1731017623.2079296,815.6333285873196,806.9038731950225,810.5579706691643,823.540430418734
1731017623.2084568,811.6910104647734,808.165275901663,810.2468150546617,827.7422476672142
1731017623.2123592,805.395029299232,808.4124101665374,809.8210141173535,829.3076914646772
1731017623.2162616,798.5342633896239,807.5348176686018,809.6590742345352,827.26132441503
1731017623.220164,793.497712914947,806.0568242311036,809.8738404271918,822.4932399622397
1731017623.222211,791.8134241393022,804.693009885858,810.26928327864,817.224695369114
1731017623.2230153,793.413627862724,803.7863032415506,810.5534161820763,813.7161305863998
1731017623.2240665,796.9855779615102,803.1223134575488,810.6438226074127,813.0389062492575
1731017623.2279687,800.9093026436007,802.2745505706006,810.8126278898056,814.6012454236975
1731017623.2318711,804.0672702615442,801.1614801593612,811.5212488668487,816.5992099527007
1731017623.2357736,806.1496765112462,800.2922609903829,813.0257337451561,817.0377365778508
1731017623.2386117,807.481476534406,800.4157811818991,815.027954259702,814.729049046472
1731017623.239676,808.5967770236114,801.8048762198894,816.6511255520081,809.7987965617115
1731017623.2411025,809.8202404766851,803.796048488201,816.8162232021311,803.554394381083
1731017623.242982,811.0576546130823,805.0836128230501,814.8341693132742,797.8578174347341
1731017623.2435784,811.8654669505621,804.6431332052224,810.8759964432,794.2978319336358
1731017623.2474806,811.7204798883828,802.5418492557155,806.0200576467374,793.5155285671113
1731017623.2513833,810.343853975287,799.9025829069407,801.7937132307985,794.991175389879
1731017623.2542076,807.9515451849586,798.0129731123926,799.4285060232162,797.3728293122153
1731017623.2552855,805.3121714078516,797.367422834358,799.2417702979266,799.1091636834269
1731017623.259188,803.4926794113184,797.4917461372307,800.4923791931554,799.034447421507
1731017623.2599938,803.3087919046094,797.6284177760583,801.7847115601952,796.757133465811
1731017623.2630904,804.7848528014378,797.5311556156516,801.8080011621977,792.9072064314219
1731017623.2669926,807.0563241947627,797.5886609722421,800.0407439347536,789.1580230672636
1731017623.2698038,808.8399007824106,798.2659449633499,797.0639077687596,787.6769845981503
1731017623.270895,809.0989238360069,799.5564685812839,794.3138447747776,789.8794973301699
1731017623.2747974,807.4201149376975,801.032256677233,793.390416317336,795.1485500085676
1731017623.2780342,804.021286598109,802.3526559882392,795.2475997480624,800.708425012036
1731017623.2787,799.6752110124032,803.5992729788567,799.6279084405401,803.2168914456198
1731017623.2788854,795.6727414927782,805.0614693922366,805.0153989613119,801.1275958743511
1731017623.2826023,793.5501458611652,806.7499204918157,809.2266609208215,795.8975295295241
1731017623.2854,794.3655594761783,808.2183096732352,810.4721550510424,790.8480828388022
1731017623.2865045,797.9147373587721,808.9236672254709,808.347474631321,788.501549741203
1731017623.2904067,802.662243630788,808.765233428158,804.0860037400369,788.6899012500718
1731017623.2943094,806.6607926985458,808.2424824159103,799.8182165709113,789.1607019396006
1731017623.2977767,808.7530563341423,808.0570222105613,797.3199683984354,788.1486051243095
1731017623.2982118,809.0466981718607,808.5370891483241,797.1363720585134,786.5008067562815
1731017623.300996,808.4227518528237,809.4244915345122,798.6261968826482,787.2870510443199
1731017623.3021142,807.7265389919987,810.1976130147281,800.7011883185614,793.1548571631438
1731017623.3060164,807.332055078939,810.6011243293872,802.5614757543462,803.8106253530781
1731017623.3099189,807.2004833784375,810.8885426695156,803.9247173944619,815.8777251731103
1731017623.3130865,807.1474375220901,811.5625699017992,804.8011593001831,825.168163051088
1731017623.3138213,807.043634221622,812.8372511275562,805.2040414373129,829.3054188672716
1731017623.3165922,806.8650425639836,814.2877630467686,805.0817463768349,828.6123351339053
1731017623.3166685,806.6481299905283,815.0269069561368,804.4604614157116,824.9914503118142
1731017623.3177238,806.4326476784751,814.3358537757082,803.6122805075886,820.2157984447803
1731017623.3216262,806.2349290124005,812.2758223412508,803.0745240571797,815.1320677460985
1731017623.3255286,806.0510261135847,809.7601340203627,803.4350530374567,810.0770413111416
1731017623.3294308,805.8707243103538,807.9690408986914,804.9269167260957,805.6940070666552
1731017623.3321886,805.6874796280083,807.5313975025044,807.0584275007435,803.1960367811013
1731017623.3333333,805.5003959535932,808.1035854097537,808.6260569286845,803.7847260089632
1731017623.3355598,805.3115456625223,808.6651260817086,808.299678368341,807.6963440107583
1731017623.3372357,805.1229630191307,808.2962997951337,805.5143843087998,813.6666455901342
1731017623.341138,804.9353756250812,806.8568120645456,801.0119034087132,819.3316724592373
1731017623.3450406,804.7484757165994,805.0864097742807,796.5073545860638,822.4210055351806
1731017623.3477848,804.5616840272763,804.0827243409648,793.6360220282548,822.0040539149139
1731017623.3481388,804.374648146703,804.5465216404888,792.9800669184522,818.9681211404786
1731017623.3489428,804.187315005663,806.3248500560023,793.9339372874334,815.423964431615
1731017623.3528452,803.9997742016651,808.5494474267579,795.4311585154426,813.4517285202709
1731017623.3544512,803.8121000460102,810.2279168170388,796.8211699430866,813.9794757015046
1731017623.3567476,803.6242924054725,810.81753617814,798.1443355283689,816.416688003178
1731017623.36065,803.4362997730598,810.3667221079389,799.697804760858,819.1535711135639
1731017623.363381,803.248067012558,809.2182451397565,801.4561168939281,820.537982400128
1731017623.3645525,803.0595643863269,807.6519408888347,802.9751499466208,819.7144123150739
1731017623.3684547,802.8707826554712,805.8180220619533,803.8533077161126,816.8622426028422
1731017623.3723571,802.6817009786402,803.9234589529661,804.2299235960793,812.8231772823881
1731017623.3733428,802.4922518427373,802.3367799985655,804.7584353843982,808.5429931994657
1731017623.3762596,802.3023218959396,801.4068433874528,806.0294107610115,804.7908006360361
1731017623.3789773,802.1118226638549,801.1762657164038,807.9862586279751,802.2157854384463
1731017623.380162,801.9208145676517,801.342243746565,809.90200359229,801.3967556333023
1731017623.383191,801.7295748042909,801.5589060258892,810.9487283421358,802.6088782664788
1731017623.3840644,801.5384388540544,801.7698718872442,810.8338809795841,805.4862138347289
1731017623.3879666,801.3473480237243,802.1810696550558,809.940263771714,809.008379161102
1731017623.3918693,801.1553714289041,802.8600748152278,808.8928096871535,811.942970363725
1731017623.392234,800.9608629607706,803.3890105923803,807.9919141875371,813.4032681664081
1731017623.3945732,800.7628668870879,803.0072325490183,807.0289851267438,813.1195987164
1731017623.3957715,800.563385276963,801.2130405294549,805.6158068348409,811.3814519974695
1731017623.399674,800.3683557581667,798.3185892637239,803.7033001017155,808.862501832299
1731017623.4035764,800.184211829556,795.4439319586184,801.8329991016832,806.424770094786
1731017623.4074788,800.0091791215651,793.8916062457213,800.9133402364912,804.833406347286
1731017623.4101694,799.8250169617195,794.3337605210172,801.6758885450142,804.4330832073132
1731017623.4111257,799.601923289099,796.3732201748841,804.1628919671288,805.04518304364
1731017623.411381,799.3273099616429,798.7711882693102,807.5632867317419,806.2367900626738
1731017623.4152834,799.0494385717315,800.2086303602316,810.5303477829964,807.7253568905775
1731017623.4182434,798.8957519522097,800.1234304593918,811.8507893931795,809.4992416616044
1731017623.419186,799.0166231409819,799.096260219274,811.0872295225632,811.5382637172149
1731017623.4230883,799.4710033958706,798.5027558077763,808.7736151363107,813.4912055086822
1731017623.4257655,800.1915312130321,799.6133754619661,806.0260281495285,814.7490024987751
1731017623.4269907,801.13941350937,802.7127271098224,803.8627680085311,814.9158289741903
1731017623.430017,802.4677641362343,806.8175780284548,802.7320345549743,814.1998385111216
1731017623.4308927,804.3513911363975,810.1724893944227,802.5250048609522,813.2679002749003
1731017623.4347954,806.5257410791712,811.2034115384075,802.9143442147423,812.6403532737341
1731017623.4386978,808.0876252292331,809.3631823512154,803.6302506036374,812.1914723014695
1731017623.4413617,807.9790057973399,805.4123224991215,804.4778483944214,811.2461399031515
1731017623.4426005,805.8438199256711,801.007856105554,805.2503336406568,809.1885653859324
1731017623.4465027,802.4494689632877,797.8337608405021,805.7576988901435,806.017589134928
1731017623.4489086,799.2071552015051,796.7560199181615,805.9412267256737,802.3814477666152
1731017623.450405,797.1964859185891,797.4979940639216,805.897600409638,799.159705525328
1731017623.4532957,796.5825217087512,799.0241170666695,805.7790102838072,797.039779086456
1731017623.4543073,796.8818483281937,800.3144783407114,805.6874795138576,796.3939836555264
1731017623.4569578,797.6599888856966,800.9260174333383,805.6465705981074,797.3414833494479
1731017623.4582098,798.8755469509512,800.9977611192302,805.6336270383274,799.6996618616637
1731017623.4621122,800.5769910003427,800.8891480276186,805.6210082846122,802.7793021261992
1731017623.4660146,802.3993238897668,800.8550269588806,805.5964393123548,805.3277816609765
1731017623.4678,803.497065733938,800.9542638351238,805.5619977282302,805.9388216582283
1731017623.4699168,803.0713324144469,801.1273727361065,805.5246588143416,803.8637262331576
1731017623.472554,801.0537013150827,801.3020320759374,805.4891545508534,799.7143712368105
1731017623.4738193,798.3358008621911,801.4458726237443,805.4563004493108,795.4448588458333
1731017623.4777217,796.2775446507576,801.5640133455497,805.4247216872186,793.4024039626892
1731017623.481624,795.8113373656836,801.6745167270354,805.3929630139899,794.9376236008119
1731017623.4855266,796.8362619735315,801.7897314458613,805.3604457514609,799.5183833016912
1731017623.4866917,798.4057192915669,801.9118368503845,805.3273315335342,805.0221172346369
1731017623.48815,799.5435524143821,802.0372800669123,805.2940013434884,809.0232465197034
1731017623.4883478,799.9685093575304,802.1622643170231,805.2606944872231,810.1808114960659
1731017623.489429,800.1157328771112,802.2852602148964,805.2274413914321,808.8592459071957
1731017623.4933312,800.5336933302381,802.406668497779,805.1941642942445,806.7402556106351
1731017623.4972336,801.3234297571504,802.5274692934094,805.1607876281005,805.8063224088891
1731017623.501136,802.1486895012174,802.6482799878922,805.1272853396941,807.3029665869209
1731017623.5037465,802.6577703931471,802.7691774903743,805.093673771917,811.1562893021863
1731017623.5050385,802.7823002173253,802.8899597817831,805.0599857303533,816.0505377163397
1731017623.505583,802.686739818777,803.0104320270401,805.0262477234559,820.0954341551121
1731017623.5089407,802.5637051254564,803.1305236853871,804.9924632171892,821.7759436405466
1731017623.5128431,802.5075868677958,803.2502602538011,804.9586025164343,820.7275596015239
1731017623.5167456,802.5148384462505,803.3696928545552,804.9246120603765,817.9187303404203
1731017623.519343,802.5430952623948,803.4888576552299,804.8904603811258,815.1024666792368
1731017623.520648,802.5601259144815,803.6077746600337,804.8562111905591,813.8053499089052
1731017623.5234,802.5583091148503,803.7264572062633,804.8220581414863,814.4134314294769
1731017623.5244744,802.5454039419524,803.8449042908459,804.7882200490187,815.9107119502124
1731017623.5245504,802.5309484282811,803.9630768693534,804.7546618492522,816.5047628956374
1731017623.5284529,802.519294267876,804.0808937432863,804.7208141483558,814.8437695001642
1731017623.5323553,802.5098513927996,804.198291559075,804.6856967102968,811.0459184491503
1731017623.5349388,802.5002804271653,804.3153472143408,804.6488025262291,806.7240886560527
1731017623.5362575,802.4889580150857,804.4323624908561,804.6114666887318,803.8332179320306
1731017623.54016,802.4755894098657,804.5497335257118,804.5773734539015,803.1389632618875
1731017623.543366,802.4606420880159,804.6675081840899,804.5503210162533,803.559134342938
1731017623.5440624,802.4446266048359,804.7848615718108,804.5288550688098,803.0271502172192
1731017623.5479648,802.4277610882731,804.9001447253808,804.5014172721559,800.2894450171495
1731017623.550535,802.4100099769079,805.0121966349687,804.4497403193304,796.2249441647518
1731017623.551867,802.391258984734,805.1226881182253,804.3664813821008,793.5680880693261
1731017623.5557694,802.37143915868,805.2374586745872,804.2803103672207,795.099184181135
1731017623.5584524,802.3505522688782,805.3635665773903,804.2617555168905,801.5371164456152
1731017623.559672,802.3286395994362,805.5006529487626,804.3754260146444,810.6671172223093
1731017623.5622573,802.3057473419584,805.6316283193499,804.5758355379387,818.4226247883716
1731017623.5635743,802.2819109234566,805.7253131557433,804.620077365121,821.263979894941
1731017623.566131,802.2571516261839,805.7630244049373,804.1362671194031,818.248986044758
1731017623.5674767,802.2314728893243,805.7821421180217,802.9229521994848,811.4010341002016
1731017623.5713792,802.204857446369,805.8955946116033,801.2974444765633,804.214000901575
1731017623.5752814,802.1772820379496,806.2262114490245,800.0829301426919,799.4346188617656
1731017623.5791838,802.1487624813525,806.7360434367747,800.0392143198459,797.6421622878045
1731017623.5811489,802.1194076444671,807.0520509058321,801.1549687484966,797.4201426877321
1731017623.5817273,802.089414052216,806.514019106952,802.5175929635219,796.7705614785089
1731017623.5830865,802.0589272627519,804.5999465513576,802.9937472741512,794.6915545994714
1731017623.5869887,802.0277931047614,801.4971974918457,802.1746223528469,791.8687516102722
1731017623.5908911,801.9954141909211,798.2398281160653,800.7801004477147,790.0695115126241
1731017623.593505,801.9610605711796,796.1281876176142,800.1764322005588,790.7035066164083
1731017623.594793,801.9247858943671,795.9073963319106,801.365896201222,793.6313299651225
1731017623.5973234,801.8884206175379,797.4407796826412,804.18385276196,797.1842894241764
1731017623.5986958,801.8553004647986,800.047367838658,807.2770072522727,799.4389452575385
1731017623.6000402,801.8274467824507,803.028804725081,808.9058903215174,799.7164279069779
1731017623.6025982,801.8009168944163,805.881090751845,808.0602301104104,799.0152156238632
1731017623.6065006,801.7636543654388,808.1496054350032,805.1386384787633,799.0024107855738
1731017623.6104033,801.7022753194088,809.2677604786091,801.712090004404,800.5224743982828
1731017623.6129196,801.6197637778487,808.670509988829,799.5299495437533,803.0167166474552
1731017623.6143053,801.5527750040198,806.1442912974462,799.4691655023668,805.2572806320998
1731017623.6182077,801.5627235945943,802.1350115098571,801.1230790861664,806.4611599288247
1731017623.6189318,801.6783761973163,797.757205452834,803.2003277097746,806.6996843323242
1731017623.62211,801.8076560182622,794.4321601210771,804.3432318254968,806.5129755860387
1731017623.6260126,801.7016748775986,793.2839167993255,803.816201468249,806.3684608636585
1731017623.6285155,801.079173312546,794.5737516052559,801.7522175446887,806.4308395820976
1731017623.628557,799.9020737549278,797.5026416212606,798.9718094149586,806.638479844637
1731017623.629915,798.5457272640273,800.5775632269784,796.5718183536356,806.8731614856464
1731017623.6338172,797.5570006491848,802.4201920855211,795.5015112325351,807.0669269093725
1731017623.6377196,797.1335267308127,802.5683958277209,796.2732788280881,807.21612568855
1731017623.637823,796.934227331561,801.7458349669233,798.8500617413195,807.3471151661529
1731017623.641622,796.5641148594576,801.3799360117869,802.6651145148405,807.4827176348147
1731017623.644112,796.2472011612047,802.6578791949033,806.7247219136336,807.629995340113
1731017623.6455245,796.8499463978052,805.7433908160898,809.8204159116648,807.7848379977711
1731017623.6494267,799.0417059487152,809.6656015025079,810.9137803955418,807.9409138639455
1731017623.6533294,802.3452227673315,812.9189591385552,809.6261785149967,808.0949045856626
1731017623.656715,805.1092882126641,814.3425173041715,806.5452010723777,808.2468722044727
1731017623.6572316,805.6604013568302,813.711918776915,803.0349387873242,808.3983046947583
1731017623.659708,803.7535392358732,811.7307600285461,800.5629650082501,808.5503849996037
1731017623.661134,801.0433459877861,809.5214395347978,799.9701676152143,808.7034377098133
1731017623.6636093,800.0541009844827,807.9928758770538,801.1679933112017,808.857227484306
1731017623.6650364,802.3719712029525,807.4581640934439,803.3734429535716,809.0114367502683
1731017623.6689389,807.4297577060647,807.6536813337578,805.5899676146767,809.1659216945562
1731017623.6728413,812.7953439863313,808.0536102714387,806.999832425584,809.3207132836889
1731017623.6753044,815.7445757423299,808.2398028522747,807.1750531545745,809.4759092130229
1731017623.675606,814.997360176298,808.118599378722,806.1811033392667,809.6315879964127
1731017623.6767435,811.4422862900756,807.9007961131156,804.5872808417961,809.7877863582521
1731017623.680646,807.4257435949177,807.8858253733762,803.29035072984,809.9445146303975
1731017623.6845484,805.1663271219142,808.1844245943814,803.112375865687,810.1017723594553
1731017623.6884508,805.4022627454259,808.5685389432431,804.3276400046607,810.2595497984627
1731017623.6909006,807.1452623786231,808.5979770355673,806.414773996881,810.4178291711336
1731017623.6923532,808.6047224176143,807.9892376768995,808.2594913242486,810.5766080746564
1731017623.6944976,808.5539914135325,806.952782103405,808.75613345122,810.735945126553
1731017623.6962554,807.1605744740652,806.1594391240703,807.4543479024103,810.895984286185
1731017623.6986616,805.7120400175814,806.252564689641,804.8167245351923,811.0568867336937
1731017623.700158,805.4561847988738,807.2472328912827,801.9009738170047,811.2186435619492
1731017623.7040603,806.4415413396598,808.355433969705,799.694384181943,811.380884129586
1731017623.7064967,807.3078437778393,808.4778336803713,798.5825221166159,811.5429547857377
1731017623.7079628,806.287374682435,807.0162140927275,798.312325811914,811.7045133845064
1731017623.7118652,802.6892889222229,804.3500178832879,798.4049823452016,811.8664597014347
1731017623.7133887,797.6730479413944,801.612128921805,798.6239087771862,812.0312943535989
1731017623.7157674,793.6385218168377,799.9889480402326,799.102744432933,812.2016258387183
1731017623.7196698,792.6629515044083,800.0762743578504,800.0757720475794,812.376538918492
1731017623.7220929,795.1591864598292,801.6522301049022,801.5169422084707,812.5482656027629
1731017623.7235725,799.7143204021372,803.882164589853,803.0578226229312,812.704396420588
1731017623.7274747,804.13009363454,805.7599142622115,804.2767599833644,812.839757114572
1731017623.7313771,806.8109458261913,806.5409339240817,805.0965356941306,812.9734771054684
1731017623.7322805,807.4885042017695,805.9663610393874,805.9116780805343,813.1532318767365
1731017623.733714,806.8924726171367,804.2210958546244,807.2797348470356,813.4231931243568
1731017623.7352796,805.8406943510495,801.7607167100482,809.3702491820941,813.7532583828232
1731017623.737689,804.6135427025596,799.1941432992149,811.5919056767885,813.978379473763
1731017623.7391818,803.0931099306049,797.2405197493129,812.7449663036687,813.8412934743372
1731017623.7430842,801.3708223068588,796.5994817860548,811.7073428917078,813.1882011256828
1731017623.7469866,800.1005138732487,797.648392461646,808.2669125940694,812.195936506708
1731017623.7508893,800.1846650943514,800.1529574933884,803.531199383014,811.3721290337893
1731017623.751172,802.0779289740544,803.3025059217703,799.5405354789501,811.2220439024455
1731017623.7532852,805.3655054393586,806.153977178762,798.200471090734,811.8367238629108
1731017623.7547915,808.9957724563395,808.194219333799,800.136489722588,812.7945012458431
1731017623.7586937,811.9463882915467,809.5855886357892,804.2227365905449,813.4807276575657
1731017623.762596,813.7573890998067,810.8880453751447,808.1758029131262,813.5154065148505
1731017623.7664986,814.5425815376067,812.4571624085468,809.8942922969048,812.8725155425306
1731017623.768766,814.5869643690289,813.9829569865022,808.6605992352099,811.6200726317247
1731017623.768881,814.0015865347377,814.5629963018418,805.3995108540441,809.6746623905609
1731017623.7700634,812.8085160537854,813.3288514780658,801.9011487184945,807.0006824173005
1731017623.770401,811.3410593155618,810.2070528411938,799.6656754312504,804.1509437554677
1731017623.7743034,810.4262864339652,806.2179310211463,799.185530788286,802.4958427053118
1731017623.7782056,810.9282852583441,802.9955133574402,799.9993091776576,803.6162859096197
1731017623.782108,812.8678348301247,801.8014984671405,801.2451236672895,808.1324619204214
1731017623.7844777,814.9329590880042,802.7346530434731,802.2211954740541,814.9191504626468
1731017623.7860105,815.0865553199238,804.7052893571249,802.6671246118051,821.4879176115261
1731017623.788955,812.0731822946576,806.1519656935372,802.7700316576968,825.4007926081372
1731017623.7899127,806.6666764579609,805.9489885836635,803.0060267230369,825.7242128178846
1731017623.7938154,801.4651659090683,803.9143270799259,803.89459345784,823.4573037390646
1731017623.7977176,799.157575899847,800.7256122203688,805.735507905684,820.6285624119272
1731017623.8000736,800.5438915414554,797.4857759701948,808.4299840476772,818.7629066664372
1731017623.80162,803.9216668349927,795.3037348666313,811.4673352301622,817.9021057123097
1731017623.8038182,806.3832251178915,795.0496293535177,814.0810109668245,816.9166458759978
1731017623.8055224,806.025469576019,797.1816718240595,815.5242433659064,814.7967959237374
1731017623.8078463,803.3735434147848,801.5174449705808,815.3968822059657,811.7972470740888
1731017623.8094249,800.9669544570693,807.0565887452232,813.908393465625,809.4188624786385
1731017623.8133273,801.4436054552175,812.1556513170207,811.9029641986325,809.1818546407504
1731017623.8156698,805.5217942297363,815.1989975894145,810.5225193611196,811.193953286553
1731017623.8172295,811.3229483722864,815.4570980656399,810.5971761209911,813.7605513884437
1731017623.821132,815.531181518961,813.5123524498842,812.0964572031912,814.4699174085148
1731017623.8250344,815.6100959264134,810.8526761687904,814.0293239636586,811.9592592922387
1731017623.826738,811.5578217302013,808.8772778472706,814.9484204831639,806.9704979349698
1731017623.8289368,805.9879477809402,808.0601227789142,813.8170480441489,801.8689612177453
1731017623.831266,802.4664203547444,807.8881795362964,810.7079917507141,799.0376877316118
1731017623.8328393,803.2217068219666,807.5321245954262,806.8529882368279,799.4061722041978
1731017623.8367417,807.7633133631084,806.6204681137192,803.9598483537355,802.1483698285468
1731017623.8388703,813.3055350377368,805.4859759539976,803.21140882664,805.5703975505095
1731017623.840644,816.6367919169022,804.774259608973,804.6038382095301,808.3100744857572
1731017623.8445463,816.0952622570989,804.8334138136645,807.0655696811597,809.8974748637506
1731017623.8456292,812.3285770957485,805.4023972368336,809.2379924587834,810.4328552686313
1731017623.8468623,807.4840597966061,805.7879368412879,810.307802692516,809.9424528865354
1731017623.8484488,803.6029085295867,805.315690552157,810.2940618020812,808.1691285388747
1731017623.8523512,801.423911465274,803.6986674975628,809.7202637397896,805.0144376619843
1731017623.8562536,800.326312292172,801.1339160538048,809.1011004315095,801.1176604053601
1731017623.8601558,799.2404539318096,798.186372307977,808.6666268315402,797.8580065668259
1731017623.8624585,797.7105647125593,795.5964029598123,808.3940470519037,796.6050339079651
1731017623.8640585,796.2931480174685,794.0528059956313,808.1704256032185,797.7894156495611
1731017623.8645208,796.0437924866911,793.9211646788925,807.9160404224427,800.5830001690096
1731017623.8679607,797.5579968311526,795.0257719616231,807.6157053932948,803.4649207558576
1731017623.8718631,800.366784408885,796.6857569145473,807.2916022630781,805.2153624571546
1731017623.8739228,803.1784224104948,798.082678460148,806.9681546603772,805.578890830005
1731017623.8757656,804.7412923233164,798.7539166301565,806.6554968348806,805.1663229142582
1731017623.8780546,804.593246723087,798.868782412878,806.3512860198083,804.7645696078198
1731017623.8796678,803.1196675335533,799.1084289734131,806.0492740320306,804.6110471466395
1731017623.883412,801.003943142457,800.2534503296845,805.7454306848088,804.1499150503247
1731017623.8835702,798.6681435786245,802.7188179818877,805.4391895903063,802.4379385142843
1731017623.8874726,796.195251936165,806.2364436172195,805.1318192829854,798.9496893824578
1731017623.8913753,793.6850276850778,809.8286357474684,804.8245765421196,794.2517264741961
1731017623.8936508,791.6082112833597,812.1815585220572,804.5179198907337,790.029739799188
1731017623.8952775,790.7994321804375,812.3676018944226,804.2116701680022,788.32037965833
1731017623.89918,792.056822640477,810.5403358176982,803.9054779824842,790.3424595183313
1731017623.9023037,795.5640017531547,808.0359005043604,803.59913138338,795.6504784439919
1731017623.903082,800.4607014992364,806.6201362831955,803.2926030464,802.17447793683
1731017623.9069846,804.9272135116595,807.3108235118958,802.9859559291928,807.1871379891646
1731017623.9089751,806.9867467110387,809.6543348578275,802.6792458849454,808.7168615571737
1731017623.9092467,805.7227777273282,812.045685188502,802.3724818585994,806.6548880092228
1731017623.910887,802.0562192976238,812.8610319302229,802.0656347402423,802.8589717235574
1731017623.9147894,798.2928222549532,811.5472133775588,801.7586643678128,800.0067947991441
1731017623.918692,796.571524034279,808.8922943928898,801.4515448955503,799.7711740890361
1731017623.921195,797.3898879244086,806.3505276422429,801.1442811106498,801.6002873288089
1731017623.922594,799.4507522344145,804.9694401004382,800.8369074223405,803.1985714423088
1731017623.9248433,800.9354250913477,804.7020381780578,800.5294565211959,802.5054540625711
1731017623.9264965,801.0236429099739,804.5748991985135,800.2218980992789,799.5653701469508
1731017623.9303987,800.3304863891823,803.5538399816215,799.914089374536,796.6241543273114
1731017623.9343014,800.0278479437509,801.4289534560288,799.6058209938047,796.3333108593405
1731017623.9382038,800.6170012007151,799.0253928744327,799.2970181677503,799.6420740781184
1731017623.9400866,801.4863018804801,797.5891383415012,798.9880123469999,805.1303299655492
1731017623.9404392,801.5285421018773,797.8659405601936,798.6795834941355,810.1310842080787
1731017623.942106,800.1533725130623,799.5998768399531,798.3724075731583,812.5316600634254
1731017623.9440274,797.8238135461412,801.7667301042628,798.0659231625963,811.9095445351588
1731017623.9460084,795.7631339295385,803.2582891102118,797.7574939101277,809.4634788116892
1731017623.9499109,795.1418337989891,803.4867376856719,797.4434768408951,807.0500892599881
1731017623.9538133,796.3579520327175,802.5880424119896,797.1231724212006,805.9947202096963
1731017623.9560354,798.8605262689113,801.2424933197682,796.8037391831188,806.3316411742205
1731017623.9577155,801.5485086475395,800.2853195901363,796.5002147394193,806.9008574498837
1731017623.958978,803.4178063423183,800.2603590534914,796.2241413999759,806.264418918952
1731017623.961618,804.0418082075211,801.0699055568795,795.9622772662498,803.8528811981744
1731017623.9655204,803.6515591262325,801.9341142326934,795.6633803946354,800.5305752628099
1731017623.9694228,802.8439703716733,801.8069759276841,795.2635777479671,798.1321104661736
1731017623.9716315,802.1152845010419,800.0918682973531,794.7664416791738,798.2319750130318
1731017623.9733253,801.4770350193021,797.1802616690912,794.3395295725646,800.9547688278348
1731017623.9772277,800.4155975403605,794.3653638540848,794.3260858055846,804.672373850354
1731017623.9778695,798.340140608124,793.1190687503939,795.0835140340812,806.9373507547025
1731017623.9790795,795.3166324763808,794.2031230131499,796.7020061888717,806.1828714147654
1731017623.98113,792.4727196326812,797.1992013185517,798.8181409264844,803.0314603207022
1731017623.9850323,791.4796991961534,800.7295644329807,800.7145366775621,800.0993905114022
1731017623.9872277,793.2564110911195,803.1919342793498,801.6699141835028,800.2118175304772
1731017623.9889348,796.9553513003126,803.5635158540088,801.3306139734301,804.3041236888083
1731017623.9928372,800.3394233379487,801.8475811487996,799.8976205483316,810.7213834484933
1731017623.9967396,801.4948929744023,798.9750252350207,798.0750546452797,816.5278511340651
1731017623.996761,800.4726756009208,796.2901337905084,796.820294664686,819.7014457637596
1731017624.000642,799.3397904546931,794.9567983193199,796.9492237451011,820.3613191839028
1731017624.0028238,800.4874839546868,795.5724319123341,798.7071089925699,820.135902080866
1731017624.0045445,804.5869922291893,798.0388596894068,801.5386067263164,820.4382275209542
1731017624.0084467,809.8660083483724,801.5826041611759,804.2973060443644,821.2265719943691
1731017624.0123491,813.2496346796162,804.9057487428378,805.8784882708967,821.2160627398436
1731017624.014132,812.4672879946804,806.6036106522545,805.8930356617655,819.2068228385525
1731017624.0156524,807.6118020208515,805.885220945025,804.8827574208619,815.3499325048033
1731017624.0162516,801.1183759667712,803.2484824841226,803.8842040369393,811.341423634857
1731017624.0184202,796.2128529155799,800.4935140703604,803.656946245555,809.4322244583363
1731017624.020154,794.8741768394561,799.7550807147258,804.1698762377705,811.0288564671283
1731017624.0240562,796.7072226262587,802.0396821822917,804.7338903431979,815.8928101900739
1731017624.0279586,799.5328621507085,806.3662343002203,804.6436692501728,822.3951612661135
1731017624.0318613,801.2307407189061,810.3077416333613,803.7908564660667,828.4431685576578
1731017624.0340164,801.3493408006576,811.6198109839889,802.770085213513,832.3171964136131
1731017624.034544,801.1770720041319,809.7154157679036,802.4361393240288,833.0217741985637
1731017624.0357635,802.3013459127534,805.8947598492696,803.286919120322,830.3472474339704
1731017624.039666,804.9949755264812,802.2951308748053,805.125360714372,824.9437287227189
1731017624.043568,807.8585790748413,800.4813025789061,807.2076649956342,818.3048411047538
1731017624.0474706,808.9733140976236,800.6814586403999,808.7483699199638,812.3152361300587
1731017624.0491843,807.5025709978954,802.0062371761987,809.4377551443744,808.3724689874663
1731017624.0496123,804.3809537524093,803.2582973081402,809.6256601037035,806.6596153330906
1731017624.051373,801.5903549709524,803.6869699980167,810.0290396872936,806.2031133186689
1731017624.053435,800.6987174237827,803.2882557308782,811.1344842812922,805.7466690507866
1731017624.0552754,801.848637998839,802.647430875253,812.716504998708,804.7722051137331
1731017624.059178,803.9046233079472,802.539525395766,813.879751774097,803.8539855924959
1731017624.0630803,805.4755990238689,803.490349701988,813.6821596776155,804.0687718698655
1731017624.065209,805.8783723725832,805.4340458648587,811.9055667794374,805.9555792395615
1731017624.0669825,805.3298631959054,807.6162785641047,809.3345567024678,808.8941082102045
1731017624.0708847,804.4569908944176,808.895471837191,807.2594461149739,811.4307401384109
1731017624.072327,803.7467093301132,808.408521649702,806.5890000348116,812.2903750394315
1731017624.0747874,803.363413253076,806.2289687826068,807.314025907145,811.2419535256939
1731017624.0786898,803.2578528392647,803.4839251714563,808.7301372871791,809.1383820695224
1731017624.0808048,803.312620866025,801.6992895776083,810.1214094346251,807.1856106008139
1731017624.0825922,803.4219655955861,801.7585777128467,811.2264613382081,806.1239187148035
1731017624.0842364,803.5241572667923,803.24873859091,812.11187194199,805.9518234958399
1731017624.0864944,803.6029493866669,804.7263253492766,812.7175563740334,806.2284209497049
1731017624.090397,803.6678949663876,804.7385546340531,812.6447147779429,806.5259674510284
1731017624.0912182,803.7324010569777,802.8613509292087,811.444825455149,806.6608561850675
1731017624.0942993,803.802744594034,800.0201974929679,809.1148568541405,806.6597740505429
1731017624.096401,803.8780847034699,797.8902339666026,806.2974880935648,806.6200702471
1731017624.0982018,803.9550058949964,797.802820023323,803.9800573239614,806.6076395065338
1731017624.1021042,804.0311088986115,799.8919196823178,802.915101502037,806.6333506965473
1731017624.1060064,804.1059286142818,803.0337709501156,803.1567539850146,806.6775140155337
1731017624.1099088,804.1801231648165,805.6004943517053,803.990312918885,806.71956208288
1731017624.1101098,804.2544244399857,806.4998379458036,804.3139339726217,806.7513788246704
1731017624.1119971,804.3291411908964,805.784075117424,803.3116703555098,806.7752560236618
1731017624.1138113,804.4042098939915,804.4382379489348,801.0553359247242,806.7965142721737
1731017624.1177137,804.4794491806966,803.5645859819324,798.6088447459229,806.8184396043662
1731017624.1192887,804.5547426890527,803.5912441072102,797.4483926973179,806.8413787022513
1731017624.121616,804.6300767999498,804.0474610850592,798.4928724093019,806.8641867430996
1731017624.1255183,804.7054924199081,803.9903520906026,801.3970854939017,806.8857817634845
1731017624.1275933,804.7810301535201,802.7238794077572,804.6446731794484,806.9057735810981
1731017624.1290011,804.8567072712053,800.3109014835494,806.4256964418004,806.9243019709629
1731017624.1294208,804.9325229556406,797.5669805611858,805.7215186417445,806.9416360851359
1731017624.1333232,805.008471952595,795.5791020522945,802.8827337414723,806.957921571631
1731017624.1372256,805.0845519011946,795.0972167357965,799.3573106844059,806.973149224847
1731017624.141128,805.1607618332787,796.205100500622,796.8043714107647,806.9872384715889
1731017624.1431894,805.2370982031857,798.4305483345673,796.1926340848731,807.0001180326148
1731017624.1450305,805.3135566298295,801.1032642201959,797.4111398381904,807.0117548891961
1731017624.1478927,805.390142138846,803.6406830458718,799.531933239753,807.0221428414835
1731017624.1489327,805.4668800276663,805.6317634810688,801.4722048301168,807.0312808876042
1731017624.1528351,805.5438099211395,806.8285449423427,802.6354229798243,807.0391610378034
1731017624.154341,805.6209492080872,807.1626565137099,803.1843490785243,807.0457682866277
1731017624.1567376,805.6982393287543,806.7459489163452,803.8192029103795,807.0510860610658
1731017624.1587856,805.7755310636384,805.7701278944389,805.210651622173,807.0550999352494
1731017624.16064,805.8526822021246,804.362046085445,807.4586828727554,807.0577964758565
1731017624.1645424,805.9297745415779,802.5572951100793,809.9579746002729,807.059158945134
1731017624.166784,806.0072928371005,800.445844844797,811.777779471447,807.059165233687
1731017624.1684446,806.0859549725367,798.3364363898758,812.2783812207495,807.0577938573201
1731017624.1723473,806.1659775700472,796.7320553026937,811.5040360371042,807.0550384946654
1731017624.1743815,806.2460957655408,796.0769834331581,810.0792451526185,807.0509201237803
1731017624.1762495,806.3234360418231,796.4534031207244,808.731331496822,807.0454756756167
1731017624.180152,806.3955586275591,797.4684938971171,807.833369114673,807.038708848073
1731017624.1840544,806.4645784994599,798.444889300517,807.2981004205622,807.0305247534357
1731017624.1856756,806.5401318255491,798.8262454674979,806.8325633343408,807.0207221377293
1731017624.1879566,806.6353445344013,798.5652561512488,806.269840322243,807.0091308573828
1731017624.1893933,806.752382230745,798.2356000215219,805.6826220686603,806.9958873928654
1731017624.189978,806.8647718808189,798.7278485079689,805.2422674908463,806.9816309621445
1731017624.191859,806.9179275162087,800.6491316727689,805.03080969709,806.9672298289685
1731017624.1957614,806.8713124473231,803.8227143824928,804.992656991136,806.9528124927076
1731017624.199664,806.7763283369335,807.3121823942126,805.0153708794451,806.9365900436629
1731017624.2035663,806.824555628294,810.0173692208366,805.0190339896535,806.9149045879276
1731017624.204567,807.2582987919109,811.3711901694933,804.9833194538196,806.8850596874809
1731017624.2055745,808.0951569299915,811.5650398711383,804.9248100091041,806.8505083637838
1731017624.2074685,808.8336532483152,811.208424456837,804.8651354045994,806.8239833367893
1731017624.2113707,808.5261716009837,810.8351461850166,804.8144318255202,806.8212864368718
1731017624.2152734,806.4195721009208,810.6622033115709,804.771514049901,806.8423654054341
1731017624.2191758,802.705733798455,810.6508587349618,804.7310559154212,806.8502947108626
1731017624.2211704,798.6008109264845,810.6818717560815,804.6892745471997,806.7758486736041
1731017624.2230785,795.6002291343926,810.6776043385564,804.6454126312285,806.574701121659
1731017624.2234583,794.5853322795493,810.6273681452972,804.6004860982964,806.3230905210778
1731017624.2244456,795.4657049007783,810.5561153182856,804.5556381589973,806.261382316898
1731017624.2269807,797.415722575491,810.4885906069428,804.5113523526227,806.6589255497842
1731017624.230883,799.3414050993395,810.4340130173294,804.4675264434968,807.5049518353794
1731017624.2347853,800.2891598764907,810.3891793991238,804.4238700983299,808.2999904460826
1731017624.2367666,799.7550036202315,810.3475555790458,804.3801932057066,808.2933714991075
1731017624.2386878,797.9229877854162,810.3052634098234,804.3364670476859,807.1274384561816
1731017624.24235,795.7370434167168,810.2619935880385,804.2927497229967,805.3342235512786
1731017624.2425902,794.6121029943098,810.2191674020248,804.2491,804.1046231812735
1731017624.2464926,795.722132904211,810.1780647856392,804.2055401121329,804.3593296484772
1731017624.2503948,799.1555463022429,810.139107675509,804.1620625858512,805.8535536155117
1731017624.2523627,803.5251430146834,810.1020877124736,804.1186510561037,807.1418347824728
1731017624.2542973,806.5001747572354,810.0666572742753,804.0752934145115,806.549050719892
1731017624.2581997,806.1257222441411,810.0326263675213,804.0319837524773,803.4240395733742
1731017624.259498,802.1298763866495,809.9999902854563,803.9887204159198,798.6955855010834
1731017624.2612414,796.2895475897291,809.9688249239534,803.9455069064896,794.3327064130332
1731017624.262102,791.5261365483487,809.9391925099357,803.9023546470742,792.1729246820464
1731017624.2660046,790.2898040108036,809.9111126928142,803.8592793948123,792.9736564191105
1731017624.2679589,793.266966361317,809.8845791151011,803.8162842046182,796.2314606448776
1731017624.2699068,799.1720183914631,809.8595792879718,803.7733356098037,800.6857565488998
1731017624.2738092,805.6319767633595,809.83609401487,803.7303601123025,805.0140904651606
1731017624.2777116,810.5163340815088,809.8140843799597,803.6872943177,808.2699073223444
1731017624.280133,812.8965044533387,809.7934960163784,803.6441874083479,809.9564959146162
1731017624.281614,813.1550358303326,809.7743045996788,803.6012761975535,809.9370390060645
1731017624.283555,812.3571476335798,809.7565852087862,803.558886934923,808.4131315950505
1731017624.2855165,811.4554180941818,809.7405285257457,803.5170766044781,805.9888959942178
1731017624.2894187,810.8739016136499,809.7263060236971,803.4751896045233,803.6206652864556
1731017624.2933211,810.5799409969113,809.7137801380655,803.4318621450126,802.2772210385602
1731017624.2945502,810.3749437498806,809.7022770161208,803.3860621024548,802.4147625043445
1731017624.2972236,810.1163157527794,809.690836605344,803.3390267599511,803.6456756179924
1731017624.2990243,809.7756762947087,809.6792100393649,803.2954740566558,804.9419424443719
1731017624.2991512,809.3918050133996,809.6691453694455,803.2613672628554,805.3146242969874
1731017624.301126,809.0082223753399,809.6644745644263,803.2369241899922,804.4727209776769
1731017624.3050284,808.6433230384501,809.6682846012585,803.2087670740441,802.931133420338
1731017624.3089309,808.2932135735598,809.6774158104299,803.1516139544763,801.5200518694983
1731017624.3128333,807.9468506835203,809.6787361222262,803.0501070240596,800.8073584389549
1731017624.314747,807.5970129768237,809.6549517749818,802.9369802058663,800.9696779315451
1731017624.3167355,807.2426281226246,809.6041228055318,802.917514576648,802.0711003553708
1731017624.317916,806.8859308273823,809.5625854383123,803.1381021669275,804.2045838599632
1731017624.320638,806.5291749570829,809.6021457052495,803.6929460529338,807.1724669858842
1731017624.3245404,806.1732084669084,809.7704696557039,804.530456882319,810.0928417782088
1731017624.3284428,805.8177394593642,809.9828221330168,805.4387074146072,811.6020407469358
1731017624.3296025,805.4621628577493,809.9483022869144,806.1239620154848,810.7327493382135
1731017624.3303435,805.1061114448235,809.2537501519344,806.3278761330869,807.7295452153563
1731017624.332345,804.7495440736853,807.6322956503235,805.9317198068236,804.001533699421
1731017624.3362474,804.3925799029711,805.2407290094227,805.0335930344111,801.2187645175667
1731017624.3368073,804.0353272947455,802.6888747706005,803.9821709681785,800.3512309951002
1731017624.34015,803.6778176261793,800.7509999740233,803.310239197598,801.4020106161823
1731017624.3440523,803.3200255245335,799.9557299609662,803.5176746425753,803.8353753875764
1731017624.3459396,802.9619128625786,800.3241488150803,804.7645847356183,807.0857092711425
1731017624.3479548,802.6034541523759,801.3965690222135,806.6753221601766,810.6363150374337
1731017624.3518567,802.2446373265243,802.5240200662411,808.4554679766626,813.764215250105
1731017624.3556988,801.8854551314149,803.2778663116031,809.316921839774,815.4771239023779
1731017624.3557594,801.525902755869,803.7311369747426,808.9447205609603,814.9829981312535
1731017624.3596618,801.1659848806161,804.354773171664,807.6739326908651,812.4155956922565
1731017624.361536,800.805720840577,805.4996946880862,806.2554896268538,809.1010800207657
1731017624.3635645,800.4451306483556,806.8477789623595,805.389675656659,806.8821667388332
1731017624.3646548,800.0841968059608,807.4077645016623,805.3423509434738,806.8272521725563
1731017624.3674667,799.7228284140574,806.2358867740379,805.8617300257787,808.3538911800814
1731017624.371369,799.3608853083924,803.3152082355459,806.4080037964175,809.641517745356
1731017624.3745902,798.9983074456471,799.7232206857924,806.5364688877268,809.1455752991932
1731017624.375271,798.6353005389647,796.8329950646813,806.1937579191571,806.9466255770802
1731017624.3771322,798.2723819851402,795.2864844287275,805.7226214206305,804.682688556369
1731017624.3791738,797.9100346453752,794.749624218152,805.5489617490174,804.0691928238501
1731017624.3830762,797.5479516268224,794.6261030086162,805.7742635739295,805.3523544700563
1731017624.3869786,797.1844276107206,794.8645622440165,806.0118383282677,807.1107043511054
1731017624.3908813,796.8169762993668,795.9330343270443,805.6321407844116,807.5299387036977
1731017624.3927283,796.4449036235114,798.0245186713113,804.2376043918522,805.9405820104257
1731017624.3934815,796.0726925886446,800.4506803877802,801.9881922644672,803.301215189414
1731017624.3947833,795.7103625940159,801.9736177150776,799.5331659172729,801.3639006309072
1731017624.3986857,795.366288142004,801.7983305528713,797.6332723081648,801.3423274972782
1731017624.3997068,795.0329772885674,800.253899240407,796.7752856296506,803.1219325682955
1731017624.402588,794.6773408683164,798.5243692165782,797.0241896607585,805.4669966145568
1731017624.4064906,794.256159449155,797.7189736897443,798.1270737469491,806.9344504818755
1731017624.4083245,793.769548278444,798.1296805592378,799.7031817935152,806.8177107105552
1731017624.410393,793.3308225822941,799.2412994954886,801.363683629501,805.5312490881383
1731017624.4123733,793.1898335692423,800.3277980099259,802.7490088112617,804.2482394086684
1731017624.4142952,793.6498273320848,801.0218291245261,803.5786099225442,804.0744427836361
1731017624.4181976,794.8916604570053,801.4181418145811,803.7605964358257,805.3302409284586
1731017624.4221,796.8080031484948,801.7796218820439,803.4694855799253,807.4280086939051
1731017624.4239206,798.9722191955357,802.235692168263,803.0555239218571,809.3857470219025
1731017624.4260025,800.8085849825304,802.7519212019106,802.7964073750726,810.5238824852108
1731017624.4299047,801.919371169848,803.3013546764239,802.7032834301948,810.7920525861782
1731017624.4312646,802.3825381520959,803.9631438896778,802.5947268023797,810.5751265486701
1731017624.4338071,802.7563246301587,804.8015661393463,802.3901026326738,810.2907997009046
1731017624.4347591,803.6794541292293,805.6720349219975,802.3039871496469,810.1446808966987
1731017624.4377096,805.3318035977383,806.2217081689544,802.6759934295363,810.1340745310232
1731017624.4395168,807.2751219770173,806.1510186059367,803.5519807681509,810.1721329562745
1731017624.441612,808.9369130189209,805.4940755741762,804.4541578649299,810.1913211307608
1731017624.4455144,810.3330958758145,804.6204912411899,804.6578842570207,810.1750147411246
1731017624.4494169,812.2168212597254,803.9484861568465,803.8077537612053,810.1390088684078
1731017624.4501562,815.2715969524811,803.6604058797041,802.3372936264684,810.1032278145308
1731017624.4533193,818.9727613170149,803.6671094101035,801.2819061068823,810.0769572297459
1731017624.4551127,821.3134767461376,803.7739024182538,801.5817898726712,810.0591345580506
1731017624.4572215,819.9906016836563,803.8433903513283,803.4035736060938,810.0449364849379
1731017624.461124,814.2848115474856,803.8424733025932,806.0036216694884,810.0309588957982
1731017624.4650264,806.0351887607511,803.8015397241564,808.2301162574247,810.0165558823555
1731017624.4689288,798.706298975322,803.7586100768902,809.2677955419184,810.0026913539684
1731017624.4690475,795.1322273309779,803.7309996326558,809.0677223049153,809.9904391088166
1731017624.4698114,795.6737194174538,803.716218938774,808.1921272570554,809.9802690147361
1731017624.470709,798.2072887591816,803.7047822414706,807.2770560126479,809.9721170877752
1731017624.4728312,799.8905486223989,803.6900997728925,806.5735879550673,809.9657487088468
1731017624.4767334,799.2905252089298,803.6709254083826,805.8937919051705,809.9610208749916
1731017624.480636,797.2727472851595,803.6490717618109,804.9233252159113,809.9579371764635
1731017624.4845383,796.0655650605778,803.6265177232355,803.5874568779221,809.9565793173787
1731017624.4863052,797.293805131182,803.6040618127365,802.1709679611756,809.9570283466966
1731017624.4879391,800.5095467394575,803.5814812826418,801.1367949910763,809.9593306710264
1731017624.4884408,803.3509726840816,803.5582389828322,800.8291949866494,809.9635045395851
1731017624.4923432,803.2428481390897,803.5339839890327,801.2928411285528,809.9695598610174
1731017624.4962454,799.3857011147284,803.5086507783307,802.297384298546,809.9775113567672
1731017624.5001478,793.5274200439507,803.482323886628,803.4917161268916,809.9873806204881
1731017624.5019014,788.9045940016516,803.4550863357122,804.5649522935579,809.9991921114325
1731017624.5040505,788.1257699100402,803.4269557966342,805.3543742896852,810.0129690336083
1731017624.5048635,791.5486821940578,803.3978983562558,805.8995776678478,810.0287317307223
1731017624.5068305,797.2665556077972,803.3678670424441,806.4274225953761,810.0464981558331
1731017624.5079527,802.5707306615005,803.3368269239639,807.223664748848,810.0662849302076
1731017624.5118551,805.7178500176623,803.3047587611557,808.4025569564815,810.0881079851475
1731017624.515757,806.7496647859115,803.2716511605827,809.7094669683169,810.1119826152889
1731017624.5174975,806.9466184045611,803.2374926946873,810.5428490692298,810.1379232378264
1731017624.5196598,807.5415969300852,803.2022689342716,810.254700728036,810.1659431684161
1731017624.5235622,808.7805883950602,803.1659634504449,808.5571827573199,810.1960545373524
1731017624.525722,809.9862327793277,803.1285599000597,805.7387533318573,810.2282683119446
1731017624.5274646,810.3732731147664,803.0900432773035,802.5201757043685,810.2625943445305
1731017624.5313673,809.7735250691733,803.0504000289087,799.6701880218726,810.2990413959177
1731017624.533094,808.6356240576526,803.0096176135144,797.6869950472554,810.3376171284726
1731017624.5352693,807.4231503066959,802.9676841013992,796.7515124190082,810.37832808583
1731017624.5391717,806.1079749929254,802.9245880430001,796.8766128250544,810.4211796754286
1731017624.539916,804.3141353682696,802.8803185326642,798.0115715636772,810.4661761596437
1731017624.543074,801.977310563487,802.8348653127821,799.9772679062776,810.5133206531037
1731017624.5446134,799.8283071204756,802.7882188326687,802.3527825577669,810.5626151215553
1731017624.5469766,799.1207329513579,802.7403702677882,804.5211182834358,810.6140603794164
1731017624.54869,800.6992009182201,802.6913115383143,805.9170396782104,810.6676560858912
1731017624.550879,804.1349887616356,802.6410353331217,806.2910611864245,810.723400741518
1731017624.5547814,807.6935775025378,802.5895350898588,805.7610188807148,810.7812916877009
1731017624.5586836,809.3029701718375,802.5368048717834,804.6184901421747,810.8413251105765
1731017624.562586,807.9177404182325,802.4828391702586,803.0958302351394,810.9034960471558
1731017624.5635047,804.306948894365,802.4276328249555,801.3302030469873,810.9677983873764
1731017624.5642862,800.6373226958606,802.371181343326,799.5363618528066,811.034224864943
1731017624.5664885,799.0722409157432,802.3134816911106,798.1479670885967,811.1027670381237
1731017624.5703907,800.3545463567483,802.2545330308506,797.6907539875947,811.1734152790538
1731017624.5742934,803.3981645571503,802.1943362637268,798.4353021032027,811.2461588035384
1731017624.5749683,806.1860142716596,802.132891450247,800.1515329027069,811.3209857581969
1731017624.5781956,807.288241180299,802.0701940427322,802.2388296502637,811.3978833221439
1731017624.5798824,806.8385888423992,802.0062338275612,804.1502429957986,811.4768377039178
1731017624.582098,806.2275205908546,801.9410017062864,805.7237393040631,811.5578339098528
1731017624.5823965,806.7831029561999,801.8745048524169,807.1118701789845,811.6408553295672
1731017624.5860004,808.5291551587941,801.8067793160365,808.4058398627672,811.7258835121575
1731017624.5899029,810.0582703300945,801.7378783613796,809.3647146389106,811.8128987265318
1731017624.5938053,809.6320659165698,801.6678212929266,809.5452574743847,811.9018815481636
1731017624.5954783,806.5830130810864,801.5965247400713,808.7019124613627,811.9928145453895
1731017624.5977075,801.8593362878736,801.5237930134316,807.0515165373156,812.0856817657351
1731017624.6012878,797.3310507083195,801.4494599028139,805.1575469606205,812.1804638720644
1731017624.60161,794.5223602650753,801.3736766682781,803.577738735557,812.2771302515004
1731017624.6055124,793.8117065157095,801.2971214928948,802.6101144274469,812.3756355773426
1731017624.6094148,794.6115673694485,801.220721722837,802.3105628486711,812.4759317553986
1731017624.6100206,796.1885455659968,801.144646360777,802.66963388894,812.577998324566
1731017624.6110747,798.3458105928713,801.0670653882692,803.7235442359989,812.6818716287
1731017624.6133173,801.4205717862219,800.9841702142224,805.4942857342872,812.7876287546412
1731017624.6172194,805.6604840790159,800.8930986105934,807.8414372580663,812.8952896148875
1731017624.6201792,810.5499529317232,800.7973656042161,810.386080580534,813.0046709679833
1731017624.621122,814.7226761259528,800.7102313670658,812.596706618382,813.1153408665343
1731017624.6250243,816.67224627217,800.6483787183956,813.9939715211483,813.2268730090003
1731017624.6266708,815.8132422517172,800.6122524166881,814.341755228281,813.3394291120613
1731017624.6289268,813.0388427129532,800.5639960481905,813.7030312368107,813.4542578630836
1731017624.6328292,810.1996336343587,800.432022683638,812.3433710519978,813.573274442429
1731017624.6367316,808.8037856978262,800.1713672120964,810.5852935825277,813.69711203005
1731017624.6390707,808.9770391428333,799.867503072488,808.7389512707889,813.8224502060352
1731017624.6406338,809.5625090569681,799.7947317464364,807.1233900966547,813.9415426456518
1731017624.642267,809.2489927183051,800.2974443835019,806.0675781884355,814.0475416902374
1731017624.6445365,807.7205373319023,801.4732459597184,805.7976333235982,814.1455493204984
1731017624.6450727,805.8698761402559,802.9143351156864,806.2686269702515,814.260864636587
1731017624.6484387,805.0068047107682,803.8861861647929,807.1105017950871,814.4285304850379
1731017624.6523411,805.824867067609,803.9289741870431,807.7943540139381,814.6539859787649
1731017624.6562436,807.9446853975602,803.3006197025933,807.9424043675216,814.8619047232949
1731017624.6578631,810.2406376533581,802.738611256576,807.5664431701721,814.8864124547788
1731017624.657962,811.5503601260581,802.7399909661713,807.038297988926,814.5548521473244
1731017624.6601458,811.2378178581517,803.0956617658068,806.7715014455672,813.8298244418323
1731017624.6640482,809.3441649158316,803.1581738590883,806.8276118171528,812.8496198405632
1731017624.6679506,806.3708344104107,802.5633553625087,806.7807000110274,811.7358049249186
1731017624.6718533,802.9123253235523,801.6641223009835,806.0233608052134,810.3084345202009
1731017624.6734593,799.3931219276111,801.2451032549588,804.323366609304,808.0772848977707
1731017624.6757555,796.0613092785662,801.8273765059013,802.1554148972258,804.6814351977453
1731017624.6768537,793.1658616922422,803.2487527374338,800.4585620706686,800.4461585280244
1731017624.6796577,791.0663832493223,804.8526325508925,799.9594697048045,796.485922605685
1731017624.680125,790.0978015083998,805.9867452916898,800.612255809529,794.1325519915961
