timestamps,eeg_1,eeg_2,eeg_3,eeg_4
1731139805.848031,815.5153803231269,802.1179999715762,808.1499898027608,799.0935455434525
1731139805.8519382,893.9140720613393,801.0257128659935,810.38398280113,831.0739927717152
1731139805.8558457,945.1006833566979,799.2536764302598,812.2463955260556,852.4125301036548
1731139805.859753,960.304569605258,797.0608173871218,813.8323763799762,859.9979887137293
1731139805.86366,951.5676340993018,795.545692497194,815.492287246505,859.085080970761
1731139805.8675673,938.2082554539616,795.5791576551785,817.1825337007433,857.6084445551966
1731139805.8714745,931.9491647571261,796.8381553351875,818.2275260602177,860.1100933155968
1731139805.875382,933.0767789936646,797.8841676066302,817.8239382287677,866.303621843623
1731139805.8792892,936.4841910313489,797.2052244328244,815.7082151388563,873.6071964678334
1731139805.8831964,938.2826977013865,794.2978658034266,812.3118008187389,879.7594464834505
1731139805.8871036,937.5635782780188,789.9321632001173,808.4349640705091,883.4906517095142
1731139805.8910108,935.0777607131425,785.5100372412387,804.9032037340642,884.2711960133421
1731139805.8949182,931.9267023968632,782.1571234746301,802.3789351300308,882.443704922645
1731139805.8988254,928.7675552707971,780.3060426238272,801.1872762727854,879.4328420927328
1731139805.9027326,925.382122467839,779.9873931569169,801.1985105283617,877.1944752222197
1731139805.9066398,921.23974720645,781.3247264912975,802.0032076219981,877.030712163879
1731139805.9105473,916.6073745855878,784.5266938431392,803.3178731521774,878.6252102178476
1731139805.9144545,912.5547448844419,789.2784215113815,805.1950706543126,880.0284365616538
1731139805.9183617,910.0173279909967,794.2797030857251,807.7942061883776,878.9883847619213
1731139805.9222689,910.0287056577303,797.743368791714,810.9571283816827,875.2643582637089
1731139805.926176,914.8513037605755,798.6847869124132,813.9727477247404,872.0143607075433
1731139805.9300835,926.4309322699726,797.8181411966616,815.677599380408,873.8770094533965
1731139805.9339907,941.5630440886204,797.0586763845723,814.8793913067204,882.2457955754124
1731139805.937898,950.0941226376801,797.9416608682778,811.0559881224153,892.3318167780881
1731139805.9388733,942.1533513028901,800.3334950965468,805.0343560962929,896.2646285103002
1731139805.9418051,919.5760962762869,802.5342003827861,799.009435392046,890.276836990696
1731139805.9457123,898.1718054291325,802.6204317943251,795.4680515780035,878.6004105420049
1731139805.9496198,894.6557624676143,799.9092862846317,795.5188616037345,869.3205983803263
1731139805.953527,909.4332353579687,795.487060562346,797.9504708600136,866.1324755592237
1731139805.9561117,923.8286740409388,791.5545758213657,800.0129312717687,864.9021381492358
1731139805.9574342,917.1073792842926,790.14287159256,799.4981890116485,859.040293199835
1731139805.957718,887.6765576606598,792.050734461242,796.463398095171,848.0528483260717
1731139805.9613414,856.9599408035112,796.5868731672749,793.1438524622351,839.8560015556209
1731139805.9652488,850.7791832985852,802.1151510209454,792.1317565997349,843.7496354114988
1731139805.969156,875.2967052324053,806.9143300692739,794.3537745659996,860.7009321618426
1731139805.9716666,910.3398930162928,809.8125905677565,798.468989639437,880.6823371317552
1731139805.9730632,926.7189117117118,810.4056925096098,802.0570871017636,890.1670939648801
1731139805.9765632,911.8064041285028,809.0060125597054,803.5355052869043,883.1766974673139
1731139805.9769704,880.0846569456694,806.4707955794222,803.2597569204569,865.8502409066704
1731139805.9808776,859.1648285908118,803.8823948647712,802.9838554237386,850.4528218169021
1731139805.9847853,864.1866276887333,802.0904493603693,804.1976641660405,844.4301824163808
1731139805.9872217,884.2414914576221,801.3643267698094,806.8004878860633,844.611007249854
1731139805.9886923,893.4962406039615,801.42238496918,809.2894512114111,841.7483499676464
1731139805.9925995,876.5775913949948,801.7781673314815,810.257596139303,830.7312908994228
1731139805.995408,843.9772648258102,802.0811847648724,809.7499616899752,816.3344193893088
1731139805.9965067,822.4078116344957,802.2278727443899,809.1836351033454,808.764559447049
1731139806.000414,829.0609407965429,802.2755974177026,809.9765945837815,813.3904510831502
1731139806.0027764,854.5227343136993,802.3118354910509,812.2700192544596,824.8954137450065
1731139806.004321,871.0754431804014,802.3813077155827,814.9333908113539,831.7893824619057
1731139806.0082283,858.8115947672535,802.4820823763307,816.7129137919579,827.0357006325784
1731139806.0121355,824.8449650546853,802.5932808178844,817.3218132772295,814.586501957067
1731139806.014253,797.3232534211827,802.6988997256506,817.465738913872,805.6219208423067
1731139806.0160427,799.6410973797215,802.795028894204,817.9251611729223,808.1457944195438
1731139806.0183313,828.7727267206997,802.8854056695008,818.7117739414755,819.7421412912638
1731139806.0199504,857.8041576693116,802.9747285972309,819.143143697768,830.0935554349414
1731139806.0238576,860.2993292080358,803.0651840258276,818.6789242860202,830.6363481219402
1731139806.0277648,833.9342427875147,803.1565234282237,817.5646165542953,822.2252661262467
1731139806.031672,801.6471930809746,803.2476183985086,816.554273800506,813.7990708079677
1731139806.0330975,789.6872045920705,803.3376791044,816.0059770762944,813.5644672981127
1731139806.033886,803.5250457664197,803.4265667244117,815.3711649984077,821.1267167828756
1731139806.0355794,824.1820704394526,803.5145212177858,813.71118103621,827.9686340785692
1731139806.0394866,827.8007953159974,803.6018078732608,810.7591544257434,825.8110413555338
1731139806.043394,809.2461941922237,803.6885497807098,807.4106732493535,814.9892390112032
1731139806.0473013,787.082677446659,803.7747448803285,805.0665606422746,804.8513297761739
1731139806.0494409,785.3375377217999,803.8603516812159,804.3974057125143,805.487522383637
1731139806.0512085,809.6513649732542,803.9453509223964,804.679791937944,818.1870640223572
1731139806.0519428,840.7791118536177,804.0297583519276,804.326002345656,833.4428911145199
1731139806.0551157,852.0439020255697,804.113608496953,802.1524237738695,838.6897885682271
1731139806.059023,834.6519734292966,804.1969360923054,798.3287001556494,829.2199849191471
1731139806.06293,806.9421688871015,804.2797680930453,794.3068921134786,812.6966628527044
1731139806.0649958,798.1790156004427,804.3621252134026,791.9017122922693,803.0842076836575
1731139806.0668373,821.2642298036891,804.4440265851919,792.2372217431389,808.9544822652788
1731139806.0707448,859.6832530904661,804.5254928327398,795.1467384619685,826.0975726951827
1731139806.0707877,881.4639097092511,804.6065465323471,799.2042401854911,840.824153135653
1731139806.074652,868.033770260659,804.6872112470088,802.3450178660636,841.2567751993201
1731139806.0785592,831.6690278049007,804.7675105384959,802.929294259996,827.0632538517185
1731139806.080551,805.2166950385555,804.8474675736987,800.8138043964381,809.4495111376006
1731139806.0824664,813.0203361307674,804.927105219178,797.6895715071023,801.669219558391
1731139806.0863736,849.2678519054767,805.0064462734141,796.1822263091133,808.4284146903057
1731139806.0896325,883.3379948604464,805.0855136001904,798.1124725887865,823.2080012999761
1731139806.090281,887.2271551204885,805.1643301233507,803.1409613808723,835.2300926671552
1731139806.0941882,860.2226079192893,805.242918752619,808.8829830489638,839.2130725803643
1731139806.0961056,828.7209691860239,805.3213023136848,812.4567599032457,838.924487637186
1731139806.0980954,821.7011534990652,805.3995035115387,812.2970046312267,841.6456791230562
1731139806.1020026,844.1105581207464,805.4775449189377,808.9323527968402,849.2660578841749
1731139806.1059098,871.8704418415925,805.5554489710172,804.3526854259997,854.8451123877804
1731139806.1084776,872.7429613903225,805.6332379542664,800.6800183990188,848.2935408759106
1731139806.1098173,834.8117254140953,805.7109339885681,799.1593954832139,826.2339256204431
1731139806.1116605,778.2485087820398,805.7885590063405,799.9124415065651,797.0161499713333
1731139806.1137245,740.5322915960786,805.8661347326196,802.1900308753163,775.8895294560213
1731139806.1137288,747.2743578634595,805.9436826674273,804.7206145602132,773.8230595158549
1731139806.1176317,792.2508875778029,806.0212240698299,806.0915637837039,789.0803426538288
1731139806.1215389,842.55474539955,806.0987799425824,805.2991195979087,808.6439840338601
1731139806.1254463,864.5178127328243,806.1763710167467,802.3519235328359,818.5418836409594
1731139806.1272151,849.4050509514569,806.2540177364197,798.4783063117222,814.6941647303092
1731139806.1273224,818.2299843254066,806.3317402442085,795.5864462289687,805.3973951884083
1731139806.1293535,802.2991066538489,806.4095583680601,795.1835128138206,803.5781431352071
1731139806.1332607,816.1736409652572,806.4874916093493,797.4763043440342,815.5325047897494
1731139806.137168,845.7902398203701,806.5655591309741,801.3353427929607,835.6064389469831
1731139806.1410751,861.3196601554124,806.6437797435113,805.1651380524999,850.925554298057
1731139806.14277,843.3458610371334,806.7221718887265,807.9953837669116,851.7683202665949
1731139806.1449826,800.1711188458681,806.8007536235943,809.9355217444345,838.9100371772272
1731139806.1461673,762.1306680176161,806.8795426123669,811.6962035729905,822.4292862438127
1731139806.1485431,757.9521847729034,806.9585561334725,813.6860282604031,813.6809258729455
1731139806.1488898,792.3097859553177,807.0378110964616,815.5314679560687,817.1905648682792
1731139806.152797,842.182896524785,807.1173240443034,816.4577051902861,828.5131161242682
1731139806.1567042,874.4175040252794,807.1971111059494,816.1712422387214,838.8638578827507
1731139806.158325,869.9979077345945,807.2771878909423,815.3902616972725,842.0096823862283
1731139806.1606116,835.5332046037331,807.3575693923223,815.4309878553922,837.7504847529402
1731139806.1645188,794.1290946514904,807.438270041066,817.0952098534235,830.0975544185342
1731139806.1650124,766.0735980551623,807.5193040262096,819.7871027436614,823.0998953736716
1731139806.168426,756.842659501668,807.6006857612259,821.6735929637891,818.3314458177291
1731139806.1723332,759.5467497698932,807.6824300074467,820.8668109124011,815.1867684877935
1731139806.17388,764.6466606091417,807.764551016198,816.7792360395093,812.4302071976114
1731139806.1762404,766.8194429932943,807.8470606323542,810.6577004311946,809.3038920715436
1731139806.180148,765.6980332362957,807.9299667371346,804.9027986751674,805.7211729051015
1731139806.1833577,763.2155167890495,808.0132747439167,801.6441122153933,801.9354751600989
1731139806.1838572,761.0663918118532,808.0969940240122,801.5577064032783,798.1871409095727
1731139806.184055,759.7774318435017,808.1811464639666,803.7077382811269,794.5603513977201
1731139806.1879623,759.0421792657702,808.2657675466057,806.4013116175972,791.0193828143404
1731139806.1894348,758.3867251467161,808.3508884726888,808.3071025977453,787.4991716911876
1731139806.1918695,757.5609569310984,808.4365001699215,809.0319506323377,783.9625973417253
1731139806.1957767,756.5670405247351,808.5225274911156,808.9403025602703,780.4076542026982
1731139806.199684,755.5140827908637,808.6088646362781,808.6050793224425,776.8486002143594
1731139806.202702,754.4888621074575,808.6955015336295,808.3905052746461,773.2976973970646
1731139806.203591,753.5142268735619,808.7826781344012,808.3661539933897,769.758615768719
1731139806.2049897,752.5711665364668,808.8708793685731,808.4388147425241,766.228971911541
1731139806.2074986,751.634458954312,808.9604667439642,808.5059126134881,762.7052077416289
1731139806.2114058,750.6918793449482,809.0510001478083,808.525686953827,759.1854267951175
1731139806.2153132,749.7443412321559,809.1408248169314,808.5088316569045,755.6695803963016
1731139806.2181718,748.7977534983308,809.2278757032907,808.4819559140084,752.1583984319514
1731139806.2192204,747.85640489697,809.3121449683848,808.4618789092956,748.6524488189697
1731139806.2205446,746.9211388212728,809.3984321372462,808.450680191886,745.1518404729295
1731139806.221547,745.9907276741058,809.495754900727,808.4427762210613,741.6563890945272
1731139806.2231276,745.0637638575464,809.6098500613839,808.432748374479,738.1658784339347
1731139806.2270348,744.1395911840503,809.7305081748493,808.4186040680994,734.6801982664764
1731139806.2309422,743.2182415704904,809.8253258925427,808.4010377039224,731.1993409424592
1731139806.2348497,742.2999834743778,809.857550595546,808.3814341913825,727.7233377660515
1731139806.2360995,741.3849858697963,809.8342792471183,808.3605795347544,724.2522116456737
1731139806.238757,740.4732430203686,809.8559594298009,808.3384810473674,720.7859744442645
1731139806.240392,739.5646599767475,810.0992628790376,808.3147768737676,717.324654930123
1731139806.242664,738.6591540729231,810.6769268031034,808.2891429309502,713.868321799234
1731139806.2465713,737.7566967542987,811.4240774215027,808.2614444530918,710.4170664303695
1731139806.2504785,736.857296986347,811.7952009819951,808.2316830683582,706.9709360524492
1731139806.251654,735.960964751749,811.0409803563194,808.1998891297221,703.5298620064152
1731139806.2529862,735.0676945306459,808.6092655528272,808.1660579640512,700.0936833929009
1731139806.2543857,734.1774904091827,804.5007372405512,808.1301450287007,696.6623545238651
1731139806.258293,733.2904225373206,799.3487143277896,808.0920894137757,693.2362742786256
1731139806.2592368,732.4066634388652,794.2117025150357,808.0518344212322,689.8164184745784
1731139806.2622,731.5264281700792,790.209418052898,808.0093332775994,686.4038217347944
1731139806.266107,730.6497852133781,788.1240196378917,807.9645444992999,682.9982999712985
1731139806.2672093,729.7764458899442,788.0802471882574,807.917426766405,679.5972636747014
1731139806.2700148,728.9058100854822,789.481737911171,807.8679397151575,676.1964673902535
1731139806.273922,728.03753991851,791.3362278380391,807.8160498342558,672.7941737563359
1731139806.2778292,727.1725259607322,792.8141138664881,807.7617338221961,669.397207838482
1731139806.2780817,726.3133613367461,793.6262694924563,807.7049697249311,666.0226077005709
1731139806.2817364,725.4629815831128,793.9643437459982,807.6457139259591,662.6866297172932
1731139806.282764,724.6210143378471,794.1679450397172,807.5838804538902,659.3803170119625
1731139806.2856438,723.7801071149051,794.4546236989324,807.519356637865,656.0493229245805
1731139806.2878008,722.9275419394612,794.8621626682205,807.4520805500206,652.6129665970786
1731139806.289551,722.0568022779823,795.330273371262,807.3821492705243,649.0468702391108
1731139806.2934582,721.1854789182846,795.7950955456535,807.3098412476912,645.493417404871
1731139806.2969267,720.3618932479806,796.2314316872892,807.2354062993667,642.2764445820658
1731139806.2973654,719.6358418779471,796.6465424946601,807.1586204417395,639.6720164773476
1731139806.2983189,718.9883944779627,797.0571339083604,807.0784408691761,637.4457000836494
1731139806.3012726,718.26847425798,797.4735426189293,806.9933955560701,634.5215790363579
1731139806.30518,717.2373948415378,797.8969112832164,806.903115543619,629.4460791247826
1731139806.3090873,715.7997699612333,798.3237166368218,806.8102978645561,622.0487214221929
1731139806.3129945,714.3322063882756,798.7506302676975,806.7208156005217,615.541123263949
1731139806.3138738,713.7612215234874,799.1764858418602,806.6393531749039,616.7928102516082
1731139806.3157716,714.9430642585463,799.6017738401988,806.5609634055304,632.6058327711215
1731139806.3169017,717.3166623737206,800.0273894711281,806.4653712542915,663.2778847730921
1731139806.3208091,717.8105170190565,800.4538416526658,806.3258295714386,699.2853292909072
1731139806.3226151,711.888976792601,800.8811535432623,806.1385911161822,726.186138853423
1731139806.3247163,697.9303719584968,801.3091214878655,805.9563759963017,735.2245660279052
1731139806.3286235,682.6093171696591,801.7375664595238,805.8790198131495,730.5324989717918
1731139806.329429,680.6375564096868,802.1664279049018,805.9474413881734,726.1418815218158
1731139806.3325307,704.2481033333031,802.5957357970541,805.9472641325165,735.0893170181059
1731139806.3346164,749.4121913718766,803.0255500217971,805.2710701720243,759.7639824119042
1731139806.336438,794.3379405602824,803.4559170983957,803.0922131680463,791.2639852722732
1731139806.3403454,816.1845949298526,803.8868440624597,798.9354296093808,817.6596832028251
1731139806.3442526,812.0146070400409,804.3182787103973,793.3029987595949,833.7765879376574
1731139806.3449836,803.2146607355112,804.7501127842388,787.774225300947,844.3503271199022
1731139806.3481598,817.4041236443547,805.1822480844286,784.3190370531702,858.3788157003324
1731139806.352067,863.1444249523346,805.6147331488005,784.2209689015012,879.9930906772721
1731139806.3534615,920.0066924743608,806.0478756413278,787.3581086288883,903.9681225175531
1731139806.3559744,953.4508641127329,806.4821343732119,792.3013223068909,919.8773495434799
1731139806.3574295,942.6721350148473,806.9176508257443,797.0588521723697,921.3868911310356
1731139806.3598816,898.4854541731239,807.3536193508263,799.913768176376,912.6017570468828
1731139806.3605382,856.2403639393908,807.7881967154368,799.914999753214,905.6152002689795
1731139806.3637888,848.870897595636,808.2197988028468,796.9415346946272,910.7926105862449
1731139806.367696,881.4300093375178,808.6497406235894,791.5117609664363,927.8240257258155
1731139806.3716033,927.7725956734157,809.0841642208562,784.5613386744404,945.5177566875062
1731139806.3723063,952.3625015322456,809.5315069007767,777.3335838089741,951.1549684067196
1731139806.3755107,939.4200377688906,809.9932731109981,771.3456981805001,941.7295680772095
1731139806.3760931,905.2777812913776,810.4526388441273,768.1912838125385,927.1730087954024
1731139806.379418,883.8227581677313,810.8745701766231,768.9687037534187,922.2616550840705
1731139806.383325,897.5607287963378,811.2325303803558,773.5281318744326,933.8312267892969
1731139806.3872323,938.6263008012801,811.5581386869599,780.1573558527517,954.2480873975851
1731139806.3911395,975.12185586391,811.9717808073257,786.2038038468454,966.814643363326
1731139806.3911512,976.908257753875,812.6236126639573,789.4170350765748,958.7141377673381
1731139806.391648,939.7151042959109,813.5094165740276,789.1593626363604,931.0945909051442
1731139806.392244,888.8476584664724,814.2554896956822,786.6903339872591,898.5803830460804
1731139806.3950467,860.231734195086,814.1211301668072,784.3722392061819,878.8994277423997
1731139806.3989542,873.5901061661141,812.4328147197568,784.2872663119776,880.5874284355374
1731139806.4028614,918.0600840086383,809.2751400401073,787.0296046328272,897.8487517979886
1731139806.4067686,961.1128412575862,805.826209366531,791.3384099410623,916.171212868617
1731139806.407203,973.9152897816102,803.8613668970552,794.8476070796175,924.1169057086921
1731139806.409996,953.3118516371603,804.6508345516593,795.6118187735773,921.8727481225494
1731139806.410676,922.9415103030285,808.0031120625273,793.4894997011424,919.7162358379055
1731139806.4145832,912.6303126317754,812.1301059167231,790.3930345571805,927.8707657995134
1731139806.4184904,932.9697264389623,814.5213173318724,789.1072538053431,946.4840012902572
1731139806.4223976,966.0834650437082,813.3957704339346,791.4534433903955,964.3849343785698
1731139806.422758,980.319746293999,808.8460920460594,797.1534913334538,967.8550067517676
1731139806.4263048,956.914396948735,802.8631884871199,804.2174096308909,952.2372460618868
1731139806.4270582,906.7895447352768,798.1234316577546,810.4226866579252,926.8070193174577
1731139806.428841,863.4591803101209,796.3065347506207,814.6175925030883,908.6749664833936
1731139806.4302125,857.0997223279934,797.1168899679353,816.916303012549,910.1487496361965
1731139806.4341197,890.2487377060754,798.7232026186053,817.938985658968,929.2659062093295
1731139806.438027,935.1153597786113,799.2737926728945,817.9956117932117,951.0816465689363
1731139806.4383128,955.6264198528115,798.2837111445125,816.9266216306817,959.0851615418562
1731139806.441934,936.7372521509552,796.7801997752528,814.5677611285129,947.9256753560871
1731139806.4458413,896.4816665805706,796.1527319726233,811.2611752401506,927.1826269880137
1731139806.447686,870.0916313303369,796.7957200375924,807.88329529207,912.9901681695743
1731139806.4497485,879.4338767421929,797.7945707875898,805.3407928455794,914.4381910102848
1731139806.4536555,914.0290530336327,797.9028835944368,803.9678758680111,926.1678497349737
1731139806.4538677,940.02072318632,796.8376272511458,803.3673581635957,933.3175430581748
1731139806.4575627,929.2476883260554,795.6535974380058,802.8737517579285,924.4339959790047
1731139806.46147,883.5047409137514,795.8735326458831,802.2522323554018,901.3686540185661
1731139806.4618726,833.7228149485596,798.2150874821506,801.9818329132676,878.0675040445559
1731139806.4653776,815.2299190565024,802.0512356891115,802.8053694413937,869.5769666488517
1731139806.4665308,839.7117135997398,805.9667605590481,804.9143138442123,880.3277316264481
1731139806.4692848,886.3723598958242,808.7669861727906,807.5353380710468,900.8348506279488
1731139806.4694223,918.8144564869448,810.020768561886,809.3726554991538,915.0304512297755
1731139806.473192,913.7372109960183,809.8325836881237,809.5808409536314,912.2883422289825
1731139806.4770992,878.5270443888438,808.3272569991873,808.4161374059753,894.8652565191645
1731139806.4810066,843.9128125533348,805.5035950519357,806.9622082886054,875.2266663774412
1731139806.4849138,837.9440616792472,801.5808019752319,806.1614186198398,865.6368843442083
1731139806.4849772,862.6125703417384,797.3547429402631,806.0417609986963,868.3755981127902
1731139806.485376,892.1064952250376,794.0438087219355,805.8626000448332,874.2690878081188
1731139806.488821,893.9040810007725,792.6371480303842,805.0206279555982,870.4830180795398
1731139806.4927282,855.5210598636222,793.2789729675802,803.7971302145559,851.2244378482059
1731139806.4966354,795.5995852845522,795.2071547041712,803.1649990972188,822.9012886845653
1731139806.4966867,750.7536876115686,797.2636469966434,803.8148949814332,799.7440294963521
1731139806.5005322,748.3838531692874,798.5352234290049,805.3774157652401,793.2038590022373
1731139806.5005429,786.0718550283286,798.696515525392,806.6696810963721,803.123768907674
1731139806.5042207,833.0904800391551,798.0030439368301,806.7870261924907,817.4786291367654
1731139806.50445,853.2463119793647,797.1361498324761,805.9692483581395,821.2465736958338
1731139806.5083573,832.2647070933716,796.9861707580545,805.3107863064923,807.9548026237311
1731139806.5122645,788.7322988772252,798.2673315876799,805.5127749449141,784.8609191731184
1731139806.5160873,759.390769769099,800.9951566108598,805.9394627589843,767.2478843816461
1731139806.516172,769.670798830038,804.2255096629275,805.1044002644236,766.0912627173029
1731139806.5200791,812.9030028509228,806.4987514712993,802.3346330351886,779.1916574394035
1731139806.5230656,855.2682988502918,806.8763658013916,799.0429572601499,793.2382678664761
1731139806.5239863,862.6963511001131,805.7796895501123,798.1953112399375,795.0519520477495
1731139806.5278935,828.0338691989249,804.8198572475769,802.174349109093,782.485396326686
1731139806.5315013,776.7990973713644,805.6186506275518,810.7648581825346,765.8832307518836
1731139806.531642,747.1876780670507,808.5432795830214,820.9458603655639,759.0206478214097
1731139806.5318007,760.2575938188347,812.40615805291,828.6642820931703,767.1223934457933
1731139806.5357082,803.6652990541037,815.3589051282563,831.2260374668831,781.9104822031425
1731139806.5396154,841.6840335104453,816.2052140677848,828.6404502982974,787.9631378137982
1731139806.5419104,843.6943618693356,815.0853023896494,823.2127562042318,775.4814420150356
1731139806.5435226,808.5192382040317,813.1198827967515,817.933946720278,749.0682070994212
1731139806.5471969,764.8368570280857,811.47597441547,814.8333733405553,724.9515677353916
1731139806.5474298,747.0795030609995,810.6465377297568,814.2125865138842,718.4081188996802
1731139806.551337,766.6301830859933,810.3654472558504,814.9647612811713,731.4776095414869
1731139806.5552444,802.4236870412262,809.9989561679702,815.5367952448903,751.1504519982342
1731139806.5591516,818.8737977071598,808.9988940558754,814.8484510778914,759.5966085142493
1731139806.5607555,795.9509970062103,807.1546938245849,812.699895915885,748.0117863806729
1731139806.5627518,746.1833150286061,804.6416996180151,809.6466821899477,722.92620253065
1731139806.5630589,704.6799092594475,801.9583286797915,806.6210248535592,700.3915516102566
1731139806.5663157,700.7131546141646,799.7794609488042,804.5404534240263,693.312778371614
1731139806.566966,734.1329749138088,798.7095324948316,803.9663876073495,702.175045426651
1731139806.5708735,775.5962917827883,798.9972938358732,804.8543239757738,716.0873366162854
1731139806.5747807,790.3280890914174,800.3830279412826,806.5470916549706,722.6174127127006
1731139806.5783064,766.1821358740677,802.2265317740671,808.1122100739235,718.0678229059317
1731139806.578688,723.1428120914238,803.87525481945,808.8427533559957,709.8523175162776
1731139806.5796003,696.3709261952225,805.0241610386357,808.5530374411583,709.3226327405847
1731139806.582595,706.6670976173551,805.7914060159633,807.4905702259762,721.2854535563056
1731139806.5865023,742.8460975164937,806.4497419216751,806.0626128332492,739.0952897962836
1731139806.5904098,770.8259214442922,807.0562374292963,804.6878907455049,749.537825532405
1731139806.593861,762.0834114427034,807.339908417556,803.8167810780502,743.6587819598045
1731139806.594317,718.0235643775477,806.9894160834909,803.890475934411,724.7828152748215
1731139806.5982242,670.1594535069546,806.0892068571209,805.0966542715566,707.0433471664757
1731139806.5984452,655.750007531038,805.2570169003286,807.120166153877,705.1004400525768
1731139806.6011302,688.268285364186,805.27608353656,809.2322810197295,722.684284773755
1731139806.6021314,746.1320839848116,806.5040594069301,810.749320213439,748.8857504755927
1731139806.6060388,788.8347425613873,808.5940275463993,811.4530068290131,765.587352018877
1731139806.6094162,788.1788061638902,810.7910361906653,811.5942114349501,760.9039466766498
1731139806.609946,750.0726593394314,812.518430052151,811.5701078475716,738.3625147167431
1731139806.6138532,709.2032594789922,813.7016250793657,811.6356712019094,714.2930796687888
1731139806.6172905,700.5079552078273,814.5669040944936,811.8394463243683,705.1293759492919
1731139806.6177604,730.780373472576,815.1918111549434,812.115470861593,714.7873594061642
1731139806.6216676,774.1523811460874,815.3233852670788,812.3912600162204,732.5340389617008
1731139806.6249712,795.1838131233162,814.6948255836622,812.6372962268084,743.047873396791
1731139806.6255753,779.7122301731879,813.5403897679264,812.8611275855656,740.0158530605645
1731139806.6294825,747.0924593723369,812.7302855765436,813.0815643699177,731.6119982699036
1731139806.6333897,733.5732565536708,813.2140146519515,813.3105153252662,733.1416362521709
1731139806.6359446,761.0118272316165,815.1043606235619,813.5494801312412,753.0149165025977
1731139806.636135,817.1147315214581,817.2019288157688,813.7945406163664,783.8990888723088
1731139806.637297,863.6597866864194,817.5462603226931,814.0418887392308,806.8227160882539
1731139806.640526,866.3883702072478,814.74130595436,814.2901320151974,805.5124824801868
1731139806.641204,822.6802475939509,809.0390243821626,814.5397735025339,779.6780675168447
1731139806.645111,764.4520435906849,802.2386698196946,814.7918022514403,746.3358041352886
1731139806.6490183,733.3761473504322,796.4275030805112,815.0467821375231,727.7309574363159
1731139806.6529255,748.2720483010102,792.6178211484562,815.3047244346928,735.3996733784603
1731139806.65498,791.3401148420251,790.4299713699922,815.5653773177767,762.9235304400884
1731139806.656081,824.2576784712608,788.9904729764238,815.8285140801286,792.3514379117223
1731139806.6568327,820.1706801576248,788.0898282223003,816.0940404603905,808.1038336856063
1731139806.6607404,784.8766087399304,788.4610803848486,816.3619557804329,807.1161564708067
1731139806.6646476,750.4634845447885,790.9331573317179,816.632273559469,798.3104931719864
1731139806.6685548,747.9224591400173,795.2797017858072,816.9049738499324,793.3821149418144
1731139806.670759,781.8566926451078,799.8473676795202,817.1800027357172,796.9977773024455
1731139806.671636,827.4017183830538,802.3702352047856,817.4573005377031,803.9118188220165
1731139806.672462,850.7744699415762,801.4256470511252,817.7368312652411,804.5745509922211
1731139806.673825,836.2997555538803,797.5000719670606,818.0185875706711,794.2359503073053
1731139806.6763694,798.4246197127063,792.8783475364553,818.3025545059901,777.9856531066612
1731139806.6802766,769.502529329065,790.3419098669862,818.588642045127,767.3891779297317
1731139806.6841838,773.3134748232474,791.4894742042202,818.8766427906578,771.1452331013637
1731139806.6871903,805.7474078363342,795.8164379987642,819.1663044819753,787.3892302164593
1731139806.688091,838.495689601485,801.1854439603637,819.4575600969729,804.3998436200519
1731139806.6919982,842.8014379332513,805.2930378155157,819.7507891288365,809.6691873079557
1731139806.69267,813.6181313334514,807.0138624222682,820.0467726066807,800.0785552101474
1731139806.6959057,774.1917246836368,806.706483514223,820.3460022937866,784.6686448469898
1731139806.699813,757.4278900296009,805.477986496458,820.6474922417254,777.5213301164915
1731139806.7027454,779.3690947762143,804.1883071451183,820.9481602320237,786.455702766998
1731139806.70372,826.0245803847638,802.9996178361623,821.2444340693311,806.6815968869531
1731139806.705573,863.7213679577202,801.6597953295193,821.5366988486279,824.5385498749897
1731139806.7076273,864.7371305685444,800.0786530711567,821.8338887564098,828.3533930714283
1731139806.7115147,828.4256993782955,798.6124534615828,822.1517396153226,817.6892488347922
1731139806.7115345,781.5033942646281,797.8279914597821,822.4988314445017,803.3901709520602
1731139806.715442,757.0039832856365,798.0094843839015,822.8545080804722,798.2171412966653
1731139806.7183003,768.2193881766967,798.8960641769374,823.1599782920325,805.8346199125654
1731139806.7193491,798.6689203638424,799.9230343470364,823.3529637249968,817.6726008164555
1731139806.7232563,816.7938270194679,800.7629734021849,823.4531181187698,820.6469067168777
1731139806.7271636,803.5206686582619,801.6487429769387,823.6408573903757,809.125015943382
1731139806.7303596,769.3321227545223,803.1344804443409,824.2046131411528,790.4952213051539
1731139806.731071,745.8247929909496,805.4824492361594,825.2535636282643,779.197255130876
1731139806.7338552,758.4534121650152,808.237590456607,826.2867057982678,784.2714552765356
1731139806.7349782,803.5131139524538,810.3917795007661,826.0060375514594,801.1790267998157
1731139806.7388854,849.1564181674171,811.0142597837079,822.8389814888474,814.9142347304269
1731139806.7403877,860.1814692657799,809.8440113374038,816.1360754898201,811.8416014432048
1731139806.7427926,826.4423374023391,807.4131899497047,807.161657148591,790.5622758415132
1731139806.7466998,771.5354851385007,804.6608721892802,798.7656729595702,763.1328060756757
1731139806.7492046,734.4495528301899,802.3524095770698,793.6256636005292,745.8695140969926
1731139806.7494102,738.948644804722,800.7102203497642,792.3709545809418,747.190818770027
1731139806.7506073,775.5490089198788,799.4773928688179,793.2350717277943,762.0445853376003
1731139806.7545145,810.7088553915545,798.316508411616,793.6105584606572,777.013503742875
1731139806.7584217,815.4475218806482,797.2005360975036,792.1262303579782,781.6230406530475
1731139806.7623289,789.4442606959258,796.4641439119316,789.3956465826603,776.5143429225593
1731139806.7649653,760.4928410425692,796.4722083563928,786.9859390926091,771.9187133688199
1731139806.7662363,760.0876460487314,797.2098851180452,785.911352820059,778.0311554198646
1731139806.7680497,796.0547970136662,798.1926810009803,786.0818556504182,795.6038609245834
1731139806.7701435,845.2594489873213,798.8190373117451,786.800320336944,814.7139127600391
1731139806.7740507,872.1705530850679,798.8710749075526,787.4632508873314,822.6627751875326
1731139806.775202,857.5944814004079,798.7002018866868,787.8581141909826,814.3777651209053
1731139806.777958,813.9939674301713,798.8937448886883,788.0646178849781,796.7570030939911
1731139806.78052,775.221318497954,799.6898348715839,788.2354503824057,783.4441800283155
1731139806.7818651,769.3370324186471,800.6618085032331,788.4583143012885,784.2279221213469
1731139806.7857726,796.6634533809695,800.9819343237508,788.7378408816386,797.4732540344023
1731139806.7868943,830.7802187187441,800.0667522851263,789.039920819951,811.5442952542795
1731139806.7896798,841.430419020564,798.0550166852167,789.3350300311052,814.1023223543503
1731139806.793587,820.3112644585331,795.7075897294898,789.6140086087294,801.9544327838111
1731139806.7960749,788.2275887797515,793.8364349942267,789.882126215128,783.6108029415383
1731139806.7974942,777.4784224748449,792.7834710068875,790.1475180714478,772.4306632554917
1731139806.8014016,804.0635293397411,792.3796338940509,790.4144254741639,775.8249818035926
1731139806.8053088,852.9292370512094,792.3219307899382,790.6827245718541,789.2769547320581
1731139806.8057394,888.7018472399934,792.5215423887582,790.9504522836149,800.0565983802559
1731139806.809216,883.3925965571764,793.0738032016832,791.2160420012726,797.5989206851941
1731139806.8100164,838.8874095141387,793.9357344551885,791.4790373675734,782.1805540192646
1731139806.8116295,786.357240248402,794.702986789868,791.7397058469502,764.9990041295433
1731139806.8131232,762.925638605488,794.7736211628959,791.9984213454937,759.5509358374129
1731139806.8170304,783.6220398403334,793.8088888874298,792.2553344207424,770.9246925060603
1731139806.820938,830.4371096663003,792.1114665856139,792.5103731343261,791.3271161163648
1731139806.8245842,867.1699378757706,790.5827286941487,792.763384792458,805.6234865604625
1731139806.8248453,868.4162875717891,790.242702694516,793.0142461718581,803.0307050038696
1731139806.8271844,839.4291180110012,791.6280785289675,793.2628864255256,785.9823089872694
1731139806.8287525,810.6430880264528,794.4649341239638,793.5092571654561,768.8369463647455
1731139806.8326595,811.381600919504,797.8052083153997,793.7533081437642,766.8702239300586
1731139806.8365667,844.6569833095996,800.5120764201354,793.9950008446866,784.0360504206827
1731139806.840474,884.1277461668317,801.8073481820863,794.2343455899896,809.508040095691
1731139806.842739,895.7281705333875,801.6212227807182,794.4714077699035,826.1756155871353
1731139806.843429,866.0584244692747,800.614918195384,794.7062270544701,824.4379697800637
1731139806.844381,814.3210213820436,799.8720730933686,794.938660280452,810.071918402171
1731139806.8448308,778.0810115255711,800.3628602518794,795.1682848111457,799.5885407861267
1731139806.8482883,783.9924500897795,802.4054589367062,795.3945871264211,806.6407829864719
1731139806.8521955,826.6230799518845,805.4338243086383,795.6175399896874,830.5351546169695
1731139806.8561032,872.5279348923433,808.2923651852184,795.8382422025092,856.5235396048678
1731139806.8582942,886.9135791025353,809.9611048706972,796.0587724018683,867.9624102758622
1731139806.8600104,861.6538313660817,810.2559460094753,796.2804266463966,860.229139464355
1731139806.862274,821.4859695156817,809.9795080386025,796.5007584241763,844.3578384505344
1731139806.8639176,802.7650240702652,810.3610108212097,796.7121361021505,837.0108263755376
1731139806.8678248,822.3073566242924,812.1660491335948,796.9059286549608,845.4651142670076
1731139806.871732,862.7281934671353,815.1267660331457,797.0837030533668,860.9518484803637
1731139806.8738492,886.922620829339,818.1049038771083,797.2684632957948,866.4131398364602
1731139806.8756394,869.4824731233393,819.849434628634,797.4996680765368,851.9032558853012
1731139806.8795466,818.5386146225899,819.7892903271901,797.7978130149456,824.0847996267266
1731139806.879645,769.9618834129978,818.320143647989,798.1098791232552,801.5688084325546
1731139806.881119,759.0605619993748,816.4478743729029,798.2901477461662,800.1394343274097
1731139806.8834538,792.9208554565922,815.107178994514,798.1929721558172,820.2195273890648
1731139806.887361,845.2782200258441,814.6546638567838,797.8966534886615,846.6001043450652
1731139806.889404,877.5073795669664,814.8492293590032,797.9237922537687,860.2367576589072
1731139806.8912685,868.7940042299564,815.2444041183967,799.1851179823383,852.5110463075982
1731139806.8951757,831.4973447328136,815.6144687450864,802.4693817611577,830.9456961348445
1731139806.899083,799.6333431642628,816.0433745940744,807.6891769281116,812.4920172836282
1731139806.899964,800.2008633633172,816.6297048518175,813.4542901213406,810.2319490220665
1731139806.90299,831.1184156756165,817.1439741735787,817.4795495808374,824.0042919099275
1731139806.904959,863.8835752402567,817.056357422831,817.8025590884522,841.7270881514955
1731139806.9068973,868.2787488555093,816.0035503509688,814.1196022199832,849.5268979119601
1731139806.9108047,838.1543562942414,814.2796769740885,808.2333533562014,842.3126066015034
1731139806.9144597,796.8517018599929,812.8124227703829,803.0466662493069,826.8724874896686
1731139806.914712,778.087439735705,812.5082890991582,800.6270781710999,815.8244993457536
1731139806.9186192,798.2752176873535,813.4549705499688,800.7819708023601,817.556618981975
1731139806.9188087,842.8147729650866,814.673923524494,801.3766629738581,829.7992978221565
1731139806.9205136,877.2195981671836,814.7063624687249,800.2475593793886,841.4670781532145
1731139806.9225264,874.0896777495095,812.6430465922251,797.1433908023232,841.3292797761411
1731139806.9264338,834.5685479435404,808.8389085551629,794.0128776761944,827.0046336373698
1731139806.930341,787.3560837901739,804.7697531343281,793.3568276019948,807.2437490961688
1731139806.9342482,766.0362993006307,802.1039979646298,796.0508712331468,795.3391578535003
1731139806.9360683,782.7054840621158,801.6234128102818,800.4958180607858,798.6139671339952
1731139806.9376538,818.9211942658719,802.7471546377584,803.7958345055139,812.5353339154934
1731139806.9381554,841.1533765472242,804.0073442345596,803.9753405439818,824.5181171869136
1731139806.9420626,828.2765283501001,804.1489276406934,801.458760597279,824.439598388901
1731139806.94597,789.0519485055746,803.0494426611104,798.7021519118285,813.1463868588052
1731139806.949274,755.5847952301107,801.7659576183369,798.3475561230362,801.832689461886
1731139806.9498773,757.8180808628165,801.6897507724049,801.378822697911,802.7452540168058
1731139806.9516234,799.1626538756238,803.4972112594127,806.6557652925087,818.823632341686
1731139806.9537845,852.6998835988395,806.711415824374,812.0232728221771,840.7828983838144
1731139806.9564986,881.4980187214006,810.1260034327029,815.9312316251459,854.1811424662417
1731139806.9576917,867.4705534862655,812.626765061478,818.205936049667,850.9374393533751
1731139806.961599,825.7231547285201,813.7238986242752,819.4864379864835,835.9227417251547
1731139806.9655063,792.207970296132,813.5060747550057,820.0661474552348,822.912473803858
1731139806.9671783,794.1451135604508,812.2807913036836,819.3526362115182,822.8786815244548
1731139806.9694135,827.5164422154251,810.3345372550106,816.4780288764626,834.3511094236724
1731139806.9733207,860.6191202044059,807.9559215308697,811.4426657147694,844.3074997511108
1731139806.9753437,860.8274259397677,805.5142535772112,805.6576285610108,839.2474161477563
1731139806.977228,822.0302567698151,803.3652970851291,801.3066759939294,817.1840200243748
1731139806.9811354,769.8069158194563,801.6329650873531,799.9829104539799,790.2334881800338
1731139806.9827332,740.3674993805389,800.1320243628327,801.6307126657447,775.3859875464916
1731139806.9840884,751.1044474640958,798.5961248533811,804.5506232806982,781.0229677843795
1731139806.9850426,787.1035281594814,797.0593039962073,806.4498879150109,800.2713615223081
1731139806.9889498,814.3914663717651,796.0317271097429,805.8426783026861,816.6062967845093
1731139806.992857,808.6068596952691,796.2362076492931,802.910245562349,817.1176507734939
1731139806.9941883,775.1502397315256,798.0490945423285,799.2914184918371,802.6484329823905
1731139806.9967644,744.0008384972853,801.0908168116541,796.9761205485405,786.5502352420532
1731139806.9982882,743.6615033321461,804.3468006705635,797.075375427892,783.1550448766103
1731139807.0006716,776.4473863472706,806.7857636829187,799.2869029714619,795.6810020040405
1731139807.0045788,816.2132063055824,808.0176680687111,802.3009573456184,813.8006759620334
1731139807.008486,830.301303394919,808.4730160606922,804.6799391923972,822.7576233077882
1731139807.0123932,806.8491480459136,808.9607649053196,805.5228069117642,815.8987115203158
1731139807.0130334,764.6002720273984,809.960779704189,804.624292728408,799.7566381661594
1731139807.0138433,737.712423142911,811.2046529355918,802.357141623109,787.686885387492
1731139807.016301,748.5892666858932,811.8481958121025,799.5763117640577,788.0470203846079
1731139807.0189028,790.4582088422612,811.0852276167425,797.491506281865,797.1574109557941
1731139807.020208,832.8050392462742,808.7715945575509,797.2447782837584,802.7110708099354
1731139807.024115,844.9785278703245,805.6800452103093,799.2386681800243,794.4431143783023
1731139807.0280223,819.7500107792436,803.2527162434388,802.7426363361304,773.1287864263012
1731139807.0293975,778.7400318062029,802.9435216819447,806.2778998934474,750.5902308130801
1731139807.0318782,755.2960700861324,805.3935995628435,808.6015441660788,740.6982449294644
1731139807.0319295,767.9157414010684,809.8304093304595,809.4628353980098,748.5156781532537
1731139807.0358367,805.324484539119,814.1617650232517,809.4605220980586,766.228955584987
1731139807.039744,835.6789303629777,815.987361460493,809.2187013615345,779.2190172848924
1731139807.043651,832.9114002109942,814.0917524933006,808.7879493677843,777.5922616635884
1731139807.0449526,798.6766293590116,809.3897491080343,807.8836515422242,764.0314552084607
1731139807.0475583,761.5422965187737,804.4728660394323,806.5979512987133,751.6480748688421
1731139807.0507233,753.886906547348,801.9375440691642,805.6724870144184,753.5061646457622
1731139807.051466,785.4696206933021,802.7144627358634,805.9309580394652,772.1559436227684
1731139807.0537171,835.2344317097032,805.663830298692,807.4491969850285,797.434516579552
1731139807.0553732,867.9046642647897,808.6569562275698,809.3662801118066,814.1597081722582
1731139807.0592804,861.9325317377595,810.169250326939,810.5674135972637,813.5849976490191
1731139807.0605075,826.3200507009484,810.1192089697832,810.5690004924588,799.672753577722
1731139807.0631876,792.7658467571905,809.474854483918,809.7695408375716,785.4491206877321
1731139807.0670948,789.5708303824822,809.2068016386945,808.9070942380251,782.5711485773177
1731139807.0695682,818.76370281275,809.5485512487139,808.3270100471954,792.539461433405
1731139807.0710022,855.3454297571639,810.0370054036985,807.7633107472465,806.4505125687382
1731139807.0749094,869.0668853005312,810.066990370266,806.7600780971785,813.0519544754952
1731139807.0760624,850.2035151661371,809.3887485098057,805.2270332148,808.1108520941558
1731139807.078817,817.6357189875573,808.2137074567422,803.5381081857075,797.4102048123226
1731139807.082724,802.8218493730675,806.9889103362574,802.0946644452486,791.42891652288
1731139807.0866313,823.5281193934175,806.1015164261889,800.8727544782901,796.6901504292875
1731139807.088413,869.1221041001274,805.726164448384,799.5408654205311,810.9507666626846
1731139807.0885315,908.9551046443642,805.851570091256,798.1395773430917,825.5940263124133
1731139807.0905385,916.4808130614201,806.3632158114572,797.6118184808913,832.6809952536639
1731139807.091617,889.7248843766021,807.04373869365,799.432252361042,830.9218747100516
1731139807.0944457,852.1224715120112,807.509375149212,804.3937298415195,826.122645080172
1731139807.098353,833.2650835780162,807.2603753821688,811.5491943993278,825.9247580179518
1731139807.10226,845.0005367509658,805.9558949780566,818.38397802099,832.9403339655473
1731139807.1061676,872.3614035230726,803.7506079453823,822.2916622372185,841.8525950947212
1731139807.1071725,887.0324939364159,801.3660091006408,822.2467731081273,843.2962148857899
1731139807.1072578,872.3079070575768,799.7467956238651,819.3474481824891,831.8795817567574
1731139807.1100748,838.4133696989848,799.5105956491149,815.8448090882304,811.7945438045217
1731139807.113982,814.8123584481056,800.5735385038723,813.4934215544141,794.8025613465761
1731139807.1178892,825.5009953201982,802.1846253493379,812.5075198636055,791.4923907347055
1731139807.1217966,867.8323985392011,803.3175636725488,811.8229289944197,802.6460240024178
1731139807.1227272,912.7210702746978,803.1908002938316,810.3154951206009,818.0312012323238
1731139807.123346,926.5663670001471,801.6644021733734,807.9328842496234,824.099776823691
1731139807.1257038,897.5564783608928,799.314658155588,805.8263641778944,814.5693465048885
1731139807.1261027,845.3842304594343,797.0981570640009,805.3888475504064,795.127395961164
1731139807.129611,806.4366229370294,795.7440141428873,806.9993081264223,778.2906811033647
1731139807.1335182,805.949217596235,795.2764596202796,809.5436825062558,773.1135999202265
1731139807.1374254,839.1729622957795,795.0852116544559,811.1663783196169,779.0571456512066
1731139807.1382818,876.385789490069,794.5524228085751,810.6749333768339,788.7665576720873
1731139807.1413329,886.8835836389877,793.6987115253821,808.4621205578151,795.3998620775786
1731139807.1449478,861.5177879819358,793.2020232002748,806.2216949946561,796.9765561294254
1731139807.14524,815.8959616734945,793.698333306231,805.720451098591,795.4093715333955
1731139807.1491473,774.5798234702461,795.0082474046574,807.5823394801693,793.3592836902887
1731139807.1530545,752.619982243992,796.0821551490532,810.9509615178841,792.2339833118018
1731139807.1538367,749.3913700409033,795.7964767543871,814.2028587714047,792.0514339904462
1731139807.1569617,755.2637632653688,793.8942953907512,816.0942869448041,792.2303181823132
1731139807.1581602,761.2576115643727,791.2060188951841,816.4235854933816,792.297980857709
1731139807.1608691,763.7134443795853,788.9812687357515,815.8078252190276,792.1247899451296
1731139807.1637926,763.3596425436101,787.9904533236437,815.0003149180909,791.8098765995113
1731139807.1647763,762.2951926958443,788.1682912296577,814.4125182848754,791.4888696970268
1731139807.1686835,761.8770759410841,788.938085837007,814.0747271501995,791.2283803495287
1731139807.1693916,762.28906656167,789.7483830057336,813.8419076877038,791.0237502932483
1731139807.1725907,763.0937462217057,790.3578480837925,813.586714596737,790.8426077841118
1731139807.1764982,763.8593109943988,790.794508722779,813.2697709633313,790.6609025275302
1731139807.1804054,764.4259342011011,791.1798673197961,812.914380434251,790.4731937615944
1731139807.1826377,764.850463261648,791.598124852569,812.5563201869325,790.285443931109
1731139807.1843126,765.2473124541563,792.0643277678956,812.214410177583,790.1047957593739
1731139807.1849463,765.6841212346387,792.5542285617412,811.8884395742223,789.9344403889583
1731139807.1882198,766.1661377655626,793.0417841799435,811.5701598680839,789.7738803791719
1731139807.192127,766.6684930872664,793.5164322574864,811.2530294964224,789.6213472531524
1731139807.1929748,767.1688928856229,793.9808563039169,810.9353343785672,789.4756345722412
1731139807.1960344,767.6600614426947,794.4417530464596,810.6185118717192,789.336534364959
1731139807.1999416,768.145706821785,794.9033582249127,810.3044604260157,789.2044004102326
1731139807.2005014,768.6319239224993,795.3662024929123,809.9940943296033,789.0796089754836
1731139807.2014823,769.1220086071437,795.8288924252093,809.6873366837702,788.9623125185327
1731139807.2038488,769.615979508829,796.2900788637896,809.3837349644643,788.8524736525309
1731139807.207756,770.1124236670173,796.7492758606743,809.0829595723844,788.7499989612326
1731139807.2116635,770.6101879395568,797.2066738557681,808.7849405833244,788.6548322117595
1731139807.2155707,771.1089439853811,797.6626372794822,808.4897635412203,788.5669706120585
1731139807.2160563,771.6089095954524,798.1173804437103,808.1975267904114,788.4864352402337
1731139807.219478,772.1103771161659,798.5709226082114,807.9082714260451,788.4132383101233
1731139807.2203274,772.6134604376813,799.0231911234348,807.6219862569208,788.3473719016281
1731139807.223385,773.1181170784206,799.4741237003002,807.3386419634238,788.2888218929779
1731139807.2272923,773.6243020433991,799.9237062427314,807.0582165043819,788.2375952078711
1731139807.2277892,774.1320797254083,800.3719591979753,806.7807008561286,788.1937358972827
1731139807.2311995,774.6415796589087,800.8189103896838,806.5060925667818,788.1573005672727
1731139807.2316113,775.152790805527,801.2645794929307,806.2343879164093,788.1282830013946
1731139807.2351067,775.665345126507,801.7089778970158,805.9655783842877,788.1065328662065
1731139807.239014,776.1785847777995,802.1521154175437,805.699651633807,788.0917775035927
1731139807.2391722,776.6921582330244,802.5940044280416,805.4365946815656,788.0838496048639
1731139807.2429214,777.2069561981247,803.0346574395526,805.1763965804037,788.0830616000591
1731139807.2468288,777.7254722926579,803.4740810908181,804.9190482782516,788.0903770137729
1731139807.2471662,778.2503072372206,803.9122747044072,804.6645383183555,788.1068607681517
1731139807.250736,778.7805354135307,804.3492414096511,804.4128459601303,788.1322513518345
1731139807.2546432,779.3083830890515,804.7850103880764,804.163938048662,788.1635656394916
1731139807.2580173,779.8214598695354,805.2196511344234,803.9177786090715,788.1958076608472
1731139807.2585504,780.3146641052921,805.6532479963075,803.6743537832697,788.2265417240278
1731139807.2624576,780.807286856241,806.085819609401,803.4336962101443,788.262807990525
1731139807.2626035,781.3473460501415,806.5172276396113,803.1958728220217,788.3234345584034
1731139807.2627208,781.9799104343896,806.9471934726351,802.960905408586,788.4272780522648
1731139807.2663653,782.6776905676427,807.3755417233484,802.7286503025871,788.5658203665627
1731139807.2702725,783.2847377408253,807.8026173131154,802.498757869977,788.6792036892149
1731139807.2741797,783.5724696402314,808.2294999271297,802.2708765528323,788.6750975068229
1731139807.276862,783.4755418996024,808.6574352099022,802.045129266762,788.519773668755
1731139807.278087,783.4031239232355,809.0862703640719,801.8225309316506,788.3647343783165
1731139807.2782755,784.2727112645223,809.5128471046415,801.6046621229048,788.5718346271976
1731139807.281994,786.8480439127449,809.9316299797637,801.3920865197564,789.4652903768642
1731139807.2859013,790.4167354922723,810.3396171669743,801.1821463774419,790.8074345992877
1731139807.2898085,791.8425602234935,810.7440611175701,800.968515843532,791.389711089303
1731139807.2937157,786.8317667579126,811.1654578581863,800.7454938262797,789.4736003831079
1731139807.2938306,774.4009417313131,811.6250444562153,800.5170846588894,784.5287726625435
1731139807.295707,761.9643138863495,812.1140024889136,800.3040220557616,779.3419574798328
1731139807.297418,764.3904114987985,812.5635564282632,800.1358121826241,779.9124839639788
1731139807.297623,792.8221109048504,812.8565852055862,800.0195355875876,791.3256442097027
1731139807.3015304,840.7828669729976,812.9065180148637,799.9000700897916,812.2312607742917
1731139807.3054376,883.3631451200586,812.7621512974681,799.6586081080445,833.9313101571654
1731139807.3093448,895.2982138247808,812.6478038799237,799.2037459342811,846.6145970675482
1731139807.3093855,873.4879718255347,812.8932698477057,798.6495997202522,847.6884380091624
1731139807.313252,842.305355993803,813.7714500176307,798.4499890594967,844.2075132890457
1731139807.314552,834.7500803579829,815.2648652887132,799.2738731175466,846.6126372469455
1731139807.3171592,864.6145509967043,816.8490318751445,801.5407022947596,859.0880848543235
1731139807.3210666,913.5163862876719,817.5438503317876,804.891523212229,875.1024872544205
1731139807.3249404,944.3867337895874,816.4373753086699,808.1085517267248,882.2934025936974
1731139807.3249738,930.8713439333485,813.4430373498102,809.7400805466166,872.8212945803255
1731139807.328881,878.9637014959566,809.6219301373181,809.0681480024572,850.5685348006467
1731139807.3322322,823.5034619243278,806.5990053042949,806.6543896560506,829.0032693618053
1731139807.3327882,802.1688205854097,805.4026464789176,803.9531225168769,821.0990959570114
1731139807.333397,827.0908969856104,805.6786352323786,802.244507412821,829.2502309393061
1731139807.3366957,875.9303386963992,805.9836539541855,801.7640000276556,843.3681678226188
1731139807.340495,909.3568886716987,804.9465669450198,801.7742859927515,848.979068180678
1731139807.3406029,901.6303652544377,802.3563059314397,801.4865226717861,839.0682413600471
1731139807.34451,860.5045466195168,799.3191858791706,800.9479861746385,820.0880596107837
1731139807.3484173,820.4724213140585,797.390203610175,801.0422094969811,806.937843282401
1731139807.3522418,814.4011331982798,797.3754969163655,802.585397347662,810.6411725434378
1731139807.3523245,846.43482618901,798.7433179727456,805.3555851935546,828.6558924492181
1731139807.3560505,888.4267681502495,800.113730744248,807.972829208741,845.9185102825788
1731139807.356232,902.871838130436,800.450442247377,808.8126853073001,846.1620656824771
1731139807.3601391,873.4421150675072,799.9834267821836,807.2475541304262,824.7482180007121
1731139807.3640463,818.2582188562327,800.0681266804427,804.2167106173068,792.9563630823927
1731139807.3670466,775.5725436041349,802.0590084988538,801.640725709958,770.3031499883326
1731139807.3679535,773.9060219763642,806.1145583365667,801.0835332156654,770.6341891319418
1731139807.3710866,810.528472431654,810.9076464325868,802.6395186914323,792.337899478659
1731139807.3716047,854.8205564694713,814.4553623411039,804.885364694308,819.8512168442231
1731139807.371861,873.2214093225226,815.4031194407387,805.9940922680281,835.2797154946854
1731139807.3757682,855.6752553037793,813.8213382872052,805.2337196827581,831.48050505692
1731139807.3796754,822.4344300064014,811.0259417350272,803.6730702298165,816.701756002247
1731139807.3835826,805.8457591512291,808.666771907637,803.422413295958,807.131458793398
1731139807.3871598,822.3411245087876,807.7747964215033,805.9258946866289,813.2571461404968
1731139807.3874898,858.2714773886036,808.3618714241626,810.7158474875749,831.1861834582103
1731139807.3899317,881.6417285460462,809.6973255908567,815.7124329216543,846.1203901870649
1731139807.3913972,869.7039448293654,810.941177929348,818.8057271352335,844.9507712766738
1731139807.3953044,828.9067094310702,811.6786928524679,819.3494233364244,827.2793996218403
1731139807.3992116,790.4189786794093,812.0672037285892,818.347761331882,805.7527196442489
1731139807.401861,785.0992906378623,812.5803630628409,817.2956512697302,795.7567523946306
1731139807.4027147,818.585427102903,813.551320695836,816.7146597195838,803.186227221586
1731139807.4031188,866.6024520887922,814.8139337845604,815.5695677300865,820.1122368252893
1731139807.4070263,893.9979652624147,815.6971547753553,812.0186229609639,831.4563703214615
1731139807.4087763,882.1553003631518,815.4233748121262,804.9918963792979,827.064069577493
1731139807.4109335,842.9366464453228,813.6659057482588,795.4976078198221,809.5834027036069
1731139807.4148407,808.0367312557423,810.8473555514626,786.6238307374564,792.0299665025477
1731139807.4182696,802.4206815380401,807.9140492834845,781.9831503713289,787.0786226643868
1731139807.418748,823.7584647264752,805.7363021982011,783.5066286634557,796.7462184525984
1731139807.422655,845.1294080796927,804.60162966347,790.1877673541615,810.9204950920805
1731139807.4265623,838.8156590237277,804.1765984748323,798.8113978321569,815.9975802517606
1731139807.4276214,800.9816379912276,803.8936672528644,806.1242475728279,806.4131276347499
1731139807.4304698,756.1704969235393,803.3753199003919,810.6984631415239,789.3101846984059
1731139807.4338243,737.6780805729178,802.5526641365879,813.0891043886086,778.393333755638
1731139807.434377,760.1110694898559,801.4912805441456,814.4538115332731,782.2822893538946
1731139807.4366753,806.7515906818713,800.2300915769555,815.0800677980171,797.3404074425084
1731139807.4382842,842.0734174969147,798.8707386876717,814.1516543654586,810.9508979594801
1731139807.4421916,839.4055370810712,797.7981306619712,810.8477948174358,812.0928112746108
1731139807.4460988,801.6357137131305,797.6604518040361,805.6717350464215,799.8876984994489
1731139807.4464664,758.3983443692409,798.9158656532088,800.7192630479616,783.0375726303092
1731139807.4493794,741.9902071652317,801.248937833999,798.505814232796,771.6407613123464
1731139807.450006,761.4230822594815,803.4624178857224,800.2087621433195,769.5449893528586
1731139807.4539132,795.6623967344296,804.1517976033455,804.7291122888847,773.5958025775518
1731139807.4578204,811.5602661623928,802.748106676123,809.3527826768095,778.4271873820456
1731139807.461728,791.7373733097053,800.054491088668,811.5045147914412,780.9246882266405
1731139807.4649343,749.4587198752579,797.7360643990569,810.2552670978788,781.0566585711823
1731139807.4653113,718.2997865388518,797.1191285983027,806.5697685205485,780.2381879167434
1731139807.4656353,725.0521551086906,798.2766016684011,802.374576294789,779.6550832073863
1731139807.4695425,767.7471863238039,800.1167478576183,799.3503142583569,779.6643657269245
1731139807.4714897,816.3541356131702,801.3084500685153,798.2875259671567,780.0471697881566
1731139807.4734497,835.7073074775682,801.2096163537406,799.1775711248855,780.4749137047161
1731139807.477357,812.8575950586661,800.0905633763293,801.6366147383646,780.7774574129799
1731139807.480489,767.5335537145154,798.6511210052112,805.1883522511612,780.9591144262678
1731139807.481264,737.3256117195688,797.4108624878767,809.2583312971485,781.096449357241
1731139807.484156,748.808645348249,796.5184110828749,813.0880748313323,781.2491782873475
1731139807.4851713,796.9956148873921,796.0191850615441,815.8477963390667,781.4323913747993
1731139807.4890783,849.226645324125,796.177228980714,816.9775298445023,781.6324955725314
1731139807.4929855,870.3892971498776,797.4518040611482,816.4825343778033,781.8319899205997
1731139807.496044,849.4587116696692,800.1108854722314,814.8810712626898,782.022557257197
1731139807.4968932,806.5149699674713,803.8314582313213,812.810399070457,782.2049531064029
1731139807.5008004,775.3127524233188,807.66266596043,810.6323502628031,782.3832878918239
1731139807.5030012,775.9960248710705,810.4219623477212,808.3773070185326,782.5604719752239
1731139807.5047076,799.9019912376068,811.258562271501,806.0102157519977,782.737009669824
1731139807.5063045,818.1898840262583,810.0376358395341,803.6736344959372,782.911991989285
1731139807.5086148,806.8427474396473,807.3747218381948,801.6267038478371,783.0844177779303
1731139807.5115988,767.5216114843464,804.3614910836253,799.9828699107181,783.2538239830035
1731139807.512522,726.9885097082658,802.1157544837264,798.5992825125925,783.4202045784986
1731139807.5164294,715.188592823011,801.3074245402543,797.2823800635011,783.5836510302378
1731139807.5203366,740.0537527783736,801.8464500724351,796.0805349860876,783.7441018822443
1731139807.521846,780.5274288274902,802.9213790614181,795.3222612367141,783.9013578755773
1731139807.5242438,804.2858234009703,803.4382512156777,795.3426929605738,784.0553085058858
1731139807.5271535,795.2968167730968,802.6539703311212,796.1501877783628,784.2061632165318
1731139807.528151,767.4053425913357,800.6202455445641,797.2919009471082,784.3543953606376
1731139807.5320585,752.001061667518,798.1366587873792,797.9827728745638,784.50019790126
1731139807.5359657,770.3687603185786,796.2328174029802,797.4325161152539,784.6426573458652
1731139807.539873,814.5975191006094,795.5253600828113,795.2706811178618,784.7794813017508
1731139807.540691,853.3638101749269,795.8734731177021,791.8957510760399,784.9083897228066
1731139807.5411186,857.6320384466958,796.5371194188175,788.4854488593918,785.0303343528758
1731139807.5427086,824.8598605859595,796.7068025732513,786.5063160849095,785.1522840984711
1731139807.54378,781.8173815081504,796.0547695281792,786.9179632849892,785.2849541163841
1731139807.5476873,763.5221460512371,794.9629268199013,789.6101770876721,785.4320778373999
1731139807.5515947,785.0859812327233,794.2809178093522,793.5419711085566,785.5756018506107
1731139807.555502,829.4097131249642,794.7552094897534,797.5016325387853,785.6729182365816
1731139807.5582635,861.203919129321,796.4971998781193,800.8436434330647,785.6861269763949
1731139807.5594091,856.0554371666494,798.8623025635159,803.584368964872,785.6432852205957
1731139807.5595355,820.3487545469428,800.8413683118222,805.8885289300395,785.6850599840466
1731139807.5633163,785.4309099576374,801.6926782182368,807.5803395999739,786.0096734363301
1731139807.5672238,781.2486219833805,801.3657390691701,808.2229369447053,786.6614725968806
1731139807.571131,811.7634864537567,800.4406248817613,807.6634687065158,787.2637092039871
1731139807.5738184,852.2736646313641,799.6776369124586,806.4587797185051,787.0120350772808
1731139807.5750382,870.0558833587068,799.5317433628085,805.7282886964153,785.2903428039169
1731139807.575933,850.9009599973728,799.9556185085502,806.5040841461104,782.858732035005
1731139807.5783808,810.2427836193782,800.5672235482044,809.0620724596901,782.7054767346665
1731139807.5789454,780.5188968034821,800.996878399409,812.7376319917015,789.0629583649138
1731139807.5828526,785.148183077078,801.1299368052273,816.3690991939302,804.0259328900985
1731139807.58676,819.7953284931494,801.0911263308881,819.0022323514426,823.9573290439682
1731139807.589373,855.9068407424293,801.061173273021,820.2398932850803,839.8208522377489
1731139807.5906672,863.9577616544,801.1298709752385,819.9687775840996,843.1373287175912
1731139807.5945745,837.7615213201616,801.2819921026404,817.9118083208388,833.4282282121867
1731139807.5972257,799.7446773877315,801.4615906368974,813.743147877199,820.0775303422267
1731139807.5984817,782.3581344310894,801.62852791842,807.859893437166,815.6633838922922
1731139807.602389,800.7221993399974,801.7740118899256,801.9400336865554,825.5853058631924
1731139807.604928,839.3506140675349,801.9080539600006,798.3463246020727,842.854871239472
1731139807.6062963,864.3688355353025,802.0424470325903,798.5750957943892,853.1461893065035
1731139807.6102035,851.4167198710761,802.1823744205577,802.1042147032917,846.5348179368835
1731139807.610747,806.2747788017032,802.3269455657513,806.7732488382106,826.2754075289603
1731139807.6141107,761.1467989932565,802.4732255275096,810.3680897615518,807.0259757853946
1731139807.6160705,749.4000407897236,802.6192456670749,811.9698454832525,803.6198743716607
1731139807.618018,779.0409981561774,802.7646943490541,812.039048406732,819.4057624266161
1731139807.6204827,826.3027587925651,802.9101785832795,811.5607242359448,843.571115880146
1731139807.6219254,854.6650805402018,803.0563326645778,811.3194264888796,859.5073614360526
1731139807.6258326,844.0800465381919,803.2034179545273,811.8255539111757,857.3898752321461
1731139807.6297398,806.6232650335177,803.3513838139776,813.4434994747853,840.9881334158455
1731139807.633647,775.7230884527476,803.5000886620779,816.1238225794215,823.6703473451096
1731139807.6349156,778.0508831203575,803.6494517255467,818.9276302852858,817.3572388198729
1731139807.6360378,811.612642702423,803.7994801665335,820.1557933725181,823.5380679947507
1731139807.6375542,848.0725831937092,803.9502256757031,818.4299295639015,833.2241698104465
1731139807.6414616,856.820390053666,804.1017378428589,813.9282940563778,835.162068216452
1731139807.6453688,830.4965457901172,804.254045252065,808.5124890298802,825.1759820911844
1731139807.6455617,791.144583940211,804.4071603000141,804.4323042498447,809.166402621258
1731139807.649276,772.3763265144311,804.5610912302122,802.7623778657684,797.8363644150935
1731139807.6515927,792.1767413121722,804.7158497985668,802.9882468194444,797.866361934571
1731139807.6531832,838.1117966977333,804.8714522749763,803.865637207814,806.753455964775
1731139807.6537604,876.7158652059255,805.0279168270864,804.4719701395311,815.2227479739987
1731139807.657091,879.7737734054255,805.1852607171945,804.578295874988,814.952232798626
1731139807.660998,846.7622502003542,805.3434989488976,804.3974157039556,805.2592817200332
1731139807.6649053,805.4416656617967,805.5026445688985,804.19921993786,793.4366478807877
1731139807.6671476,789.8056138062018,805.6627103371126,804.1095569502387,788.5795084080438
1731139807.6688125,812.851060384284,805.8237110726163,804.1137444145342,793.8753020684869
1731139807.6726053,856.0058941054418,805.9856649578085,804.1458737329631,803.495228019628
1731139807.6727197,883.7698389747719,806.1485911803477,804.1591989443818,806.6967247819217
1731139807.6766267,871.9832800614823,806.3125026523429,804.144416901647,796.2759558219764
1731139807.680376,827.321523980246,806.4773976977478,804.1141287643408,775.0572654495409
1731139807.680534,782.5137467398888,806.6432612027403,804.0824746795372,755.1555694437076
1731139807.6827023,770.8716601628304,806.8100859863778,804.0554187942811,749.8359323301635
1731139807.684441,800.1534858898477,806.9779101281449,804.0316823107986,763.5831137685296
1731139807.6883483,846.647842733065,807.1468371792025,804.0076703399654,788.0545135437982
1731139807.69145,874.4774886331384,807.3169871833695,803.9810369391532,807.6435361938529
1731139807.692256,864.6482035128886,807.4883579119409,803.951437267302,810.8524304578
1731139807.6961632,829.9838202262215,807.6606789012574,803.919600732288,798.6060246478255
1731139807.6982574,803.4590409396416,807.83346090053,803.8862615940719,782.745215408432
1731139807.7000704,809.730353525367,808.0064280427594,803.8516964972116,775.9493138028848
1731139807.7039776,843.9538152395735,808.1802121711102,803.8158118444899,781.5231496686328
1731139807.7078848,875.6974198707429,808.3566477193871,803.7784129162239,791.5474165159067
1731139807.7102952,874.3808111254992,808.5377085615436,803.7393829618719,794.7275685731505
1731139807.7117922,834.8476614241814,808.7228307499927,803.6987117053601,787.0631431018303
1731139807.713812,782.1776144987722,808.9063716024083,803.6564413248126,776.1073143236979
1731139807.7151904,752.1794616831803,809.0790788674777,803.6126107141097,774.9415054445941
1731139807.7156994,763.395807354007,809.2367511707974,803.5672338133147,790.6444840838824
1731139807.7196066,802.8725816544911,809.3930316410738,803.5203060921615,816.9781282161132
1731139807.7235138,836.9664941454625,809.5831950800101,803.4718190779204,837.9711623230351
1731139807.7274213,838.5463571288404,809.8414007638908,803.4217693291088,840.0795492012215
1731139807.72914,808.5526078894386,810.1490483765823,803.3701595548797,823.0057963045972
1731139807.729367,774.1956127213452,810.3902677679196,803.3169957725793,799.9320050200296
1731139807.7313285,765.2956207257647,810.3865219971963,803.2622844288875,786.7653345283736
1731139807.7352357,788.631330345792,810.0582368342594,803.2060308376665,789.414402300586
1731139807.739143,821.9259176021501,809.6262950138445,803.1482385436927,799.7657640099645
1731139807.74305,832.5242855110733,809.6009465866068,803.0889094151036,803.505261939653
1731139807.744922,805.0670988427299,810.4006188433492,803.0280453010615,792.9297635834453
1731139807.7469575,755.1803088504394,811.8919134214817,802.9656519356623,773.9697254056829
1731139807.747985,718.011109394742,813.3861886037066,802.901743207782,761.6868526009413
1731139807.7500048,720.8453997261846,814.1726617993509,802.8363402949776,767.896841322612
1731139807.7508647,761.5021268755613,814.0451600832673,802.7694599330831,790.7716824696072
1731139807.754772,809.6358962659656,813.3207989776645,802.7010942256362,814.8431608516224
1731139807.7586792,830.3671014704489,812.4426770549296,802.6312000037915,821.9491492142922
1731139807.7604768,811.9292735487073,811.6419278994407,802.5597258773308,805.0222356089316
1731139807.7625866,775.0132028007429,810.9483451421878,802.4866877017776,773.8771245644675
1731139807.7664938,755.5729995070388,810.4076240968118,802.4122470157552,748.094224693046
1731139807.76683,774.7401689477751,810.1763929050766,802.3366823661516,742.4471626747646
1731139807.770401,820.7906398664007,810.3590306444944,802.2601530980594,756.4187700231082
1731139807.7743082,858.3675255840324,810.7695660694078,802.1823236611552,775.8175337964294
1731139807.7760315,857.3330372735822,810.9216114833088,802.1022095284648,784.5144562661436
1731139807.7782154,817.4058909778709,810.3555138793528,802.0187626765503,776.5826323690204
1731139807.7821229,768.7036260928054,809.0701323781516,801.9323265535355,759.7222134279947
1731139807.7848191,748.2676375530255,807.6492361703649,801.8459988263585,748.3202377689603
1731139807.7856748,771.5860402578309,806.8685696927356,801.7647984677244,752.2490825304943
1731139807.78603,821.3293654475947,807.0295607392796,801.6909351212346,769.9376388298609
1731139807.7899373,861.5744599101496,807.5888386428979,801.6168864635173,790.4086581790543
1731139807.7915866,865.9663735602295,807.4802420994648,801.5234370376885,802.1102703988655
1731139807.7938445,837.5119716122225,805.9306642050357,801.3921044798594,801.3960407012008
1731139807.7977517,804.3890805210306,803.0894368490134,801.2329544070196,794.1187313485103
1731139807.801659,795.6657205962484,799.9352117145272,801.1077212095736,789.7083493622847
1731139807.8045197,817.5331304014817,797.5963518180587,801.1082065656421,793.4016736184535
1731139807.8055663,849.9181045793198,796.7330020367164,801.2614451769963,803.2454653133811
1731139807.8071415,865.2010033481483,797.4449868177501,801.4005467300751,813.3694458348231
1731139807.8094735,851.4169686557557,799.5390736499228,801.1378854640836,819.302986583386
1731139807.8133807,819.5819233883129,802.6572923813461,800.0982960171315,820.4841212942099
1731139807.8172882,790.9462907749125,806.0868456399728,798.3656348032705,819.0471939458745
1731139807.8196335,778.7677304386482,808.6137856910864,796.7213725460892,817.3300134357195
1731139807.8211954,781.5060940303729,808.8853013706381,796.2322509985506,816.4414288886232
1731139807.8226962,789.6415262914173,806.2621110849158,797.44601017172,816.3161587002088
1731139807.8233647,795.4476570425255,801.5500467031648,800.0732346881306,816.4403395572043
1731139807.8251026,796.8911867742521,796.8907248134042,803.5100722776223,816.4333843707175
1731139807.8290098,795.7685503672391,794.6431719887026,807.4771488246444,816.2114593379328
1731139807.832917,794.4363311650885,795.9127014542198,811.9268144081904,815.8712425106108
1731139807.8368244,794.0312965445003,799.7908176277556,816.378515466341,815.5268178019442
1731139807.838251,794.4595044023346,803.9247878981122,819.6541013030363,815.2285779661985
1731139807.8407316,795.1580069769939,806.021718301874,820.5620441571538,814.9681267593305
1731139807.8422096,795.7144544430626,805.1665166718268,818.9096491845077,814.7171078764785
1731139807.8446388,796.0390428793482,802.0481154676155,815.7206675260583,814.4563626801156
1731139807.848546,796.2367956828448,798.1362063288071,812.356067629348,814.1827139865753
1731139807.8524537,796.4309036507117,794.6550871562202,809.4584866770091,813.9018940541731
1731139807.853806,796.6754313369055,792.1694781895851,806.8417490567134,813.619936353445
1731139807.854448,796.9609865656979,790.8632401314451,804.3803861425315,813.3392887061003
1731139807.856361,797.2568093822227,790.9303116977788,802.8291021433268,813.0593892299719
1731139807.860268,797.5422182939109,792.5313185904643,803.5603473347844,812.7788028323796
1731139807.8610544,797.8138310430552,795.3781409126358,807.3497005217656,812.4966864210705
1731139807.864175,798.0778533712737,798.5052710163155,813.3407467641375,812.213031631866
1731139807.8680823,798.3407596054491,800.644507347816,819.2097730400075,811.9282123574765
1731139807.8693607,798.6051072718664,800.99445104961,822.5072589218468,811.6425251622447
1731139807.8719895,798.8701969777533,799.7261913149982,822.1611793584699,811.3560726381829
1731139807.8758967,799.1344412604512,797.7724880240804,819.0013125270251,811.068956293861
1731139807.879804,799.3970058796676,796.1128546316675,814.9461753356481,810.7815121766515
1731139807.8798993,799.6580566123937,795.2084436615551,811.5324740458295,810.4942665417885
1731139807.883711,799.9181051633209,795.0110945749555,808.9390031333108,810.2074455776807
1731139807.8849158,800.1772315190117,795.3502504395628,806.2020490745141,809.9202895853213
1731139807.8876188,800.4348101157639,796.1830191317437,802.3476045415604,809.6309526146415
1731139807.8892624,800.6900940542384,797.4877302032882,797.4974451578871,809.337889453178
1731139807.891526,800.9435187874213,799.0733076799737,793.1187407949667,809.0426514264328
1731139807.8954332,801.1977464263791,800.6490588060018,791.2545610512055,808.7518760266319
1731139807.8987443,801.456741533643,802.0943339807629,793.2260799296679,808.4745080382836
1731139807.8993404,801.721750149739,803.5406553576282,798.5776566512952,808.2119741456406
1731139807.9004707,801.9859658333389,805.0852070807723,804.9309967406394,807.9462534180029
1731139807.9032476,802.2338723224835,806.4546867915294,809.0136239075177,807.6403966728931
1731139807.907155,802.4523838236622,807.0790240009152,808.4833382297516,807.2672536204178
1731139807.9110622,802.6532171192391,806.5813569101209,803.5042977812423,806.8620682334154
1731139807.9149694,802.8888718142234,805.1716172525963,796.8820767226506,806.5541588419645
1731139807.9160256,803.2305170250132,803.5007183348147,792.3785694649108,806.5039249853033
1731139807.9175892,803.6894026306699,802.1308743473004,792.2350321430217,806.7112898709759
1731139807.9188766,804.1211166723442,801.1913421019472,795.7511496490538,806.8038780106292
1731139807.922784,804.2290888580756,800.5486547425555,800.0815299041947,806.0871349622166
1731139807.9240768,803.793825400498,800.2443937914902,802.6350642529485,804.1345866924629
1731139807.9266913,803.0938528048066,800.6872363086202,803.1123412792628,801.7877129685568
1731139807.9305985,803.1600654548896,802.3573440715312,803.5041893337598,801.6891840320533
1731139807.9315803,805.2706144924655,805.2727337990522,806.0767123674905,807.0595492127487
1731139807.9345057,809.4066329474671,808.7263793940091,811.0518587277551,818.4863142751091
1731139807.936434,812.5151121154198,811.6063631289843,815.9760639476148,831.2023601831664
1731139807.938413,808.7865173384564,813.0920676398914,817.4171749357649,836.7968358954029
1731139807.9423203,794.0259687201184,813.1202537092,813.6891101776391,829.8609132125924
1731139807.9462276,772.6086885356319,812.1789158462367,806.3474132763797,814.0540435682423
1731139807.9471352,759.7914707534654,810.655324635002,799.1350965264509,801.0048857584513
1731139807.9501348,772.2457825304222,808.4670488340643,795.2234033329121,801.706719461149
1731139807.954042,811.3851830514592,805.4257429157276,795.081143778668,817.2788358487305
1731139807.955279,856.078876873743,801.9487621697102,796.6902066991572,837.0303857952166
1731139807.9579492,875.7586818520605,799.2595452130329,797.6812599498081,845.9198239934643
1731139807.9588912,854.9461261128531,798.6787447321473,797.3675187698104,835.8981305060134
1731139807.9618566,807.7860724655009,800.5549882361386,797.0250373697664,812.3730318241395
1731139807.96269,768.8961426435353,803.8285944579877,798.5022589579503,790.5574335682907
1731139807.9657638,766.8418495083558,806.6948672905096,802.5778544215226,784.1422068213174
1731139807.969671,801.4918705480969,807.8481055242918,808.3781602476997,794.8911686387443
1731139807.9735782,844.1116897337189,807.2862527202441,814.0616920349914,811.4688193016793
1731139807.974124,860.8059554882325,806.080415375933,818.0135930838846,818.6987019199141
1731139807.9774857,840.411034358771,805.4171342339748,819.6361579337946,809.8554248507583
1731139807.978245,803.7169927939605,805.7613730086634,819.3313123888612,791.8630224601228
1731139807.9813929,786.1716895484126,806.7431403306797,817.9107492973236,779.1667178008073
1731139807.9853,808.33421408189,807.6708484589595,815.9938637652745,781.6199299225942
1731139807.9892073,858.4862796133652,808.1044021596042,813.819958736599,796.5806856706998
1731139807.9929688,901.5562991730102,808.0432989993927,811.482715376046,811.4588790275428
1731139807.9931145,906.8947658300532,807.7407716007828,809.2491832040299,814.0019195294593
1731139807.9937055,872.4755004378694,807.4362334985221,807.6192712535452,801.4885008275372
1731139807.9938,826.3766358654575,807.2268928761866,807.0674761271509,781.5989046974064
1731139807.997022,804.5529068444007,807.0924225968083,807.6962801820883,765.2572889259114
1731139808.000929,822.5433931233378,806.976078079233,809.0837384705746,758.4603923507301
1731139808.0048363,863.5914806124848,806.8413675943716,810.4396259299461,759.8659767805497
1731139808.0087435,892.7438305300245,806.6834469378456,810.9791726944019,764.4223232283404
1731139808.0093548,885.5605573978794,806.5141424766089,810.3209972861594,768.0844512858395
1731139808.011814,847.9245347228658,806.3450649552813,808.7145202892891,769.6771622829058
1731139808.012651,810.5639784215685,806.1804757495775,806.9549500382732,769.9912881462895
1731139808.0165582,802.8595668996759,806.018809511393,805.9686471148678,770.1680203037427
1731139808.0204654,827.8326928277274,805.8569684668769,806.25962290791,770.7859363086651
1731139808.0243726,859.2633923283004,805.6931255862163,807.5682311522763,771.8202495996325
1731139808.0249095,863.4855426581016,805.5271355905779,809.0128141189432,773.002336514567
1731139808.0282798,828.0224765847922,805.3596610521439,809.6609174930845,774.1266397038587
1731139808.02852,773.578548310802,805.191292285167,809.155823403541,775.1431803628643
1731139808.0306587,739.1547610106244,805.0222144409973,807.9645492129339,776.1001124146378
1731139808.0321872,751.4097295865398,804.8523176977308,807.0573028612745,777.0577141645182
1731139808.0360944,802.346795189186,804.6814289651415,807.21511482735,778.0438435634177
1731139808.0400016,853.8399412670296,804.5094511603583,808.4522822520261,779.0550484046817
1731139808.0404644,866.7673611952986,804.3363761609091,810.0131092622178,780.0766063839386
1731139808.0439088,832.1443802868281,804.1622359054493,810.9971994487163,781.098179980236
1731139808.0478165,778.7169020967594,803.9870574758736,811.1340582816792,782.1178048001192
1731139808.0495036,750.0215589947146,803.8108467363306,811.0304402825292,783.1383713086233
1731139808.0517237,769.2950922144793,803.6335921588018,811.6107488162473,784.1630783525845
1731139808.0556307,821.0147989541117,803.4552734527177,813.1746049572007,785.1932855045777
1731139808.0560193,863.977323438455,803.2758694731001,814.87815205197,786.2287383836562
1731139808.059538,864.6460709555403,803.0953692116938,815.1418489233882,787.268673129992
1731139808.0633342,823.3430954838647,802.9137867979617,812.7483450719853,788.3126086261486
1731139808.063445,772.6684762500431,802.7311673558571,807.8284173573462,789.3605094724006
1731139808.0673523,750.6044399281743,802.5475602529779,801.9757999373603,790.4125766354537
1731139808.0683484,770.7430036265182,802.3629516773057,797.3513424015518,791.469008841291
1731139808.0712595,813.3229377040368,802.1771988414343,795.3963420017469,792.5299004536657
1731139808.0715742,843.2241745102774,801.990063797502,796.1003222926398,793.5952617996038
1731139808.0751667,839.3160211862114,801.8014307467521,798.3432082480202,794.6650793972468
1731139808.079074,810.9429363542248,801.6116350093282,800.9427416213261,795.7393556632427
1731139808.082981,788.5012418855626,801.4215736974471,803.4605073532159,796.8181149319612
1731139808.0868888,796.6755525083507,801.2321474677664,806.1126346494093,797.9013911651831
1731139808.087129,833.0177897058253,801.0429573441672,809.0094771388561,798.9892154233937
1731139808.0871935,869.5579909245981,800.8511627974192,811.5462039754824,800.0816110779939
1731139808.090796,875.701912377127,800.6523750821939,812.5565538567218,801.1785954261585
1731139808.0947032,843.3482919873984,800.4449872903142,811.1238003623067,802.2801831141421
1731139808.0981486,793.8898329506363,800.2362061462306,807.3973894012049,803.3863880692372
1731139808.0986104,761.7422744902981,800.0432765595609,802.7634958147123,804.4972231309752
1731139808.1025178,767.7320491520458,799.8817478922064,799.1615324229136,805.6126983203445
1731139808.102684,803.4110405108934,799.7406682235725,797.9192540583471,806.7328194703986
1731139808.1060383,838.543044917606,799.5634834708129,798.8774415495063,807.8575889628054
1731139808.106425,845.7163118017178,799.2701524248125,800.4983150647338,808.9870092170825
1731139808.1103325,822.4056204381385,798.8435466983939,801.0018290859111,810.1210869020368
1731139808.1142397,792.5581692538038,798.4414836251198,799.7243019806173,811.2598326229223
1731139808.118147,786.0912680323692,798.41067393288,797.5940041879406,812.4032506805961
1731139808.1182387,812.9565466016928,799.074953310515,796.3028956843641,813.5513207195737
1731139808.122054,853.4475540635639,800.3621059438907,796.9053743693191,814.7039871531831
1731139808.1248832,873.3383117312089,801.6084456403281,799.075833515861,815.8611819410567
1731139808.1259613,851.8444374890789,801.8598664635279,801.5804197053841,817.022891727512
1731139808.1298685,799.6011541585751,800.5474991445182,803.3757073757365,818.1892304969175
1731139808.1329632,751.8103209458764,798.0117669983736,804.2991426208279,819.3604193865663
1731139808.1337757,741.6659197720903,795.4410437515781,804.8838149168228,820.5365798005732
1731139808.1337938,774.8915214316805,794.2517290154365,805.6740357796225,821.7173928698194
1731139808.1376832,825.3882790145282,795.3115648265083,806.7145148483565,822.9019429597863
1731139808.1415904,855.4879283120943,798.4573163052439,807.5585956656638,824.0892168235324
1731139808.1437285,845.0142452076673,802.5531462839841,807.6684345685642,825.2794024867751
1731139808.1454976,806.2701530442625,806.0427110433191,806.8396477842158,826.4751605327089
1731139808.1493485,773.0284928178005,807.6932783571793,805.325968550513,827.6809831029201
1731139808.1494048,772.4219617533162,807.1283809269044,803.5812314345471,828.8990357218753
1731139808.153312,802.6721460220033,804.8797898409866,801.8443465667508,830.1228610282793
1731139808.1572194,834.9444993788364,801.9958732593412,799.9436315641825,831.3352610888435
1731139808.1611266,837.67515289701,799.5013033781547,797.523124036205,832.5189800453247
1731139808.162573,803.1670411951167,798.0272837977568,794.525702333704,833.681638629027
1731139808.1649034,754.6687114341319,797.7462295209725,791.540208398492,834.8775812439601
1731139808.1650338,728.3485643255161,798.5264951852846,789.7042374059167,836.1907879196064
1731139808.1677775,744.7110525858487,800.1148231895236,790.1352311333853,837.6520640789537
1731139808.168941,792.112760265461,802.1909639729,793.1600129495167,839.1237703888637
1731139808.1728485,835.4501100296246,804.2879571017104,797.8225669823734,840.276798648612
1731139808.1767557,843.4277404140473,805.7433539077261,802.1347694250794,840.8162392838065
1731139808.1804583,812.9923996560574,805.8842050833217,804.1371376410866,840.9594574310352
1731139808.1806629,771.2982955949839,804.4473317764129,803.1799917503047,841.8121839573134
1731139808.181418,753.3649188894926,801.9302944571392,800.4619013917061,844.978313685813
1731139808.18457,773.5256634660393,799.4858355790783,798.2798067340716,851.00858103603
1731139808.1884773,814.148978644651,798.2899505349765,798.4638438637744,857.5704989944961
1731139808.1923847,840.8673958474716,798.7903817905609,801.1933043633086,859.7231497929228
1731139808.1960132,831.4445284372819,800.4146384433158,805.0800452412851,853.757424757429
1731139808.196292,794.2399360672259,801.9836719248384,808.319631282505,841.7623616813977
1731139808.2001991,761.2884529127278,802.5227958217394,809.8845503098435,831.4072627431289
1731139808.2002628,762.1042410197883,801.8660478158396,809.8925289373615,829.5543739565557
1731139808.202592,799.6396491277312,800.6398809352684,809.128961532833,835.3265167276652
1731139808.2041063,847.5216791950533,799.7031143659248,808.3457476038831,839.6769295265676
1731139808.2080138,870.6072240772628,799.5210491142788,807.8930146583872,832.6614125936353
1731139808.211568,852.6817325245684,799.9655220620152,807.7594029814987,812.5107364325365
1731139808.211921,809.4476956658901,800.6526468641541,807.7825855500573,788.6474123760157
1731139808.2158282,776.1963541345251,801.4579909058056,807.8191519646184,775.5020390135062
1731139808.219108,779.6023676966802,802.6946352002924,807.8089018087746,781.5469266202331
1731139808.2197354,816.2918873452114,804.7653626597222,807.758580626485,802.276845396746
1731139808.2236426,855.8450622454241,807.6161181497579,807.6974044703622,823.1328148981065
1731139808.227123,865.9321249567279,810.5221294310754,807.6453154926315,830.4030207061492
1731139808.22755,838.8142490994697,812.4312335334835,807.6055912435436,821.4463608966474
1731139808.2314572,797.3459904616562,812.5891183661075,807.572229823724,806.0218746388813
1731139808.2353644,775.8933126335133,810.960264880841,807.538970827163,797.862338286949
1731139808.2374065,792.3078800011766,808.1788567345602,807.5033500559962,803.5605581112812
1731139808.2379527,833.8803842952691,805.1407391814927,807.4660754613678,817.655871166042
1731139808.2392716,868.1813141658797,802.5477956940788,807.428778497779,827.4316970132359
1731139808.242678,869.5070025842186,800.6656139212647,807.3924710832019,823.2231717873411
1731139808.2431788,839.4386980314769,799.3899132675895,807.3572696116896,806.0544524515485
1731139808.2470863,804.9497538138713,798.548116332851,807.3228358937499,786.7942063627211
1731139808.2509935,795.6454233358587,798.2129736181766,807.2888506887778,777.6696901186565
1731139808.2549007,818.9235163676675,798.7480598827506,807.2552053475289,782.9220866222008
1731139808.2567976,853.8857081884901,800.47726822603,807.2219525354301,796.0338409813781
1731139808.2582328,869.2859716633715,803.2326692761787,807.1891841840537,805.6114823754282
1731139808.258808,850.3959700752039,806.245625979632,807.1569544158845,804.8895597550705
1731139808.262715,811.9595459345629,808.5902317547009,807.1252699518924,796.9038446266493
1731139808.2666223,786.2075373101447,809.8341842563419,807.094115512009,791.1876704208541
1731139808.2705295,796.0330921833718,810.2829073354035,807.0634783792093,795.077535770274
1731139808.2722206,835.7479513632802,810.5749324403088,807.0333572498143,807.134923047655
1731139808.2737875,875.2079990984474,811.0516014533409,807.0037587941226,818.1418067597767
1731139808.274437,883.7247144679433,811.553219990723,806.974691078397,818.5895927662183
1731139808.2756426,854.3296170306045,811.8072839209034,806.9461597429397,806.1981626946124
1731139808.2783442,808.9698391687515,811.9035367505268,806.9181677481326,787.2461663623512
1731139808.2822516,780.5193183241523,812.2581710862312,806.8907168082952,771.1025947843216
1731139808.2861588,786.0867842254765,813.073100865926,806.8638086508881,763.3077610595957
1731139808.2893424,813.4170090919146,813.9135706736452,806.8374454099156,763.1139627773338
1731139808.290066,831.8157272851145,813.9467154079648,806.8116293976909,766.2582974400411
1731139808.2939732,818.72167096195,812.683993000029,806.7863627485801,769.028992170767
1731139808.2944877,779.6577951144544,810.5230598971509,806.7616472271316,770.1129228008422
1731139808.2978806,744.605764218385,808.5597193015313,806.7374842238023,770.0145009954501
1731139808.301788,743.5949187825055,807.8102003042836,806.7138748312814,769.6931071882784
1731139808.3048973,781.6006358039524,808.4751672055023,806.690819905293,769.7005804805208
1731139808.3056953,833.2658274610313,809.8068440128208,806.6683200784939,770.0675529960085
1731139808.307035,861.7580647580064,810.6646280399168,806.6463757435106,770.5810469937386
1731139808.3096025,846.9018717101657,810.35470292756,806.6249870315155,771.0562645348846
1731139808.3133323,800.5777252804996,809.1489358509154,806.6041538006996,771.4358858026676
1731139808.3135097,757.2788858533992,808.0814892178704,806.5838756348443,771.75312572552
1731139808.317417,747.0102180972414,808.1293317766429,806.5641518459898,772.0592958863487
1731139808.3204522,771.8567860387718,809.3738433241144,806.5449814762708,772.3813658474348
1731139808.321324,805.2165969754487,810.8202806688666,806.5263632975195,772.7189344218789
1731139808.3252313,814.6915218697479,811.0814938451356,806.5082958096227,773.0600324822478
1731139808.3291385,789.907190902216,809.4426450477933,806.4907772390129,773.3951456747373
1731139808.3321774,751.850764272638,806.4933888174556,806.4738055380125,773.721709237093
1731139808.333046,735.4850512409432,803.8357276131003,806.4573783850457,774.041697513626
1731139808.336007,759.9237341015098,803.0651503056849,806.4414931854546,774.3577508903551
1731139808.3369532,811.0955497169429,804.7152647149207,806.4261470726449,774.6710963135026
1731139808.3408604,851.5812266326647,807.8393401151295,806.4113369093022,774.9815438049275
1731139808.341849,849.9223398506965,810.486215830846,806.397059288409,775.2883831080308
1731139808.3447676,805.7222446795984,810.8090982309491,806.3833105339702,775.5911042163236
1731139808.3486748,750.2014826132316,808.1797995227462,806.3700867019523,775.8895737349818
1731139808.3510222,721.698236746777,803.6440184587683,806.3573835826709,776.1838394108025
1731139808.351562,735.8727231342701,799.4031735189027,806.3451967058456,776.4738875270225
1731139808.3525822,774.6670392901023,797.5886679117923,806.3335213477314,776.7595784834377
1731139808.3564894,802.7504740815741,799.0583939659548,806.322352536349,777.0408089683484
1731139808.3603966,797.5525976955638,802.9645966049103,806.3116850487298,777.3177667325664
1731139808.3643038,767.7307120842096,807.3536163947758,806.3015133980064,777.5909914329636
1731139808.3671167,744.7330329322957,810.3661609979355,806.2918318204446,777.8609498931893
1731139808.3682113,754.9413156590468,811.2179493227258,806.2826342863768,778.127159345539
1731139808.369867,796.2221216682212,810.3617249347623,806.2739145564124,778.3875588361929
1731139808.3721185,838.7081996575189,808.8712405913159,806.2656662672156,778.6393661851088
1731139808.3760257,849.1135529582325,807.615093726777,806.257882967695,778.8821299966673
1731139808.3766637,818.3918172457542,806.816896521363,806.250557993893,779.1214418309419
1731139808.3799329,769.9318529725509,806.1890732756345,806.2436841575238,779.3687864315103
1731139808.3826716,741.383497530881,805.364904025466,806.2372534611291,779.6326278540597
1731139808.38384,754.6309470134883,804.2002073460488,806.2312572969969,779.9020668941376
1731139808.3877475,798.2662194485652,802.7456471644992,806.2256874905144,780.1369741372368
1731139808.388712,837.0957771827271,801.0509060021432,806.2205377998717,780.2875335555452
1731139808.3916547,841.2165522221101,799.0996654448976,806.2158043061802,780.3538048683099
1731139808.395562,810.7736888904891,796.969446793136,806.2114826641367,780.4518216905119
1731139808.3982265,775.6605792255166,795.0027997732659,806.2075620548277,780.7988604384951
1731139808.3994691,770.1830322317602,793.7165630876177,806.2040202665396,781.532230574548
1731139808.4033763,803.8034244882921,793.4449472098507,806.2008285610752,782.4046584659715
1731139808.4072838,852.4295891127434,794.0283036157451,806.1979722427458,782.6368831289348
1731139808.407557,877.5022808234395,794.8746958259303,806.1954778699996,781.3549140419527
1731139808.411191,857.2327276506888,795.3891562775985,806.1934163751679,778.7661077117025
1731139808.411478,804.7695496017434,795.401515131594,806.1918456099492,777.3882261132476
1731139808.4137814,758.848861263354,795.1998704355975,806.1906954958515,781.7496723964018
1731139808.4150982,754.2291941309827,795.1439276474737,806.1896866112277,795.3558907809833
1731139808.4190054,794.9427010330929,795.2455246128272,806.1884449315246,816.3195779450626
1731139808.4229128,851.2916728033962,795.1480477396792,806.1869061420475,835.9590130785305
1731139808.426402,883.0810992334405,794.5494988421552,806.1858059165967,843.5802045473908
1731139808.42682,870.8394654219471,793.6642866247987,806.1866574947511,834.8621197571879
1731139808.4293363,830.2765550549581,793.2433642670304,806.1905690435017,816.598521578082
1731139808.4307272,798.6572390191725,794.0493013765457,806.1960809205145,802.7305625854484
1731139808.4346344,804.4523196385387,796.1739800945563,806.1978665997893,804.0724742273761
1731139808.4385417,844.8831450981064,798.7647945057012,806.1893311757319,819.9169902421415
1731139808.442449,888.9624641698604,800.4415909599377,806.170499590651,838.5128941814853
1731139808.4448912,902.6535303624427,800.1695011617564,806.1567423437536,846.2228452398721
1731139808.4452467,875.4891819628152,797.9997821148919,806.1767583946397,838.1179624197929
1731139808.4462926,827.9247344749206,795.1512084318548,806.248476063913,821.6512947179363
1731139808.4463563,794.5485824454988,793.3237251306374,806.3385482647021,810.5633201993451
1731139808.4502635,796.8810923306016,793.6461065197788,806.3423644872581,813.8121952326655
1731139808.4541707,827.0895226515512,795.9514343010195,806.1402479160947,828.2712324073908
1731139808.458078,855.3732829773184,798.9236283124726,805.7473476423991,841.1829785670918
1731139808.460446,855.2084779369527,801.0706661385536,805.4579,840.7080508825994
1731139808.461985,825.9719912131089,801.821303590406,805.773347250899,826.1028030568883
1731139808.4640918,793.8872874793957,801.8751026726684,807.0100614429557,808.8607889968144
1731139808.4658926,789.8110720810952,802.5122483956678,808.8570675337239,803.378592722763
1731139808.4697998,822.1387705272294,804.4616659840848,810.3845441188738,814.6906507321955
1731139808.473707,867.9640229456966,807.3159162915402,810.6661156199066,833.7345737161662
1731139808.476001,890.6595165862876,809.95395385108,809.5516938657594,844.4834317167694
1731139808.4776144,869.7107857101228,811.4803239239034,807.9060156381821,837.1499164077721
1731139808.481107,818.1205951665228,811.78951500152,807.0481877180366,816.3739613245244
1731139808.4815216,772.9077932622365,811.3888821592707,807.7863778765712,797.5142072160461
1731139808.4829366,766.2838258253794,810.8629867383298,809.7774350241523,794.1815548437976
1731139808.4854288,800.6872024722691,810.5166723201557,811.6979567370848,807.4114561967697
1731139808.489336,847.6274440289958,810.3610914561493,812.0982149371378,825.3984546518526
1731139808.4915557,871.0960922329369,810.2797208912289,810.3171759611565,833.8641397464282
1731139808.4932437,856.4497707431544,810.1757609986558,806.844300250888,828.2069597046744
1731139808.497151,821.1674496921106,810.0219538554412,802.9645916754062,817.0210436478803
1731139808.501058,798.8227895094831,809.8381497512084,800.0029257076916,813.924275219351
1731139808.5017817,810.0000008859164,809.6521016833292,798.640302786273,824.8659845620216
1731139808.5049653,844.8076603111567,809.477634243348,798.6210267390339,842.2101829834287
1731139808.5071106,871.6002728159186,809.3139493371847,798.94388384408,850.9398595343719
1731139808.5088725,864.1836580956748,809.154459965271,798.4561570647211,841.4488922202564
1731139808.5127797,824.3906583538651,808.9942027250429,796.5915373359962,817.511696019734
1731139808.5159214,781.2441838674794,808.8320088028652,793.8265770793212,792.6436934131323
1731139808.516687,767.6712147442622,808.6690658379615,791.482810723868,778.8762292457535
1731139808.520594,794.0532958919044,808.5068271778687,790.9112186569663,778.5308214074925
1731139808.5206263,840.0130400536148,808.3459470066377,792.6177886529501,785.4131534306805
1731139808.5226655,870.7567050942461,808.1863217819297,796.018048320713,791.9786336868801
1731139808.524501,864.6033984188422,808.0275813089579,800.0073318007217,794.6910591157475
1731139808.5284088,829.5992582194353,807.8694662724641,803.7948021482152,794.2137332404745
1731139808.532316,796.0262259133295,807.7119211051992,807.2008650587424,792.7510930012792
1731139808.5362232,791.1013818468388,807.555006455887,810.1747891808067,791.8415554408558
1731139808.5382204,816.6070738073754,807.3987886905074,812.1375782166612,791.7919637191175
1731139808.5394714,847.6997297923319,807.2432883780168,812.0038482350333,792.1932925992716
1731139808.5401304,853.707389438014,807.0884862378784,809.0523370116447,792.586119733676
1731139808.5440376,823.823871916275,806.9343503526994,803.8497021785431,792.7770168221886
1731139808.547945,776.8331443576402,806.7808562272718,798.2233251371493,792.8079718354057
1731139808.5507357,746.9887140329857,806.6279919069987,794.1511182013481,792.7960303682763
1731139808.5518522,757.1657119771769,806.4757530740253,792.52985292329,792.8174320763787
1731139808.5537753,800.4410229668771,806.3241345913236,792.8837896299824,792.883293823728
1731139808.5557594,844.7834942817459,806.1731224157129,794.0764111899017,792.969844743163
1731139808.5583162,857.6059480661356,806.0226897479448,795.19860584021,793.0532205986495
1731139808.5596666,831.1244562512018,805.8728034669671,795.935891616381,793.1244782911377
1731139808.5635738,788.1605796091114,805.7234445773435,796.404042001617,793.1867261122007
1731139808.5674813,763.1729359606541,805.5746333078376,796.8243303207454,793.2463575805125
1731139808.5693302,773.6788703578882,805.426430215993,797.3228117338672,793.3072261840282
1731139808.5713885,805.8473663573657,805.2788804495455,797.905102033382,793.3697260355576
1731139808.5752957,826.5739472050041,805.131906543602,798.5212973918256,793.4325642958479
1731139808.5771613,811.9172901587527,804.9852368805895,799.1287333381999,793.494594615726
1731139808.579203,767.8391433905808,804.8385208692619,799.7144901383941,793.5555326307326
1731139808.5831103,725.8652897548764,804.691711090967,800.2864980470217,793.6157197791157
1731139808.5848851,717.4719896179669,804.5455111345808,800.8566920157459,793.6755772224919
1731139808.58555,748.4771025711859,804.4013253247276,801.4312707060202,793.7352331453304
1731139808.5870175,794.3069328120199,804.2601226619104,802.010094318304,793.7945052444979
1731139808.5909247,819.7697508219742,804.120425991111,802.590386374916,793.8532168961913
1731139808.594832,807.1444297238672,803.9771887196229,803.1699724185946,793.9116665069063
1731139808.5960062,769.7571088539139,803.8243681769571,803.7482961203846,793.9708620310261
1731139808.5987391,740.0634802810895,803.6623548541322,804.3258451899234,794.0320118106278
1731139808.6004398,742.2144079963509,803.5058880603051,804.9032522284119,794.0951018173005
1731139808.6026466,772.0198507301932,803.3815620766829,805.4808171126003,794.1574154275171
1731139808.6065538,801.0501672423849,803.3046341890894,806.058508530124,794.2140382612255
1731139808.610461,801.222920779048,803.2410677391035,806.6361709559818,794.2622209325642
1731139808.6143682,769.0097408097567,803.0894046435824,807.2136925228648,794.3083680721526
1731139808.614851,729.0843638328973,802.7320563691585,807.7910537315289,794.3709830973306
1731139808.6159947,714.6961773182263,802.1641020640084,808.3682948044402,794.4699304345006
1731139808.6182756,740.9473916217419,801.6017569235363,808.9454631146598,794.5994771852795
1731139808.6203644,792.2295916414026,801.4069934465698,809.5225741790144,794.7027836516347
1731139808.6221828,833.5121870738034,801.7919659594862,810.0995952335802,794.6868387485674
1731139808.62609,836.7520691079238,802.5308712160894,810.6764594450887,794.5097573485016
1731139808.6299973,802.1543038111488,802.996071116614,811.2531221180036,794.3094598341022
1731139808.6315496,757.7507764677046,802.5729577519537,811.8296456361968,794.4413642208983
1731139808.6336958,737.3606349857483,801.1411860104082,812.4062417388697,795.2489721515976
1731139808.6339045,754.1589672490057,799.2314645587062,812.983158843402,796.5445881091841
1731139808.637812,791.0433346791182,797.7476000673835,813.560371307422,797.1645821198623
1731139808.641719,815.6915752044331,797.4783884575356,814.1372560480936,795.3262988185426
1731139808.6456263,807.8815990469348,798.7126547867923,814.7127075594894,790.2749126844167
1731139808.6471045,776.3091523120348,801.121319538765,815.2861053682551,784.3642453202813
1731139808.6495335,750.9561071566508,803.8962221795862,815.858859038488,782.9948832560935
1731139808.6525407,757.6271302991412,806.0645988587306,816.4350515026778,790.4954035748614
1731139808.653441,795.9717534356445,806.8824719170541,817.0190492598398,804.5058268692108
1731139808.6551788,839.0794936327986,806.1735660450195,817.6095284953514,815.0693896655661
1731139808.6573482,854.9376817224585,804.4482871760716,818.1938425632952,811.4052825208199
1731139808.6612554,832.3807305697442,802.694287127168,818.751358663972,791.4835476631022
1731139808.6626594,790.4677062940866,801.8984896454779,819.2727715946706,765.7048414448344
1731139808.6651626,763.3865569849813,802.5492041984924,819.78839073497,750.4869664797828
1731139808.6690698,772.8917843345221,804.4253420177721,820.3758083997237,756.2655872077663
1731139808.6713858,810.9089028008655,806.8140512038235,821.1072983181358,779.578752929645
1731139808.6729772,846.8864914718571,808.9887490217992,821.9299151045784,805.8825165882263
1731139808.6768844,853.7669284390516,810.5786674867192,822.5524115141204,820.875254432473
1731139808.6782143,830.5852936959577,811.5791087389078,822.4788505995875,820.95623952547
1731139808.6807916,802.6449075417032,812.0975958856777,821.2576834328245,814.3240110043433
1731139808.6846988,799.4986220883883,812.1538690875951,818.7918546374426,812.3965604309444
1731139808.688606,829.6650252638914,811.7242458938317,815.4253380811018,819.4150761179538
1731139808.6899931,873.1667945900697,810.9131497287493,811.7295872187215,829.160744706692
1731139808.6902306,897.6532111414629,810.0027330091697,808.2501304049608,831.1905202034292
1731139808.6925137,884.6669403455005,809.2928041281223,805.4708161396412,820.9059125550604
1731139808.6937692,844.8776482758509,808.8804144438145,803.8885505940967,804.7706398064406
1731139808.696421,810.0263169039847,808.587079746349,803.8713888161669,796.0685318227136
1731139808.700328,807.6837860779905,808.0970922528705,805.2428080511478,804.3024690711195
1731139808.7042353,838.8785691980704,807.1871300049858,807.0052017742531,826.7179469764671
1731139808.7081425,877.0268965058649,805.8606834942477,807.6881802868047,849.1511561324105
1731139808.7090757,889.6458971963234,804.2882177152865,806.2841760381531,856.113830228753
1731139808.709324,865.2922135103777,802.6257988967557,803.0902126843835,842.4526143352712
1731139808.7120495,823.3160858244131,800.9049092178386,799.6816876566132,817.3945268104343
1731139808.7159567,798.102340295931,799.1266917006726,797.8731623827769,797.7258333136074
1731139808.719864,810.7379341428568,797.4712212820172,798.3650983056834,795.4055535362854
1731139808.723771,851.42821499521,796.3598036936202,800.1143048731276,809.1421970235375
1731139808.7248075,886.9403063015338,796.2056114893323,800.9865907619546,826.116018419657
1731139808.7248788,886.8992075973372,797.0064678115893,799.2899579617655,832.0594786340602
1731139808.7276788,847.8652225228586,798.1563101592034,795.0699671908782,821.7359947050272
1731139808.7279203,796.2280784176301,798.7205045088032,790.1610653742018,802.0132123630439
1731139808.731586,767.6921483767308,798.0229836627921,786.9252391280046,785.6432592643683
1731139808.7354932,779.4387150994844,796.0975637976807,786.6793821727412,780.9375245371875
1731139808.7394004,817.0251871064825,793.6567680771224,789.0757085438298,785.5875621493122
1731139808.7404337,846.6904905297502,791.6470233117155,792.8220549950997,789.5493286837406
1731139808.7433078,843.2552818965717,790.781155231904,796.8864703656312,784.4693558819604
1731139808.7467654,810.7032235673967,791.353800542856,800.9711326794662,771.5204811164903
1731139808.747215,778.2834794926714,793.296672523396,804.9408223369928,760.7372829450816
1731139808.7511222,775.3859384465038,796.2501276023485,808.0601742354289,762.268295356446
1731139808.7550294,806.3265886822018,799.5887371671079,809.0611236660277,777.037586609458
1731139808.7559886,846.2016375940309,802.5498313449624,807.101248743593,794.8915417628234
1731139808.7589366,861.2071417861486,804.5387483735641,802.6739921001796,802.036742471654
1731139808.759622,836.5183329258706,805.4143391151714,797.5310687474035,791.958606020771
1731139808.762844,788.8221318567428,805.4895867078161,793.6082135904575,771.1934380291672
1731139808.7656102,753.2871828682892,805.2479051172259,791.8507904631417,755.206725279952
1731139808.7667513,755.4605433415462,805.0396900121631,791.8856836663682,757.1315706048422
1731139808.7706585,790.8094816841312,804.9762582982868,792.6971841466918,777.7797654568172
1731139808.7715435,828.6860571025275,805.0086450770691,793.5960175173452,804.8096056514802
1731139808.7745657,837.7391659709449,805.0534953623634,794.6112171941558,822.0436514602451
1731139808.7784731,811.9335503456743,805.0660220364346,796.0858501475227,821.6653848745914
1731139808.7823803,775.4590931653526,805.0464081032634,798.0420543325409,809.4136005175134
1731139808.7844553,762.3282697644331,805.0141809493998,800.0139044130694,798.7876401057769
1731139808.7862875,787.7396256476683,804.9850203863715,801.4461402236029,799.7746162397362
1731139808.7870984,835.0883487792244,804.9631651109623,802.1454796785317,811.9739076506615
1731139808.7901947,869.2235002734726,804.9452883410643,802.3320890005059,827.1488394619417
1731139808.794102,864.8013367904749,804.9268880399369,802.3621109271,837.2208858217116
1731139808.7944365,826.5206433037671,804.9057672591239,802.4672664412932,839.7695536782687
1731139808.7980094,785.0693104566411,804.8820897679956,802.6939046554448,837.4442272738002
1731139808.8019166,772.4596222303574,804.8569290560507,802.9839302650068,834.0941161482123
1731139808.8026533,796.8397840313924,804.8310763948909,803.2720200526778,831.9154002691305
1731139808.8033,836.8707086992928,804.8047050769298,803.5310058544227,831.0897143621751
1731139808.8058238,859.7745170759566,804.7776126712796,803.7672420645087,830.8414565175988
1731139808.809731,848.2048752975012,804.7495606497774,803.9975715503974,830.4753850556033
1731139808.8136384,814.2021354822756,804.7204437101693,804.2328400973372,829.7675232614711
1731139808.8175457,789.0435189278658,804.6902795198121,804.4745475176072,828.8371350512859
1731139808.8182082,797.305789606408,804.6591264642946,804.7192445792367,827.8767138741239
1731139808.8214529,836.2056946926515,804.6270209149939,804.963514231635,826.9900009726209
1731139808.822145,877.0169461239476,804.5939631694947,805.2060924925256,826.1777615043958
1731139808.82536,887.67937044129,804.5599372901742,805.4474352129547,825.3959947999501
1731139808.8292508,858.7800280875985,804.5249384399217,805.6884578146984,824.6089188050494
1731139808.8292673,812.0922062736578,804.488986571816,805.9297064032112,823.806605619889
1731139808.8331747,784.2137736824233,804.4521137102025,806.1712309953746,822.9964048716232
1731139808.833763,797.6155055131879,804.4143248784321,806.4128389018025,822.1884596297746
1731139808.837082,842.2114145097769,804.3755570236328,806.6543544444851,821.3877338858074
1731139808.840989,882.9800249065414,804.3356878763136,806.8957234285759,820.5938217497793
1731139808.84099,888.196269002254,804.2946429065895,807.136990750353,819.8042220928404
1731139808.8448963,855.3973775354193,804.2525730355785,807.3782370597751,819.0170561691114
1731139808.8488035,813.4655876139777,804.2099392558799,807.6195246649701,818.2318435632517
1731139808.8493178,798.8310338717905,804.167259024336,807.8608583013676,817.4489519382105
1731139808.852711,825.3663475493188,804.1244352530534,808.1021635176395,816.6688176463798
1731139808.8566182,872.7211380057008,804.080089739106,808.3433145481056,815.8915651843855
1731139808.859835,902.4756562296357,804.0318756823791,808.5842501474405,815.1170620548152
1731139808.8605254,888.8169896945301,803.978613717377,808.8251462751672,814.3451515278813
1731139808.8640652,839.0916490333294,803.9235658260505,809.0664808451021,813.5758023999497
1731139808.8644326,788.0892500300287,803.8755993200353,809.3087530988804,812.8090450287549
1731139808.8648727,770.8486161725766,803.843756072624,809.5518026257516,812.0447299597898
1731139808.86834,795.626745247818,803.8243922455536,809.7941830961593,811.2823226281805
1731139808.8722472,838.4446789337767,803.7897854293826,810.0335726845404,810.5210618232352
1731139808.8761544,863.3513541795022,803.6968944268517,810.269000563741,809.7606770784915
1731139808.8786798,851.6603920770599,803.5308151539343,810.5040629621279,809.0023257097932
1731139808.8800616,816.0025664733555,803.3674613117769,810.7477667159071,808.2486728097355
1731139808.8804276,787.8210018045721,803.3950053436351,811.008626428234,807.501872596517
1731139808.8839688,789.4880410429473,803.8240533410425,811.281645441287,806.7596136146273
1731139808.8878765,815.1159251680677,804.7006581332577,811.5376627562841,806.012413170363
1731139808.8917837,836.1653953118908,805.7716230994786,811.7336799634401,805.2477499268355
1731139808.895691,826.4538142165903,806.5633508552414,811.8569537600943,804.46409519357
1731139808.8959825,785.0808134319976,806.6475044083165,811.9834468473363,803.6875748613702
1731139808.8975246,738.2920379918727,805.8868315392,812.2844022416219,802.9705300793687
1731139808.8988795,718.9764902655741,804.5002814876289,812.901707465641,802.350057455557
1731139808.899598,740.3067048274473,802.9619892189611,813.6962214860273,801.7737096037386
1731139808.903505,784.5538175119856,801.8317787668235,814.0573111102311,801.0567983320428
1731139808.9074123,816.4747896724467,801.5804585807448,813.103706919403,799.9752790885378
1731139808.9113195,811.3460963433349,802.4338230568446,810.4167747238154,798.5390090488739
1731139808.9115374,775.2667307977094,804.2609464774679,806.815602094779,797.2873088173527
1731139808.9152267,740.587000331761,806.5508233771669,804.2254569704443,797.2064247888392
1731139808.9163697,739.4545690346822,808.5329179798573,804.3271920937528,798.8862889748419
1731139808.919134,777.1283153166912,809.4614837123237,807.0369316740154,801.1301344887855
1731139808.9230416,827.3770048453142,808.9658162713918,810.2934368044548,800.3026429766535
1731139808.9269488,853.7907945517911,807.2496347598709,811.4670163820841,792.1630996352483
1731139808.9270923,839.151396835637,804.9681265816213,809.2255351717513,776.1112908415714
1731139808.930856,798.7894954436889,802.8424681050046,804.3849707692522,758.2871700031607
1731139808.933694,767.7068196253558,801.2761673386431,799.2376747626896,749.197076580684
1731139808.9347632,772.557467775622,800.2108728884546,796.0347830869606,756.1500668086941
1731139808.9352143,810.8633550692485,799.2572089232493,795.7169055741186,776.4393438042581
1731139808.9386706,853.3164406130942,797.9784624795769,797.5693145924109,797.5724473123254
1731139808.9425778,866.9377795913323,796.1868979185807,799.813240709807,805.3424165385371
1731139808.942647,840.993603183137,794.139833635176,800.7028801967613,794.0227197275858
1731139808.946485,795.4363961987428,792.521518142057,799.5330541332314,770.8071240832722
1731139808.9503922,765.0704280504287,792.1442910528172,797.0225068822849,750.7326095209874
1731139808.9540594,771.8377148600918,793.4719647857761,794.8650848422874,745.7744369775181
1731139808.9542994,807.418063638244,796.2464698596549,794.7460603026656,756.5950399090187
1731139808.958202,840.2450349425908,799.4867595180128,797.442967236293,773.3450603727522
1731139808.958207,841.2283272801249,801.8995069275744,802.4874762988447,784.4890609666223
1731139808.962114,807.2722971672903,802.4810780496059,808.4281533050015,786.1203446008777
1731139808.9660213,763.7026905632224,800.989473153489,813.4299947852145,784.1455539202132
1731139808.9685082,744.0229516491593,798.0557017898701,815.9454252106053,787.9648107697903
1731139808.9699285,763.4761198792681,794.9008724959658,815.2910043598021,801.3838833644934
1731139808.9729044,807.2511588758747,792.818958269288,811.9600770594609,818.5529498058835
1731139808.9737568,842.2313134147694,792.6815263209247,807.4689254556946,828.331748567901
1731139808.973836,842.9236755637947,794.6747703916365,803.6771566314046,823.4934451335097
1731139808.9777431,811.3837790332633,798.3327370279516,801.8625652728335,807.2058518733696
1731139808.9816504,775.3741618820451,802.781743973921,802.1127839895848,791.2988908413492
1731139808.9855576,765.7635733274045,807.0379719079694,803.4830463123095,787.3472469139666
1731139808.9893117,790.9835348344802,810.2305740511015,804.7946497484074,797.5137432042403
1731139808.9894648,829.5159220595426,811.7348347003804,805.3984833374304,812.5971517242746
1731139808.9917493,847.1728960235117,811.3018847869329,805.3398216001453,819.1420835323314
1731139808.9933722,825.4230600341118,809.2316017416869,805.0046733312786,810.1465430099032
1731139808.9972794,777.4991393316285,806.4452026210254,804.7164851156017,790.8315045130385
1731139809.0011866,738.7997757956998,804.1998308704167,804.5801733560186,774.7685229212565
1731139809.0033226,739.0864785468355,803.4032464052173,804.5445722289545,773.3787571067584
1731139809.0048666,778.7974683352262,803.9387290615433,804.5245061779391,787.1373598961836
1731139809.0050938,828.5037760969154,804.6251358202053,804.4737641359799,805.4217377927403
1731139809.009001,852.0228587247684,804.0468226008309,804.3918768552955,815.0190908887537
1731139809.010594,834.771497966627,801.7219005152585,804.2983701525012,810.4260879154451
1731139809.0129085,794.5456117269387,798.6470734000332,804.2091791023648,797.6745986714986
1731139809.0168157,765.9004920868606,796.6696340350331,804.128745514006,788.6764791143432
1731139809.0204215,771.0045722080638,797.1164696159608,804.0537998384218,790.9134181609804
1731139809.0207229,801.4591649482575,799.779774297149,803.9798041171173,801.2539809057133
1731139809.02463,826.5656737990699,803.078554315701,803.9045135568377,809.166116047035
1731139809.0285375,820.805047857503,805.2310040606003,803.8280743951112,806.4100969728713
1731139809.029439,786.5698136113111,805.4814272740922,803.7515717944609,794.6378171421541
1731139809.0324447,752.438420613846,804.485001879578,803.6758187484434,784.2648228436249
1731139809.0359764,748.6847084624017,803.6977564511517,803.6010053253765,785.6652735064717
1731139809.036352,781.2061418280518,804.3335544694862,803.5269371506768,800.2560232621807
1731139809.038137,825.9633253916242,806.609534894436,803.4533786445077,818.9346211242066
1731139809.0402591,848.4025231956457,809.6586065149285,803.3802270953059,829.1394959559374
1731139809.0441663,831.5712041024836,812.0370623121263,803.3075046072903,824.8222151484345
1731139809.0480738,789.7548893413156,812.4941387263857,803.2352749346755,811.3137190137946
1731139809.048284,756.5863857121616,810.629061681437,803.163578007459,801.0877624426297
1731139809.0515313,757.5093131982567,807.1413605818761,803.0924135744361,803.6697788930816
1731139809.051981,789.1574439362371,803.5299906504604,803.0217619221546,817.754791356755
1731139809.0558882,822.4362913348631,801.3319868216257,802.9516169300715,832.0003153058836
1731139809.0597954,826.6959932721203,801.2766163504879,802.8820079046342,834.0084796656831
1731139809.0637028,795.240489510797,802.8824909775723,802.8129889293285,820.3069576267841
1731139809.067086,751.4605245359329,804.8208246646982,802.7445850322157,799.288565725589
1731139809.067129,730.6565467559435,805.8335479534512,802.6767188443006,784.8058088052965
1731139809.06761,752.0466052594132,805.5283382220332,802.609193378733,785.6048420097945
1731139809.0715172,803.0143598358997,804.4475559735772,802.5418251269352,798.9062195062036
1731139809.0729516,847.9287690644619,803.449666888322,802.4747313201505,812.9493531776483
1731139809.0754244,854.8751774369778,803.0360658342423,802.408558863521,816.261215864579
1731139809.0793316,819.8432448173994,803.167905568323,802.3442461254352,806.3030753321581
1731139809.082641,769.6402705487574,803.5315971465579,802.2820450180599,790.7874898186866
1731139809.0832393,741.020732184486,803.8621398165745,802.2202438237957,780.807268003341
1731139809.0859735,752.2188975609647,804.0714935608889,802.1550502379969,781.499147524311
1731139809.0871463,789.5151226477223,804.1996080008029,802.0833438451407,788.0393779727152
1731139809.0910535,819.7164069633752,804.3154887264751,802.0081043749054,790.4045926929149
1731139809.0949607,818.2438237525066,804.4571963732949,801.9421783148595,782.8450036292286
1731139809.0981958,789.4094201076996,804.6256123812083,801.9027167178043,769.7333043670599
1731139809.098868,762.0278166972723,804.8050614133616,801.8920334731187,762.3825114369686
1731139809.102775,764.4479417092568,804.9825434513812,801.8748149806135,769.2908063868601
1731139809.1048188,800.2826254082828,805.1543357275164,801.7803358294896,788.1459771835114
1731139809.1066823,844.9740137622081,805.323035700764,801.5607521493071,806.5730558946472
1731139809.107766,865.6285595909421,805.4923413579002,801.2985704031236,811.3164116934488
1731139809.1105895,847.6347089984577,805.6641198644232,801.2829096128071,798.6165425124395
1731139809.1137507,806.4929808621384,805.8382912064285,801.934943646169,777.5355065448653
1731139809.1144967,775.3680712923265,806.0139943668797,803.5522773005753,763.450642471366
1731139809.1184044,778.4032910404025,806.1905760093522,806.0224699955303,766.5617920206065
1731139809.1223116,811.503396324399,806.3678851074845,808.7383515486019,784.240601191521
1731139809.1236637,846.4051825652748,806.5460853300365,810.8426684147584,803.2207326900175
1731139809.1262188,854.6158797978325,806.7253776831077,811.7270633426372,809.9635718353633
1731139809.1293056,831.1193431962035,806.9058580554921,811.5002868658667,801.0189402188334
1731139809.130126,798.0789257136474,807.0875213611638,811.0430241583473,785.1877370833276
1731139809.1340334,785.9026295938031,807.2703249496169,811.476767598063,775.9417253139885
1731139809.1379406,807.9690753710443,807.454236630203,813.3519279199865,780.4517267715988
1731139809.1418478,849.8599105730874,807.6392464386533,816.182728408475,794.1750576025877
1731139809.1425085,881.1525971580088,807.8253590298574,818.7444623967383,805.169678531572
1731139809.1425805,879.5170280377315,808.0125883253861,819.939140791487,804.2873240258501
1731139809.1448605,847.952870053766,808.2009591025424,819.5652215008736,792.806265987791
1731139809.1457553,812.1551880807347,808.3905019365181,818.3954254678991,781.3767814896141
1731139809.1496625,800.3096990916617,808.5812261572253,817.5073172308616,781.2318051925051
1731139809.1535697,820.880622127568,808.773078609772,817.4067236035971,794.860680557178
1731139809.157477,855.8618790711621,808.9659334046634,817.6741850838761,813.8761842593073
1731139809.1604152,875.4312278905197,809.1596729611664,817.4521331315507,825.9684612375426
1731139809.1613536,862.7375576985478,809.3543653499466,816.3529592954417,825.1430146240147
1731139809.161384,828.4085815325838,809.5504074197203,814.943639829612,816.4628752052909
1731139809.1652913,802.0561385048869,809.7483791607584,814.3045512962144,811.1750823854321
1731139809.1691985,807.2755860054127,809.94843728775,815.0163543634274,816.4950391399708
1731139809.173106,841.1072921981255,810.1495182901976,816.4927934864874,828.9697980981184
1731139809.17597,875.6054128188916,810.3492569967107,817.2893113333347,837.1354696074658
1731139809.1770132,880.5401931706483,810.5456884967645,816.1627147613069,831.1609759368351
1731139809.1773946,848.4559126643203,810.7406253294056,813.043534623339,811.4086238414609
1731139809.1801984,801.3818459145449,810.942023433008,809.1872949962245,788.9188280175606
1731139809.1809204,773.5380352465424,811.1605578544193,806.385207781517,777.3624566787635
1731139809.1848276,783.8037450610947,811.3977107823599,805.7502217975315,782.6725082444616
1731139809.188735,820.1918408759554,811.6314464741049,806.9114538965432,798.4436506123266
1731139809.191525,849.3898529552387,811.8171497949702,808.262639721712,810.8791681074986
1731139809.1926422,844.2615598197086,811.9228762862397,808.1930621256939,809.5773199918553
1731139809.1965494,806.8996150681285,811.9936925221866,806.3862009892823,795.5521538753571
