timestamps,eeg_1,eeg_2,eeg_3,eeg_4
1731107239.760703,810.998910120827,803.9537819473934,805.4621607011991,803.3523673852618
1731107239.776333,811.0679214574274,804.0503050958921,805.5619576087603,803.3526970420447
1731107239.7919636,811.1701114805263,804.1180147021995,805.6540986567999,803.3441181646946
1731107239.8075936,811.3094735499313,804.144421657911,805.7394000427873,803.3088821148317
1731107239.8232236,811.4610768069563,804.1405061684945,805.8228682645771,803.2327294125054
1731107239.8274417,811.5968120660725,804.1335041730314,805.8982131605778,803.1177498515962
1731107239.8388538,811.7059112175837,804.1532446492116,805.9342467428147,802.9696499529874
1731107239.8463335,811.7921921251113,804.2196000581756,805.8953378862115,802.7921861817152
1731107239.8544838,811.867663425615,804.3283036529282,805.8034953857026,802.6264982871229
1731107239.8652253,811.9652210522808,804.4340166274364,805.7856182185276,802.5830088164089
1731107239.8701138,812.1453952464634,804.4521350803482,806.013475243215,802.7588987657572
1731107239.884117,812.4444132272723,804.3130846568793,806.5110488429018,803.0476910425233
1731107239.885744,812.773615803908,804.0660893725226,806.9598911967131,803.0392758543417
1731107239.901374,812.8844674066243,803.9543187999228,806.734676734179,802.2205974323078
1731107239.9030087,812.5161312585702,804.344848680635,805.2809619487176,800.4129209535786
1731107239.907702,811.6801382321764,805.4763282288801,802.6249041331304,798.0698286922557
1731107239.911596,810.8416076582146,807.168909710969,799.5691052773396,796.0937785378424
1731107239.9154904,810.7504625579633,808.7666279020034,797.2904238150695,795.2601236338878
1731107239.917004,811.9289940377902,809.4725005113029,796.5582489506586,795.7351593205392
1731107239.9193845,814.1458602067231,808.9098464137348,797.1733122828299,797.0805958902604
1731107239.9219005,816.3146008812954,807.4747219203022,798.0852034631737,798.6442491329187
1731107239.9232788,817.0166297297695,806.1270314916553,798.0954547713941,799.9140513312299
1731107239.927173,815.3943099279606,805.7010327870381,796.6080581548676,800.5951193873542
1731107239.9310672,811.8004060098265,806.2558373929592,793.9243607250351,800.5562805069537
1731107239.932634,807.6479906479626,807.0246702868754,790.9886498729726,799.8851776905202
1731107239.9349613,804.4643716107175,807.0578079735501,788.866875102997,799.0292304341021
1731107239.9388556,802.8467239290627,806.0483246594468,788.293969874923,798.7513936426085
1731107239.9407923,802.1948664759719,804.6375354747313,789.4175897571504,799.7000594576692
1731107239.9427495,801.4557606125684,803.9354307499244,791.6897959340947,801.7478046417048
1731107239.946644,800.1702517610927,804.6672989049,793.9022190326632,803.6133674265907
1731107239.9482644,798.8052421564165,806.6396636863864,794.5011262655036,803.2934128576605
1731107239.9505382,798.0646217215065,808.890370621902,792.2691833265513,799.3053445729967
1731107239.9544325,797.9334171184117,810.3249182582327,787.1349123720762,791.9631200075187
1731107239.9583266,797.5322732249132,810.3472672428292,780.5548463519475,783.6008125304196
1731107239.959684,796.0580300843923,809.1110226618551,775.0100760143478,777.3233036961219
1731107239.962221,793.9247879748515,807.3302395835207,772.7417727747044,775.0851456795863
1731107239.9638944,792.8769879967589,805.8381416918764,774.4923245719668,776.5739769464508
1731107239.966115,794.7268277403093,805.1611085987043,779.1277648039298,779.7805288822445
1731107239.970009,799.6790641614722,805.3132514402214,784.4099130310675,782.7180535845525
1731107239.9739034,805.7149209799326,805.8868907851665,788.3343538889234,784.777144541848
1731107239.9777975,809.7063058523137,806.3728822633603,790.0827989922949,786.5904117206206
1731107239.9785757,809.4918612015765,806.5249960478267,790.046351629945,788.711120471086
1731107239.9795244,805.3070871909874,806.5333276892349,789.137720034234,790.5404550959768
1731107239.9816918,799.4659970912,806.8655795474094,788.0484110118789,790.6618220063734
1731107239.985586,794.6427093022069,807.873748815268,786.955215078748,788.3030967086307
1731107239.9894805,792.217765373911,809.4821760475837,785.7221451429177,784.4663308914693
1731107239.9933743,791.8982890105198,811.2374320016595,784.2946326495863,781.525856739484
1731107239.9951546,792.5349401150914,812.6802330460824,782.9212997890778,781.5415274440035
1731107239.997269,793.1422958942373,813.6842243160032,782.0207758597852,784.7309745172801
1731107239.9974675,793.3489304116603,814.4376761750882,781.8062128194122,789.3686633709259
1731107239.9987197,793.2559314513653,815.1174022887977,782.0016529958094,793.1035911825849
1731107240.0011628,793.0966792015787,815.6330364426698,781.949047781079,794.5605714907612
1731107240.005057,793.013097689835,815.7424116308771,781.1031088167204,794.0288814080623
1731107240.0089512,793.018300650069,815.4186300771663,779.5709790957128,792.9027474805833
1731107240.0107846,793.0615651036286,815.0318678265538,778.2576282798157,792.4968767267843
1731107240.0128455,793.0963232342762,815.0653330000202,778.4213881737397,793.206143962715
1731107240.016359,793.1068487884072,815.5935616450176,780.8671428236286,794.558704829036
1731107240.0167396,793.1004760869819,816.0746746513098,785.312506130023,795.9233359562354
1731107240.0206337,793.0898533326578,815.7525498092899,790.414249192032,797.1308882287059
1731107240.024528,793.0819970580478,814.3476032159433,794.5173597594681,798.476780917017
1731107240.0264146,793.0771077586425,812.3796243148596,796.6528731313965,800.2483795056903
1731107240.028422,793.072320829962,810.7943889274943,797.0788099062711,802.3507967311203
1731107240.0323164,793.0652349959415,810.2421127307636,796.9652231461205,804.3767550013835
1731107240.0336668,793.0551401752285,810.6879274990309,797.4632609971321,805.9548578245666
1731107240.0352511,793.0424888649299,811.6849029338141,798.855362627022,807.0485941301258
1731107240.0362103,793.0279425330903,812.9707330352865,800.3939476069083,808.1124322875368
1731107240.0401049,793.0118316036413,814.7310010523878,800.9033242563653,810.1332119836366
1731107240.0420449,792.994132138439,817.209419317476,799.6824037612037,814.37214902594
1731107240.043999,792.9746810283755,820.0091683970046,797.0766299281513,821.5417083513317
1731107240.0478933,792.953359208292,821.7993161680439,794.3467796512248,830.6805853252758
1731107240.0517874,792.9301422812538,820.871094336496,792.9438653282732,838.7358729905463
1731107240.0541427,792.9050544212428,816.2874061969542,793.690314095311,841.7715567715569
1731107240.0556817,792.878104497055,808.8013580927689,796.4045479855525,837.4020317550752
1731107240.057675,792.8492639246516,800.7623026942659,800.1549996048935,826.6177484553532
1731107240.0595758,792.8185056537384,794.9099653398741,803.871876576751,813.2929364071406
1731107240.06347,792.7858780428152,792.8077157596224,806.8612328332123,801.5807109024147
1731107240.0673642,792.7515410027625,794.0105909077552,808.9606116412683,793.3378934548099
1731107240.068614,792.7156743145069,796.554373742351,810.3936680600175,787.694562431786
1731107240.0712583,792.6782368252345,798.3499616874878,811.5286536079917,782.8825004408076
1731107240.0730343,792.638735439972,798.4138814889026,812.6891193686532,778.4362616014024
1731107240.073305,792.596351627022,797.11258849377,814.0643125475216,775.7359779903874
1731107240.0751526,792.550712019887,795.4644811517079,815.7198914817146,776.5485604337604
1731107240.0790467,792.5030347203905,794.2218184400855,817.6777424814649,781.0858213485195
1731107240.0829413,792.4564828199482,793.4245066817296,819.9798155185921,787.4634261117145
1731107240.0868351,792.4141602771186,792.5782477865383,822.6404825596563,793.0577536315536
1731107240.0889351,792.3745368201777,791.1412187042263,825.4990811720618,796.4613076294485
1731107240.0907297,792.3275426016392,788.9357344932228,828.1393500788054,798.2451640675364
1731107240.0919263,792.2578985990149,786.2968451953723,830.0584672029443,799.9710653766889
1731107240.0946236,792.1604411678449,783.9469940883258,831.0603123399181,802.5628917753697
1731107240.098518,792.06107890196,782.6646650835645,831.5796094667303,805.6095966901427
1731107240.102412,792.0204033873155,782.8780410773618,832.5934272251613,808.1103239507776
1731107240.1035612,792.0917410564878,784.3806633187284,835.0483582179774,809.754624621755
1731107240.1045651,792.2343330613071,786.3525544922566,839.134027987815,811.4115972095633
1731107240.1063063,792.2487675706376,787.7331592622802,843.9360536354832,814.3567534943146
1731107240.1102004,791.8593947144915,787.7906445517491,847.8026598614318,818.9921505772037
1731107240.110818,791.0230488139949,786.5760638212768,849.2579767278161,824.2766072764579
1731107240.1140947,790.3282715580903,784.9529582342575,847.8622209096221,828.424505685349
1731107240.1179888,791.0640461300835,784.113229831696,844.4305132632418,830.2989198631834
1731107240.1201952,794.5406348541403,784.8379862388343,840.4991411246885,830.3078263834147
1731107240.1218832,800.8854182071906,786.9850865484847,837.461500937969,830.0118012430584
1731107240.1257772,808.3977495427746,789.5656325705862,835.9390301953538,830.735902422136
1731107240.129671,814.4149246004243,791.3653295352267,835.6692500062899,832.3591377631162
1731107240.1297095,817.1869645953699,791.6908411856757,835.8220698163842,833.3611981610718
1731107240.1335657,817.0589296967828,790.7664060320475,835.4858531582074,832.1548452291609
1731107240.1358252,815.8592719912102,789.5728662550109,834.0941118660145,828.6100524776488
1731107240.1374598,815.157728344209,789.2649550994709,831.6488778059752,824.4779830208136
1731107240.138508,815.0592469147166,790.502744694452,828.6717234184252,822.3137575128837
1731107240.141354,814.5345189398013,793.0518547897839,825.9028895074578,823.688071531791
1731107240.1452482,812.7996362427376,795.8906514576844,823.8853203393207,828.0095848529813
1731107240.1486015,810.3900928212744,797.8191171414669,822.6602948069216,832.819041073372
1731107240.1491425,808.9636712331327,798.2412977390254,821.7745787686713,835.3641696590659
1731107240.1514554,810.00006208009,797.5975507183697,820.613668895203,834.350729779911
1731107240.1530366,813.4578336454636,797.0874735049003,818.8299221716902,830.6078452687753
1731107240.1569307,817.4774065512302,797.8147006060035,816.5424256778855,826.1834566909724
1731107240.160825,819.4495906887958,799.937756345858,814.175372309766,822.61216681423
1731107240.164719,817.7747591684172,802.4499236490843,812.1229513922161,819.7961514195028
1731107240.1670854,813.0944831360264,803.7924107800069,810.5564770890476,816.4220089527702
1731107240.167493,808.0731151415898,802.9302724860803,809.4865680695978,811.4810535386731
1731107240.1686134,805.7815365314822,800.1708519692331,808.8995730857612,805.4975797929876
1731107240.1725078,807.7339127730501,797.1124322515569,808.7501011133986,800.3873392011659
1731107240.1734552,812.9225723036409,795.6647249280486,808.838446918071,798.1180862285873
1731107240.176402,818.524455346495,796.774729351674,808.8036153811448,799.3378421143971
1731107240.1802962,821.7656128855566,799.7981989950981,808.3468615855217,803.0413374789917
1731107240.1827154,821.6063137237473,803.0255886078402,807.4978664401426,807.3878951139773
1731107240.1841905,819.0908762977048,804.9572102543941,806.6213022642299,810.8845387655113
1731107240.1863852,816.2568135860885,805.3019582475748,806.0959721397109,813.0209736397397
1731107240.1880844,814.5735829694238,804.9375213499179,805.9391173975325,814.0537388536728
1731107240.1919787,814.1234433258966,804.9945471345653,805.7361116854994,814.3679387707041
1731107240.1958728,814.0005429811728,805.9520209179261,804.9792027426188,814.079669513461
1731107240.1983457,813.3664574827427,807.4975430361773,803.5538256238183,813.1571714237
1731107240.199767,812.1519574135565,809.1001776890383,801.9546049986552,811.7620323108921
1731107240.2036612,810.8642363683795,810.5847987021166,801.004012768278,810.3152417833342
1731107240.205277,809.8512822656155,812.1056213677094,801.2479786115774,809.1506708521915
1731107240.2075555,808.8501980885965,813.6205220903091,802.4928832074955,808.136351836923
1731107240.2084024,807.2970412324981,814.5267062997931,803.8659004363861,806.7539953146064
1731107240.2114496,805.0828517626694,813.977886330759,804.3719145323236,804.6746970147293
1731107240.2139757,802.9770253831458,811.7051007397826,803.5322423773114,802.2990096012668
1731107240.215344,802.232179379341,808.5804277929348,801.6533857047269,800.6608655998159
1731107240.219238,803.6437090066696,806.2769618244794,799.5851056620735,800.6661317466281
1731107240.2231324,806.8554960983429,806.1477372569572,798.1835859625867,802.3013130997693
1731107240.2241683,810.5135692987486,808.2005059887659,797.8281519150585,804.5148046001927
1731107240.2270265,813.157030211664,811.0579415140393,798.2458438654381,805.8687483388248
1731107240.2296057,814.1412328311096,812.9815027484744,798.724009052789,805.4153950350652
1731107240.2309208,813.9049797183864,813.1145750646592,798.6007376171848,803.1724500438137
1731107240.234815,813.4496613169313,811.9320352749245,797.722450229099,799.995234655033
1731107240.238709,813.4934481157459,810.6259837115508,796.5063531223533,797.0572722105268
1731107240.2426033,813.9422832834449,810.0796951002193,795.5482288798743,795.2556589353441
1731107240.2430604,814.0149830488049,810.3114021975011,795.1579993012033,794.7809267562526
1731107240.2433496,812.8685284607724,810.6886260645683,795.2382620539154,795.0314547683383
1731107240.245236,810.2553042494609,810.5111353002944,795.5020957767923,794.9784086772214
1731107240.2464974,806.7666494845928,809.4138037061164,795.7277644766403,793.869641756298
1731107240.2503915,803.5034062953187,807.4227405919804,795.8494748456334,791.863531297866
1731107240.2542858,801.3888880869233,804.8645496999253,795.9061022244894,790.0893451987428
1731107240.25818,800.6008646100557,802.3153116417855,795.9560769832532,789.9535862995227
1731107240.260866,800.550221755957,800.5355722129281,796.0293379234945,792.1024741320327
1731107240.2619522,800.4329718077308,800.2404230559687,796.1247288155031,795.8293273028722
1731107240.2620742,799.9011005124038,801.7274040517675,796.228388370943,799.4707052872234
1731107240.2659686,799.2765320239445,804.6128957713648,796.3296191596434,801.5597204011498
1731107240.269863,799.1430896805206,807.9297924679541,796.4257400217966,801.8267172895515
1731107240.273757,799.7386748999526,810.5792266439217,796.5191657507571,801.2052847734733
1731107240.276496,800.7412948350357,811.843037864607,796.6129688081098,800.833494580448
1731107240.2776513,801.5982069301799,811.6167952710721,796.7085612014159,800.9177080093715
1731107240.2782967,801.9863913587741,810.254291249193,796.8057358313788,800.4487677411129
1731107240.280844,801.9579324351329,808.2138340656601,796.9036959160482,798.0214946827921
1731107240.2815454,801.7558265249722,805.8143047758899,797.0018657383212,793.0775713797708
1731107240.2854395,801.5801484862279,803.2689594158608,797.100101014228,786.5673559676964
1731107240.2893338,801.4962449459423,800.8999754951484,797.1985104911909,780.538863660011
1731107240.2921262,801.4735663940683,799.2608917876718,797.2972228569048,777.0217371581292
1731107240.293228,801.4603624914861,798.9512737693203,797.3962758747771,777.0335992236543
1731107240.297122,801.4284123819244,800.1800144621469,797.4956253350899,780.2783007826898
1731107240.2997355,801.3773464383391,802.4246424070207,797.5951960012517,785.500641882194
1731107240.3010163,801.3190356152676,804.568251102932,797.6949161102988,791.1010162530629
1731107240.3049104,801.2632117991362,805.5515433620889,797.7947273865486,795.6692755892453
1731107240.3077562,801.2126165780421,805.0918010937727,797.8945922463718,798.3001585550413
1731107240.3088048,801.1652814887946,803.8671068547943,797.9945118569905,798.67800272203
1731107240.3126988,801.1184503590815,802.9809765743464,798.0945361099988,797.0015968368077
1731107240.313244,801.0707571915069,803.1653925214501,798.1947226260538,793.8922078154014
1731107240.3165932,801.0222935319814,804.4025745417702,798.2950256216059,790.3671441627766
1731107240.3186274,800.9737264662783,806.2027724890902,798.3951817813569,787.7506040239728
1731107240.3204873,800.925559480771,808.1357415107808,798.4947587771951,787.29647659052
1731107240.3233862,800.87791664323,810.0526370130655,798.5935152444503,789.5545175850287
1731107240.3243816,800.8306871689971,811.8753936694349,798.6919633863034,793.9282386696664
1731107240.3282757,800.7837355296349,813.3288066378991,798.7915846692447,798.9245769375932
1731107240.33217,800.7370088895434,813.9934357334523,798.8939239394949,803.046334515877
1731107240.336064,800.6905318612462,813.6320073668014,798.9983905112572,805.6111653558951
1731107240.3375192,800.6443524355375,812.4319427166349,799.100247583221,806.778074783818
1731107240.3390164,800.5984971551972,810.9362128475632,799.1919630572759,806.8587831507925
1731107240.3399584,800.5529601604959,809.7633459139338,799.27041809242,805.7573627829298
1731107240.3438523,800.5077254584914,809.341373248416,799.347267391107,803.2145655401996
1731107240.3477468,800.462807308761,809.7574328798047,799.4515790062025,799.5710903281267
1731107240.348191,800.4182789151953,810.7151531380878,799.6106980970698,796.0934119792653
1731107240.3516407,800.3742476506455,811.620572627473,799.8083382307524,794.3065207945991
1731107240.3546464,800.3307522566172,811.8390491755471,799.9508358909791,794.8260282522433
1731107240.355535,800.2876296565863,811.0518107181721,799.9021346280296,796.7597620604653
1731107240.356411,800.2445016137789,809.4928348721637,799.6299130836433,798.2776550238626
1731107240.3594294,800.2010564081819,807.8551375196299,799.404322553776,797.9232403696257
1731107240.3633237,800.1576061665185,806.8602541517538,799.8500760890427,795.6237656554404
1731107240.3672178,800.1154756993726,806.7402440675634,801.6427199895022,792.6442780744153
1731107240.3702765,800.0764349355528,806.9958199508601,804.9286263464935,790.6005725161862
1731107240.371112,800.0407318663109,806.6602929899235,808.9425030943373,790.3419865406908
1731107240.3750062,800.0047291639629,804.9618100553737,812.2647274284343,791.5116757151583
1731107240.3753028,799.961054440097,801.9458282719022,813.5967364157812,792.9796509315929
1731107240.3789003,799.9043807366368,798.5744171216027,812.4623530738783,793.6841836282031
1731107240.3827946,799.8419051591695,796.1713925707118,809.3717475567242,793.2280990064872
1731107240.3831382,799.7995323744705,795.5938290681604,805.472643268791,791.9126563888198
1731107240.3859065,799.8090985166162,796.7343988909879,802.0257360299742,790.3769087926794
1731107240.3866887,799.8701253413049,798.6741490140488,799.9792879246962,789.2293181244007
1731107240.390583,799.9081245532169,800.2804227924527,799.70330200351,788.903912166947
1731107240.3941944,799.786130706106,800.77424091515,800.873389003248,789.6726488191435
1731107240.3944771,799.4252819080805,799.9701070111481,802.5883235143048,791.6156736732621
1731107240.3983717,799.0098924069564,798.2389796031918,803.8171491138187,794.5034760326096
1731107240.4015367,799.1096768454657,796.3732551007599,804.0341322047312,797.7713882004507
1731107240.4022655,800.4862492663834,795.3881446916677,803.5993472216417,800.7526941365159
1731107240.4061596,803.5493919601295,796.1671300825277,803.4757557886219,803.0522833870976
1731107240.410054,807.8267041348055,798.9848758715858,804.3768718119484,804.7359518453271
1731107240.4130862,811.9653801606119,803.1904744705467,806.0123413448392,806.1743042731556
1731107240.413948,814.3860981452295,807.3692672810461,807.1357895647661,807.7287249779572
1731107240.4171667,814.112773699109,809.9993468614016,806.4536252040502,809.562604262425
1731107240.4178424,811.152568342975,810.2362578952747,803.6781915566277,811.6192578917935
1731107240.418085,806.2352106777106,808.3439534101021,799.8383622717341,813.6003669294878
1731107240.4217365,800.2675889104551,805.5186310891568,796.57863286566,814.892548166385
1731107240.4256308,794.0091551430105,803.2184285967691,795.0335138988656,814.6399368008998
1731107240.429525,788.1541999390466,802.3759713466701,795.1933628597419,812.1661575592367
1731107240.431978,783.5630723682498,802.920403459761,796.2054422627981,807.626815442504
1731107240.4327967,781.2245484580163,803.873071247871,797.2349622453199,802.4236330873892
1731107240.4334192,781.7991161930039,803.980224355681,798.0911936097025,798.8962422376983
1731107240.4373133,785.0607493779193,802.5390191013674,799.1372720206231,799.23367811638
1731107240.4412076,789.7797687854898,799.921886543961,800.6932190913582,804.1682830129678
1731107240.4451015,794.2882424405161,797.4382519296398,802.5601072444123,812.354729237605
1731107240.448427,797.3638123865019,796.5815751442129,804.1134882220846,821.0158541615829
1731107240.448996,798.7584964056646,798.1501742805198,804.8670812480669,827.5481898813081
1731107240.4508698,799.0289328938941,801.8341862997036,804.9938312249169,830.9659215691718
1731107240.4528902,798.9417058477115,806.489770400688,805.3317232073464,832.0653224028794
1731107240.4530325,798.9872641360213,810.7916398400173,806.8226219261248,832.170629994284
1731107240.4567845,799.2735052194457,813.7593747170639,809.7830441144953,831.5537153661332
1731107240.4606786,799.6903274910856,814.9262760033621,813.5437163895759,828.9906126651247
1731107240.464057,800.1072298684697,814.2965952614505,816.729442769221,822.9428315329599
1731107240.464573,800.4679542763427,812.3017377136637,817.9992132818954,813.3172390134799
1731107240.468467,800.7837885503524,809.7372267561025,816.773936708034,802.1489591693354
1731107240.4697616,801.088161941573,807.5176823592069,813.5318530768172,792.546231784586
1731107240.472361,801.4031899991438,806.2524322986475,809.54760676329,786.8592200538252
1731107240.4762554,801.7323298053875,805.9150221859322,806.252386332636,785.6338144998705
1731107240.479687,802.0688701866391,805.9023894607608,804.5530843470893,787.9800042704078
1731107240.4801495,802.4059306389186,805.4882585783442,804.4525777418164,792.648680145458
1731107240.4840438,802.7408634659389,804.3485021712316,805.1738661220395,798.7313618633668
1731107240.487938,803.0745004269628,802.7759831002373,805.7285528678326,805.5986369060048
1731107240.4879794,803.4086543880976,801.449662148368,805.59057862261,812.5106540905786
1731107240.4886532,803.7444321174186,800.9597396655166,805.0257261280083,818.4746817758647
1731107240.4918325,804.081950097275,801.4497921988805,804.815132922857,822.4975716525853
1731107240.4953172,804.4208310479141,802.6107492573096,805.5316675098404,823.9869903165974
1731107240.4957263,804.7607256306161,803.968236678776,806.9139173207136,823.0371770863723
1731107240.499621,805.1015185085761,805.1843578700839,807.9092153492235,820.5239051075573
1731107240.5035148,805.4432693922115,806.1238157729695,807.4941391937432,817.9850285432651
1731107240.507409,805.7860770211556,806.6852974891797,805.693424000949,817.1356140414401
1731107240.507545,806.1299963871127,806.6449107451127,803.8814734990345,818.918851363324
1731107240.5109472,806.4750330981428,805.7501109607732,803.8954886190887,822.4945409121641
1731107240.5113032,806.8211759501075,804.0200282052388,806.4994869335021,825.1087269188164
1731107240.5151973,807.1684225149819,801.934047002792,810.4611934365278,823.5114265123879
1731107240.5190916,807.5167764465511,800.2460615123603,813.1691969961765,816.2959229335538
1731107240.5229266,807.866223997602,799.5287783921428,812.4718050902378,805.3497496540074
1731107240.5229857,808.216718559442,799.8430325060476,808.3318143981018,794.9799939020874
1731107240.5264368,808.5682065735214,800.8112317984486,802.9704491257186,789.1833961717776
1731107240.5265772,808.9207026390117,801.973681108229,799.3739822116981,789.2025576493438
1731107240.52688,809.2743622211078,803.0584137366291,799.3235500096669,793.2512042878476
1731107240.530774,809.6294409302316,803.9485638657978,802.4292378505758,798.347423139005
1731107240.5346684,809.9860506550901,804.4876016882337,806.7888573544119,802.4662648211337
1731107240.5385623,810.3437997438718,804.4250671773643,810.57418838866,805.2735752425776
1731107240.5422077,810.7016875523415,803.612919158896,813.1635023253864,807.2610162494585
1731107240.5424569,811.0587439967154,802.2423967340524,814.9755766620099,808.523701866721
1731107240.5453286,811.4154721289442,800.8221840272527,816.4217244281101,808.4336896078125
1731107240.546351,811.7750614659179,799.848126235049,817.1679764966408,806.3299479697665
1731107240.5502453,812.1423039177157,799.4440295262355,816.4457187934776,802.3568408149687
1731107240.5541394,812.5187402712418,799.3099555567226,813.9891960839666,797.6125526580038
1731107240.5578375,812.8960911413006,799.0273495825182,810.5465196498955,793.5424542669041
1731107240.5578735,813.2552417079972,798.4276890979137,807.4136515899661,791.161020287998
1731107240.5580337,813.5796098478231,797.6827149241606,805.4599994584119,790.6935370927291
1731107240.5619278,813.8825028242264,797.0693289402057,804.5724233241856,791.7612684387235
1731107240.5642202,814.2271222586065,796.6982686861572,803.9658824752111,793.7871030471227
1731107240.565822,814.6999891809642,796.522343071958,802.9858584063785,796.2265566460496
1731107240.5697162,815.3134165684219,796.6167525404855,801.6669851599055,798.5222524646257
1731107240.5734675,815.8809470228045,797.3779596412586,800.6339372503369,800.02543104792
1731107240.5736103,815.9994738368318,799.301110369233,800.5206630740893,800.1769181601018
1731107240.5775046,815.2701944137191,802.412630981783,801.4276078433747,798.9356343705666
1731107240.5813987,813.6873639711737,805.8730197169239,802.8403123511291,797.0981378019986
1731107240.583112,811.8432532636918,808.2552140880181,804.038825735333,796.1296125660479
1731107240.5852933,810.6184096123562,808.4579876657725,804.6397493537619,797.4574050317417
1731107240.5890975,810.4816957086153,806.5802271774348,804.8232820769409,801.5801229905568
1731107240.5891871,810.9697116694749,803.9800659577854,805.0877092644934,807.5401806183771
1731107240.592821,810.841740541343,802.3581412591951,805.7934620982602,813.190141668035
1731107240.5930817,808.863477696274,802.5375590325989,806.911295242695,816.2627803509873
1731107240.5969756,804.6547214175016,803.9063466635305,808.1351702490024,815.6850265808342
1731107240.60087,798.9833088629885,804.9551319112368,809.1515329103568,812.2540387438497
1731107240.6020038,793.3427721244321,804.4587916569831,809.7750675779045,808.1260184013736
1731107240.6047275,789.2135640661407,802.3861065447156,809.9108722724993,805.4477405551495
1731107240.604764,787.5635324003299,799.9126755678903,809.5323892155021,805.1578020838102
1731107240.6086583,788.7811955864876,798.6222429112476,808.7823786333482,806.8126422079047
1731107240.6125524,792.7814579525958,799.5096553546009,808.049027099379,809.3731858834625
1731107240.6164467,798.9685650046,802.4194429816198,807.8096507809191,812.0956755823157
1731107240.6203408,806.0944937140853,806.1765162144417,808.2789010439927,814.7487938141415
1731107240.6203578,812.3653904654865,809.224679193601,809.1619330540278,817.1778052881971
1731107240.6208956,816.044570680283,810.3638785407234,809.7831079069724,818.8967034810057
1731107240.624235,816.3499960373151,809.2313401169463,809.5558886439218,819.2670909195426
1731107240.627768,814.0530769247233,806.371382919771,808.4651840551528,818.1200271918946
1731107240.6281292,811.2209913314977,802.9231192393074,807.1899925448184,816.147158749227
1731107240.632023,810.0673292387728,800.0827711864927,806.7224199850119,814.5426830380195
1731107240.6359177,811.5702853975048,798.5937884500748,807.6826782873578,814.0569497985243
1731107240.6359878,814.8367554092014,798.5320430931929,809.7696340834079,814.2140563535046
1731107240.6397874,817.7595263941729,799.4883266367241,811.7535489992117,813.4252833811657
1731107240.6398118,818.5515577259738,800.9628368260969,812.096957076822,810.0687525090838
1731107240.643706,817.0095223990652,802.6266895835848,809.8635239030892,803.808747347557
1731107240.6476002,814.5324080897097,804.2602508083057,805.3374521368801,796.1604171844808
1731107240.6514945,812.9174298513158,805.519260695064,799.9315609157767,789.8226131931207
1731107240.651618,812.9360633847599,805.8645581739019,795.4320912226057,787.1907416856095
1731107240.6553886,813.8144102114092,804.8255728014883,793.0663155509535,789.0134269395933
1731107240.658679,813.945866575602,802.4188602059511,792.9537277889258,794.0061536366821
1731107240.6592827,812.1911161566546,799.3588313319118,794.1969030649182,799.591236723216
1731107240.6627152,808.7625367200803,796.8419217068093,795.4703518865618,803.271083844178
1731107240.663177,805.108290850096,795.9974365322823,795.7548527185304,803.8273552492453
1731107240.667071,802.9576205783623,797.3080442486723,794.8761434897505,801.7052141027616
1731107240.667248,803.2096470911051,800.3034176492718,793.6108145141895,798.4749287908033
1731107240.6709654,805.3744820082336,803.6950091991837,793.259165709616,795.8140500448363
1731107240.6748598,807.8736630531199,805.9315957761584,794.8168351518298,794.6427508826729
1731107240.6775708,808.9560270070267,805.9451768397504,798.1848182229394,794.8030513833153
1731107240.678754,807.628695047784,803.7039219835181,801.9931636742158,795.3031319472602
1731107240.682648,804.0617509487454,800.2389577359336,804.3091241109737,794.9523650968963
1731107240.682878,799.3267840858167,797.1057061601341,803.8562365238583,793.1505277300473
1731107240.6865425,794.7461406587544,795.5895101165438,800.906166042438,790.4658200766701
1731107240.6904364,791.271099625943,796.1028934997302,797.1860453722637,788.5254019615927
1731107240.6943307,789.1701175416295,798.0710448395424,794.868015910185,789.0138444187636
1731107240.6964626,788.0930051622446,800.3191188374718,795.3589665637361,792.299423578664
1731107240.697662,787.418326951668,801.7436936106052,798.6605586904437,796.7891348306318
1731107240.6982248,786.6841896746074,801.9320801901689,803.5716756816024,799.7897155407179
1731107240.6985085,785.8536986503954,801.3928965643499,808.4421998881558,799.4352332511596
1731107240.702119,785.256060997153,801.225919249033,811.9572656025357,796.1583133622736
1731107240.7060132,785.2744893155707,802.3894166984678,813.5652403724883,792.3710439900967
1731107240.7099075,786.0421653202062,805.0297110531945,813.4603044928837,790.5149445758441
1731107240.7138016,787.3602574435688,808.3350752131537,812.2818486907025,791.1295371750742
1731107240.7141385,788.8122774933463,811.002034110777,810.7652119937399,792.6172165235835
1731107240.7153544,789.8929041553939,811.9608100839088,809.4731177821199,792.8540033383496
1731107240.717696,790.0750322811641,810.8807465408041,808.6183207266043,791.1604737344102
1731107240.72159,788.9431201467435,808.2264059203447,808.010631549237,788.9333714773552
1731107240.7254844,786.5123297839632,804.974541572104,807.2358558007955,788.5314188694451
1731107240.7293785,783.5790067295296,802.2403854977179,806.0615985275039,791.4900371409141
1731107240.7297685,781.7082329306774,800.968491011428,804.7748746886871,797.4960974385157
1731107240.7326093,782.5827971793769,801.6948815875963,804.0593843213755,804.6899796252551
1731107240.7332726,786.9243883757827,804.3508845075747,804.3905354583675,810.7762927508668
1731107240.734246,793.7058790553932,808.1673105790227,805.4733830401168,814.0694814382778
1731107240.737167,800.4202547317982,811.81577146306,806.3379143974179,814.0056319664089
1731107240.741061,804.5144188862904,813.852180136284,806.113604313724,811.1534706648537
1731107240.7449553,805.0973403661899,813.3213897307919,804.7918028485701,806.8886845066282
1731107240.7453983,803.5707973386603,810.2157578098006,803.2368242570831,802.8171959846788
1731107240.7488494,802.5297658967065,805.5147619816079,802.4257738713939,800.1006369201716
1731107240.7527435,803.7094226649656,800.7623834835146,802.6383427053794,799.0187413384099
1731107240.7531378,806.644506708813,797.4080776851824,803.3208405712573,799.0540034932028
1731107240.7566378,809.1533627815011,796.2613624266592,803.6684910992678,799.4070391809546
1731107240.760532,809.2002922406712,797.301429480396,803.3369502986875,799.5085986891223
1731107240.7610283,806.5340459851517,799.8313983231193,802.6741817012935,799.1700459696132
1731107240.7644262,802.7766204335254,802.7916398252994,802.3530648328401,798.4258249657634
1731107240.7675564,800.034152050931,805.0862626271362,802.7774496261616,797.4049399752003
1731107240.7683206,799.3220908069096,805.9181211860378,803.7610790630323,796.4178980782476
1731107240.7720296,800.1024826368406,805.1327284446495,804.7252799073418,796.0659603639361
1731107240.772215,801.1439739568443,803.3987755501832,805.2434402846834,797.0492159706672
1731107240.776109,801.7793749686017,801.9603737661816,805.4605870454661,799.6613031857952
1731107240.7766583,802.414728386914,801.9356688126093,805.9755387640243,803.3811929427428
1731107240.7800033,803.9264000265877,803.5772168837194,807.2228009689335,807.01748416028
1731107240.7838974,806.6051942190179,806.0873069673357,808.9006326609326,809.4210565910347
1731107240.7877915,809.6638618807772,808.2044896289433,810.045608518215,810.2502404824077
1731107240.7909214,811.7551778623972,809.1246067878045,809.7906581548029,810.1590322877898
1731107240.7916856,812.0309644566418,809.0132163757926,808.1598737963384,810.2349679331373
1731107240.7922888,810.843087357554,808.7235113607776,806.1564899454322,811.1631228766272
1731107240.79558,809.5453596338801,809.021565227339,805.0245611250378,812.8270493608297
1731107240.799474,809.5809988463147,809.9999883400357,805.3042110116863,814.6202007501912
1731107240.8025036,811.5180935475257,811.1224930075217,806.4618424531118,816.0599313535341
1731107240.8033683,814.6600736905489,811.7627269585867,807.3613402940047,817.081030852428
1731107240.8072624,817.4471699601386,811.7207255780896,807.1508351428183,817.8334566884301
1731107240.8079188,818.3694077096869,811.3044306898312,805.84833576527,818.3635615522388
1731107240.8098133,816.8054066983441,810.978627154929,804.2042927696316,818.5858166643112
1731107240.8111567,813.2674307777083,810.919300863793,803.0207686303055,818.4998329043045
1731107240.8150508,808.9537562959443,810.8347951706602,802.5270415959774,818.2877437083845
1731107240.8189452,805.0015710862426,810.1806981542785,802.3208770481708,818.1152678264095
1731107240.8228393,802.0134309806732,808.6031284540408,801.8692164803499,817.8613823121788
1731107240.8235488,800.1409246587273,806.2781545839192,801.0730314705794,817.0987242059529
1731107240.8267336,799.499211784647,803.881066078431,800.376153956632,815.3689953128983
1731107240.8287048,800.4108210852928,802.1960645748554,800.348038874175,812.5306138084926
1731107240.8306277,803.1765839498322,801.6623965352718,801.1560947086327,808.9702318404516
1731107240.834522,807.5493724603427,802.1890999692492,802.4070774668281,805.617416476715
1731107240.8374507,812.4116332355941,803.3163086887906,803.4559931721101,803.743559721942
1731107240.838416,816.0561145195973,804.5154024731377,803.8616962176202,804.5140449138795
1731107240.839179,817.0199036397105,805.3848893896477,803.6069776074229,808.4001119294031
1731107240.8423104,814.9592541304537,805.6986708108636,802.9885758513118,814.7892148766383
1731107240.8462043,810.9305152153871,805.4286655683529,802.3687138940936,822.1268402928978
1731107240.8475966,806.8018923249892,804.8091745648077,801.9940375161592,828.5349164479682
1731107240.8500986,804.1456378197657,804.340264633066,801.9213385718813,832.4458916097562
1731107240.8539927,803.3705564515877,804.5872988297034,802.0104240890026,832.8633436580017
1731107240.854809,803.6874248142353,805.8159550688589,802.0104514811474,829.3555996336348
1731107240.857887,803.8674680939803,807.7305434536213,801.7728299481674,822.1730686784247
1731107240.8617814,803.1705905633501,809.583410806204,801.46391813083,812.5452925619169
1731107240.8656754,801.741405012585,810.6242768267422,801.5350941299563,802.6828109645405
1731107240.8664885,800.2256133665826,810.5297253597303,802.3768220495435,795.0354700877605
1731107240.8695698,798.9821451208694,809.4594150689084,803.9159119704254,791.0460142211517
1731107240.8704393,797.5978067644197,807.7578502725779,805.5345536868826,790.2802123941838
1731107240.872398,795.1875869481229,805.6635258257431,806.4354404084196,790.7104966316706
1731107240.873464,791.2980671231292,803.3169743562016,806.193410239807,790.1007920680962
1731107240.8773582,786.6218755234036,800.9676958012125,805.0748469725322,787.5536855909528
1731107240.8812523,782.7611753136822,799.0347725377536,803.8872995377224,784.0714655373192
1731107240.8851466,781.0664134776814,797.8668835367123,803.4720984691469,781.6921179383024
1731107240.8853805,781.4899548683054,797.4464573660341,804.1968522474857,781.8885162535929
1731107240.8860693,782.5261679669496,797.4076472971227,805.7731348632885,784.5168812868258
1731107240.8890407,782.4109417762996,797.4111274955254,807.4679777199397,788.0981204187439
1731107240.892935,780.6053524660206,797.4941299162449,808.5137200516483,791.0482802515572
1731107240.8968291,778.2853551170487,797.9954374387448,808.4437146475993,792.7314168666962
1731107240.9007232,777.4068618900019,799.1052818617579,807.2056020318502,793.5426725949592
1731107240.9016993,779.1225866387048,800.522122745704,805.0847534978028,794.2079261402201
1731107240.9042718,782.8199622879637,801.6191047004605,802.5576807369523,795.1039476404449
1731107240.9046175,786.4936213049757,802.0012631910812,800.1576294967,796.1541598992029
1731107240.9073453,788.1358669064392,801.9165452964924,798.3570101022631,797.1649114165162
1731107240.9085116,787.1329463265597,802.09317725507,797.4497517352052,798.0991273815931
1731107240.912406,784.6932399180644,803.1031416241444,797.460243616105,799.0101630935402
1731107240.9163,783.0029883537175,804.8042659551141,798.141115591585,799.8020828755847
1731107240.9173293,783.6903140267136,806.3798386027024,799.0903408881755,800.149641881385
1731107240.9201944,786.7179086554106,806.9885575655186,799.9391480296197,799.7039713751057
1731107240.9231637,790.5725619203242,806.48990845226,800.5030268859172,798.4113108546583
1731107240.9240885,793.6399905795456,805.615817970184,800.8055820989274,796.6687870071836
1731107240.9279828,795.654180057249,805.4290037083399,800.981195859907,795.1701506333168
1731107240.931877,797.9630365166743,806.524973015905,801.1524373914177,794.5119809023524
1731107240.9329593,802.2957487120837,808.6278033873558,801.3702608641516,794.7936993132029
1731107240.9357712,809.0185699584117,810.8449776448056,801.6262723226813,795.4751634260252
1731107240.9396653,816.3829087599674,812.2892756741404,801.8928821470852,795.6272891852118
1731107240.9420557,821.4904162074248,812.5559491615633,802.151841460049,794.4692136900248
1731107240.9422922,822.2646771433729,811.7671068111692,802.400438459163,791.8698694082725
1731107240.9435596,818.8724325707685,810.2706928353757,802.6443778700149,788.4723723385129
1731107240.9474535,813.5069283404255,808.3013813301195,802.8894366963586,785.3384019232681
1731107240.9485896,808.8066730590181,805.8834876287709,803.1378243437345,783.3624385561775
1731107240.951348,806.2511908314461,803.0430721337144,803.3888444872358,782.8838030727222
1731107240.9552422,805.7478678327927,800.1256331569845,803.6409941020195,783.741794701681
1731107240.9591362,806.4673817518068,797.8778955255682,803.8933692255192,785.6223184635915
1731107240.9609473,807.8927572422207,797.1056987044411,804.1458945674937,788.3196211921363
1731107240.9630306,810.0308611623053,798.0958522648565,804.3989042415458,791.705667385532
1731107240.9642196,812.7482463871353,800.2712212269092,804.6527056761186,795.5551645397933
1731107240.966925,815.1684937339028,802.4402419830011,804.9074087889835,799.5116358364976
1731107240.970819,816.0002996022068,803.532836293979,805.162975705066,803.2651853663725
1731107240.974713,814.643930240882,803.2653718550406,805.4193337860903,806.7210141327929
1731107240.9772391,812.0196657958647,802.1921428951517,805.6764449503108,809.9178911267945
1731107240.9786074,810.2000346728058,801.1459731756315,805.9343132962305,812.7410121553129
1731107240.979839,810.971500131168,800.6211360729848,806.1929628872864,814.7595585833949
1731107240.9798496,814.422657380713,800.6003368178604,806.4524183433289,815.4745476828216
1731107240.9825015,818.710826877148,800.7992533722188,806.7126986796828,814.8592784485921
1731107240.9863958,821.2729510710216,800.9705752934603,806.9738164451992,813.6731806038657
1731107240.99029,820.6282071388667,801.0290178345113,807.2357719181524,813.1001819192961
1731107240.9941845,817.4353496780263,801.009491899358,807.4985441414857,813.8749204784194
1731107240.9954798,814.0144296904838,800.9758671771893,807.7620955102379,815.6525665289196
1731107240.9980783,812.7125408045962,800.96426178162,808.0264075936653,817.2571994908257
1731107240.998731,814.3493136488307,800.9762019659681,808.2915392914048,817.6241029025263
1731107241.001973,817.8407533874687,800.9973596711347,808.5576510641066,816.5757268408681
1731107241.0058668,821.1380095472642,801.0155334566459,808.8249131750199,814.7821834467974
1731107241.0097609,822.6512736734633,801.0270552577409,809.0932765628506,813.1011360035055
1731107241.0111098,822.0942996253598,801.0342146216351,809.3622572586787,812.0170109437096
1731107241.0121863,820.2674740983234,801.0404299991918,809.6310661353372,811.5975160331221
1731107241.0136552,818.1523664294223,801.0474683355327,809.8993537847441,811.7390394978039
1731107241.0175493,816.138367979478,801.0552822185291,810.1683037450877,812.2725612351418
1731107241.0176225,813.9602673127479,801.063073823686,810.4409468333097,812.8752500579552
1731107241.0214436,811.2690546119392,801.0702213346138,810.720206176238,813.0930882656975
1731107241.0253377,808.238902056826,801.0765673348965,811.004504093599,812.6456119354602
1731107241.0267398,805.6257233532816,801.0822527264608,811.2840814903426,811.7593747884292
1731107241.029232,804.2013444729023,801.0874591406528,811.544321394542,811.122866899422
1731107241.033126,804.0633298044983,801.0922731702622,811.7805240805305,811.3818148787284
1731107241.0365143,804.4688996172525,801.0966880289785,812.0178080076554,812.5589268145387
1731107241.0370204,804.4126058039494,801.1006632088034,812.3138887586983,813.918191382833
1731107241.0409143,803.5135514143102,801.1041711814993,812.7176217724777,814.4603748666675
1731107241.04237,802.4687410803098,801.1072082901977,813.1837818784945,813.6993496054412
1731107241.0448089,802.6503179302122,801.109782872972,813.5064888448236,812.0834426243991
1731107241.0471334,805.114734946486,801.1119024173436,813.3822657015725,810.6899841759873
1731107241.048703,809.7672313399436,801.1135722648054,812.6506414286081,810.4578266768008
1731107241.0525973,815.2921974348984,801.1148042166271,811.5457008090946,811.6326978999755
1731107241.055406,819.8591650312768,801.115622577002,810.6383514016217,813.8443799239482
1731107241.0564914,822.0725891634113,801.1160530124035,810.3786949071591,816.5833884436414
1731107241.058,821.5656697468755,801.1160912860565,810.6245813877641,819.5237186087667
1731107241.0603857,818.9890789803594,801.1156746083963,810.6599195188675,822.4557153992042
1731107241.0642798,815.5371453860058,801.1147023515291,809.7430042602514,825.0742307146943
1731107241.068174,812.3248258234729,801.1131410899121,807.7035875223883,826.9203709074683
1731107241.0720682,809.9168163809662,801.1111720951945,805.0894067420438,827.469587063242
1731107241.07363,808.2281154479325,801.1092225239001,802.8025760294934,826.2204855569694
1731107241.0742977,806.8411359926685,801.1076805804082,801.5756888107528,822.8185319017289
1731107241.0759623,805.5047735272707,801.106289718231,801.6627760703249,817.3363481223444
1731107241.0798566,804.3997576952452,801.1036770071111,802.8480718936139,810.5677679563895
1731107241.0820806,803.9248678443877,801.0978794872666,804.6325248038977,803.9397870465012
1731107241.0837507,804.1988467127661,801.088427717874,806.4314813381274,798.8717394457656
1731107241.0876453,804.755805741932,801.0790249600094,807.7278436268039,795.9584862240364
1731107241.0892603,804.7348645840874,801.0777225414832,808.1992722291241,794.6069256910519
1731107241.0915391,803.4139989209755,801.0910309917342,807.8110715134794,793.4296753685106
1731107241.0931897,800.6692786223582,801.1125321648116,806.814145528529,791.1410124791026
1731107241.0954337,797.0636262449171,801.1154030319743,805.6071385783932,787.383631031498
1731107241.0993276,793.5761244608378,801.0653722349837,804.5176997451332,782.9817324072468
1731107241.103222,791.1694052030792,800.9638067971481,803.6421342392472,779.4555819785058
1731107241.1048903,790.3986824394143,800.9026542943767,802.8664965392154,778.084107877005
1731107241.107116,791.2172464904638,801.0806077139606,802.0636282684842,779.1184931080843
1731107241.1110103,793.0691179932539,801.7319140653209,801.3030757012149,781.655549054718
1731107241.1120813,795.2141028821547,802.970716277231,800.8630814412252,784.2016256681558
1731107241.1149044,797.0647671841782,804.6276745710624,800.9855079906876,785.5174569150105
1731107241.1170278,798.3299063676927,806.2162327076715,801.5776348856018,785.2903291989176
1731107241.1187985,798.9784984398816,807.1463568294961,802.1810099886405,784.4029657721946
1731107241.1205204,799.1856338047738,807.1249179880748,802.3110420036893,784.6933662644492
1731107241.1226928,799.2955100796307,806.4396725439655,801.8786132622151,788.1113820024868
1731107241.126587,799.6545120835289,805.8093483581761,801.2590879471405,795.4327674444146
1731107241.1304812,800.2879638693491,805.8290675617267,800.9020798637108,805.2538566688686
1731107241.130973,800.7347508182763,806.4556410180716,800.8712109726544,814.2420768748322
1731107241.134375,800.3931440315864,807.0036516391663,800.8063360646696,818.9097963036912
1731107241.1361504,799.2241090902796,806.6755821470629,800.354370072693,817.8479911913173
1731107241.1382697,798.1129478443796,805.1660591361492,799.5990283921114,812.6783599803363
1731107241.1421638,798.3416850170084,802.8494043519945,799.016008910271,806.8409349279966
1731107241.146058,800.4839047392148,800.4756105005692,798.994487379891,803.1120289445829
1731107241.149865,803.7358909829525,798.7094754514603,799.4286653112084,801.8353222634968
1731107241.1499522,806.4236752976769,797.8777942354238,799.8018392732138,801.2439425539217
1731107241.1517806,807.34161224376,798.0004300882272,799.6685444786967,799.4953938866323
1731107241.151975,806.7207312827388,798.9164042033713,799.038052171187,796.633451864408
1731107241.1538465,805.8689562549145,800.3215999241986,798.2745443810445,794.7613939557241
1731107241.1577406,805.7207557676464,801.7488476761071,797.6280111215614,796.1889722133257
1731107241.1616347,805.6162669540679,802.6728762619063,796.9000378838518,801.0473075561259
1731107241.165529,803.5555410783562,802.8111137303825,795.6435531891169,806.4416638711053
1731107241.1674106,797.8896377860823,802.4090276025748,793.7721845573124,808.061139713196
1731107241.1687565,789.02511491881,802.174339927255,791.9989886849743,803.1618468845323
1731107241.169423,779.5744919275475,802.7807690051562,791.5999038143841,792.6749625689791
1731107241.1733174,772.7324027869903,804.3095662439655,793.5883117848119,780.8526851247171
1731107241.1772115,770.2556172228785,806.1540846056995,797.9546369615532,772.7450334254095
1731107241.181106,771.7004179281166,807.5235096531101,803.6029732010848,771.3250748598876
1731107241.1830406,775.278713257648,808.0850705827788,809.008623243798,776.135089545839
1731107241.185,779.2426532683492,808.1224151759095,813.0314526391321,784.0774848138535
1731107241.186922,782.5918138857203,808.0894911992763,815.3090050202578,791.5133705497769
1731107241.1876483,784.9668865290361,808.0918036863274,816.1273391289424,796.1792198545106
1731107241.1888945,786.3611326270044,807.8998921657222,816.0617331569213,797.846890459538
1731107241.1927884,787.0010394576383,807.4761488413758,815.6686884040031,797.6703277707583
1731107241.1966827,787.2485843058458,807.3545092925816,815.3073222206166,797.0146019213603
1731107241.1986709,787.4257035585175,808.302888496223,815.0844254546447,796.664493007648
1731107241.2005768,787.6899917523835,810.4825256187594,814.9267135169908,796.7342775166604
1731107241.204471,788.0475306948263,812.9574635679376,814.7254530766174,797.0011808498168
1731107241.20654,788.4412322439898,814.1679438205282,814.437660748125,797.2441156279898
1731107241.2083652,788.8244319178556,813.0690958910399,814.0891607163894,797.383288545474
1731107241.2122595,789.1847574276901,809.983356908544,813.7255871490254,797.4503171930168
1731107241.2143009,789.5325549038249,806.4582935246204,813.3746341090305,797.5052511669844
1731107241.2161536,789.8815873538414,804.2633486352205,813.0396377223193,797.5829713337624
1731107241.220048,790.238560985758,804.2920933101467,812.7115818131506,797.6858224217704
1731107241.221869,790.6030192348582,806.1048239800905,812.3818284052538,797.8007583763607
1731107241.223942,790.9717686979636,808.3371376263935,812.0473053263493,797.9163229850047
1731107241.225432,791.3424905623316,809.6520664680302,811.7092428082161,798.0289535603695
1731107241.2278364,791.714746371131,809.6125606835501,811.3699372670839,798.1407579225391
1731107241.2299309,792.0892356707512,808.9040975485162,811.0306926480624,798.2550157987157
1731107241.2317305,792.4667661939436,808.7474450013914,810.6915553477219,798.3735130972357
1731107241.2356246,792.8477439478771,809.9179161568421,810.3519860549702,798.4963296394608
1731107241.239519,793.2322053561335,812.1127142598517,810.0115146367151,798.6228140619055
1731107241.243413,793.6200622716865,814.1578588110069,809.669978585802,798.7524598134349
1731107241.2443235,794.011285353894,814.8826192862286,809.327433502294,798.885191252337
1731107241.2455611,794.405946325962,813.9739497662258,808.9839785514858,799.0212173850196
1731107241.2473073,794.8041731248192,812.172780434385,808.6396544457016,799.1607911156359
1731107241.2512014,795.2060955968186,810.6954829786126,808.2944363537958,799.3040782853618
1731107241.2550955,795.6118210407516,810.3262582555913,807.9482720559331,799.4511557246823
1731107241.256816,796.0214378472688,810.845313579008,807.601115717039,799.602065971495
1731107241.2589898,796.4350288964724,811.2088520722093,807.2529386799886,799.7568621084515
1731107241.2611911,796.852680662292,810.34633308515,806.9037236356343,799.9156202041719
1731107241.262884,797.2744846002231,807.9721037474523,806.5534552891213,800.0784298622362
1731107241.2632153,797.7005342102045,804.7935611762604,806.2021153693739,800.2453811573162
1731107241.2667782,798.1309221656895,801.979311154266,805.8496826754156,800.4165583733381
1731107241.2706726,798.565739689119,800.3435997877498,805.4961353326479,800.5920411332951
1731107241.274567,799.0050777947641,799.8995718184465,805.1414526244815,800.7719085359084
1731107241.2768211,799.4490284544521,800.0743946018923,804.7856154086214,800.9562416533091
1731107241.278461,799.8976835426118,800.3118138238548,804.4286054353124,801.1451218096979
1731107241.282107,800.3511309167009,800.5174951824876,804.0704044133311,801.3386252104779
1731107241.2823553,800.8094502208995,801.009007441111,803.7109937172062,801.5368183921834
1731107241.2862492,801.2727142932088,802.0697751482935,803.3503553621564,801.7397617726435
1731107241.2901435,801.741001306608,803.5096517215469,802.9884740620779,801.9475258382117
1731107241.2917633,802.2144138844883,804.6177584867062,802.6253387514579,802.1602124789096
1731107241.2924514,802.6930864035196,804.5995471599236,802.260940806967,802.3779570946588
1731107241.2940376,803.177154066603,803.2152989449472,801.895267349356,802.600882998623
1731107241.297932,803.6666779127344,801.1401617002202,801.528292924796,802.8290112199314
1731107241.3009987,804.1615762384758,799.7221005991312,801.1599795220134,803.062197637736
1731107241.301826,804.6616705120822,800.2441509623955,800.7902959469677,803.300224968682
1731107241.3057203,805.1669307775395,803.1718085527125,800.4192540696134,803.5431211556562
1731107241.3080814,805.6778282980231,807.8765259496387,800.0469316528156,803.7915415191535
1731107241.3096144,806.1954249304795,812.9717943383005,799.6734308079556,804.0467436249684
1731107241.3135087,806.7207199576487,816.9817678121465,799.2987471051746,804.3096510457198
1731107241.3174028,807.2532187858965,818.906956457612,798.9226211142874,804.5791583337485
1731107241.3198907,807.7897719414045,818.4336278664999,798.5445649003955,804.8511346459533
1731107241.3212972,808.3257308593137,815.8488427803092,798.1642570537617,805.1205012649536
1731107241.3237114,808.8598144508228,811.8816126648344,797.7822208838785,805.3874408755497
1731107241.3251913,809.4005372739902,807.5820622878689,797.4001755184986,805.664194283542
1731107241.3267105,809.966935252853,804.1464813440557,797.0201155882363,805.9733472517204
1731107241.3290856,810.5749974464813,802.5647950355172,796.6417706738874,806.328820969086
1731107241.3329797,811.2106527901476,803.1700624720916,796.259988060543,806.704292298878
1731107241.336874,811.8110112002963,805.3826897952747,795.8657406758949,807.0183882318237
1731107241.3387823,812.2928959904535,807.9032192729211,795.454100645582,807.1807735048609
1731107241.3393416,812.6524390951511,809.3130750473958,795.0368174474273,807.2139715262232
1731107241.340768,813.0929636280321,808.7490800312896,794.6472931527917,807.3775539009009
1731107241.3446622,814.0565811641643,806.2687162116838,794.3205417347009,808.1273444693841
1731107241.3485565,816.0398849782471,802.7314789623312,794.0437886691382,809.7809619771732
1731107241.3524506,819.2281434040153,799.3085395118802,793.7096780105664,812.0341599055696
1731107241.3549716,823.1714695726475,796.9101955181316,793.1371765066917,813.7857199292312
1731107241.3563447,826.7582978633346,795.816721227723,792.1985557746376,813.6450946886052
1731107241.357674,828.5918599578558,795.6628534903078,790.9941165137208,810.9337161324192
1731107241.360239,827.6608596840551,795.7521963919495,789.945968831903,806.4759770957564
1731107241.3616576,823.9849612368089,795.5267078421716,789.7220134950004,802.5148637963571
1731107241.3641334,818.8011634092959,794.9241058365509,790.9919723608806,801.6244264524051
1731107241.3680274,814.0374250641437,794.3824682478962,794.0746079611791,805.1384578308171
1731107241.3706017,811.316366153286,794.4489542917415,798.595098886906,812.028451710039
1731107241.3719218,811.1518083447455,795.2463299848506,803.3694151127515,819.0983051445121
1731107241.375816,812.8788879282473,796.2216925659219,806.7397022273557,822.6835687504199
1731107241.376566,815.2453328631312,796.4448951916147,807.3403056547935,820.9763336652904
1731107241.3797102,817.0955639776325,795.2972936903556,804.8839569490887,815.3879175499162
1731107241.3836043,817.6981342846774,793.0317501164988,800.4031401321533,809.793076181675
1731107241.3862317,816.7849549683772,790.7312835806374,795.7101330981586,808.0041462722097
1731107241.3874986,814.6159975363324,789.6506053991261,792.4170724594459,811.2406270670016
1731107241.3913927,812.0850158109968,790.4163253246642,791.171818773011,817.4122262335137
1731107241.3952868,810.5227029304732,792.6659360694728,791.5616630883756,822.6310506662169
1731107241.3954575,811.0146082644687,795.3490168722578,792.6409328769021,823.749196476429
1731107241.3966048,813.6205555207946,797.4202533285298,793.6567751211599,820.1963584967489
1731107241.3991811,817.1875367718433,798.4171693086467,794.4887670150629,814.1337292717482
1731107241.401862,820.0771759015605,798.564298718159,795.5434839602187,809.08278578846
1731107241.4030752,821.369728018188,798.4097586755807,797.215612031673,807.9178172577543
1731107241.4069695,821.6157586275693,798.3135521848727,799.3516385051937,811.2785937647797
1731107241.4108636,822.435318453115,798.1847105698988,801.1891559085713,817.2288318302835
1731107241.4143493,825.1263574212744,797.6651471818094,801.882485204759,822.4000008693795
1731107241.414758,829.321569238319,796.6042102168691,801.2079121694168,824.0185327678593
1731107241.417492,832.862061721153,795.4148840665373,799.8420168907776,821.5878522147455
1731107241.418652,833.1822874044003,794.9718735631595,798.9461660902972,817.1437226459957
1731107241.4225464,829.2523783031008,796.0758129590894,799.3669245857933,813.9345118261972
1731107241.4264405,822.5757927901592,798.8715598814466,801.0554299918198,814.4196077111261
1731107241.4303348,816.426445576758,802.6613027549168,803.1077791182406,818.8535298033349
1731107241.431552,813.8682881348448,806.2551192885518,804.371187546841,825.2375435895319
1731107241.433122,815.9810474691038,808.612584648339,804.2100232702686,830.5342837861491
1731107241.4332411,821.4538725974982,809.3534653818441,802.95069749503,832.3571684175425
1731107241.434229,827.6498731128762,808.8385340094292,801.7085891137259,830.1663915505945
1731107241.4381232,832.2746283106626,807.8039316665219,801.6759635810561,825.3336296924411
1731107241.4420173,834.5217193824218,806.7977602550562,803.3553665662487,820.1368682801473
1731107241.4459116,835.0475356882349,805.8030211065787,806.3337673182075,816.4498456060201
1731107241.4487522,834.9649771620052,804.348499109267,809.7795116871141,815.0342655693323
1731107241.4498055,834.7130929662895,802.0780292632564,813.177171665629,815.7023441602581
1731107241.4521327,833.705682282279,799.3430935664097,816.5645893710852,817.7923580501015
1731107241.4536998,831.0059749233883,797.2629559377949,820.0504794828582,820.3072378338957
1731107241.4575942,826.3940238682914,797.0706286203598,823.1848443079729,821.7982262171996
1731107241.4614882,820.8435645327295,799.1841497544336,824.958159977733,820.6701650212095
1731107241.4643822,815.961735151935,802.7557787387464,824.5518786294869,816.2028831042938
1731107241.4653826,812.9006562880819,806.1245340288301,822.1393912279369,809.6033133372107
1731107241.466499,811.7200556005341,807.8769499588475,818.9311094253819,803.9832783578271
1731107241.469277,811.7167546549688,807.7250343651873,816.3719453220137,802.8632673092167
1731107241.4710248,812.3027627325592,806.5610104609378,815.1800419865871,808.0154662007908
1731107241.473171,813.5168148361028,805.7028144982349,815.0105960758978,818.1024699583932
1731107241.477065,815.6693373685396,805.9504661436108,814.9323815479842,829.1229171273375
1731107241.4800122,818.5424861060843,807.157004820288,814.2353727806227,836.4954925022482
1731107241.4809594,821.0730163159199,808.5482944574486,812.909809830155,837.5252268370934
1731107241.4848535,821.9873096965323,809.4116384316924,811.4980818706978,832.7163782971454
1731107241.4887478,820.8671301356803,809.5454155994021,810.5434712735162,825.1278822285415
1731107241.4899166,818.6215332287296,809.2001657042256,810.1296751519199,818.2780900729273
1731107241.492642,816.8500278812094,808.73791727531,809.8661323798596,814.1112275804696
1731107241.4956424,816.5908356218681,808.3727311224343,809.2806823689543,812.4389875495975
1731107241.4965365,817.4983232397177,808.1311773759782,808.2574776698419,812.0427103677293
1731107241.5004303,818.1287366621368,807.9458479878153,807.1563853768334,812.2402770309583
1731107241.501446,817.0845883568218,807.7521097818927,806.5430666228214,813.4234031843908
1731107241.5043244,814.0520436984692,807.5272549510125,806.766423316164,816.1506202186647
1731107241.5082188,809.8620711980781,807.280904368095,807.6897459507006,819.8079523716427
1731107241.508808,805.5662725339071,807.0306086624233,808.7263811352877,822.2639887585821
1731107241.5112724,801.4139052241147,806.786382268984,809.1419304551501,821.0165288552863
1731107241.5121129,796.7209433503265,806.5487569832752,808.4727835382866,814.9897205116558
1731107241.5160072,790.7909565798018,806.3138680195864,806.8459022243447,805.5773324927839
1731107241.5199013,784.0252913655744,806.0783866097178,804.9764549520515,796.105173315783
1731107241.5237956,778.1227095734525,805.8413051646037,803.7706274316913,790.0290813452579
1731107241.5269024,775.0782010587642,805.6032543203975,803.7581803425259,789.0240797848678
1731107241.5276897,775.7879705996636,805.3651858312373,804.7717752652953,792.1454987167737
1731107241.5277,779.399020105243,805.1276057612703,806.131473588715,796.5290327227327
1731107241.531584,783.8369074467837,804.890523316051,807.1743428852219,799.1383703484574
1731107241.535478,786.96819647433,804.6537394584011,807.6775406944062,798.4573671932033
1731107241.5363932,787.5346315533344,804.4171016779557,807.8432592843411,795.1245025209842
1731107241.5393724,785.4589799204317,804.1805853478801,807.9315134101993,791.2336657096873
1731107241.5425327,781.6966573898292,803.9442492754099,807.9407174941111,788.8667627475846
1731107241.5432663,777.8919119242314,803.7081633734706,807.6462910188988,788.8181624456698
1731107241.5465918,775.8274963598773,803.4723675878927,806.9123570256289,790.2374030251876
1731107241.5471609,776.6261121499083,803.2368699220079,805.9063111937148,791.3146932099002
1731107241.551055,780.0658447029248,803.0016670354463,804.9794944399571,790.5488187048722
1731107241.5549493,784.6502110802373,802.7667701586214,804.3752358810995,787.8153397659589
1731107241.5581627,788.6107369292145,802.532222426454,804.1168785935217,784.5198167903575
1731107241.5588434,791.0990085951563,802.2980919207496,804.1784811439483,782.6373604515628
1731107241.5627377,792.4936732557734,802.0644279128069,804.6620903668304,783.2393234779049
1731107241.5654836,793.5534130845374,801.8311938465172,805.6881394981687,785.6407464695669
1731107241.5666318,794.3210026956008,801.598238482236,807.0925297354014,787.9634035101959
1731107241.570526,793.9419020441833,801.365394154396,808.3323168492403,788.756124220088
1731107241.5713403,791.5955482624125,801.1327272162314,808.8179122492152,788.3041669465937
1731107241.5737927,787.572260970883,800.9007794535263,808.3968427801503,788.4289826363803
1731107241.5744202,783.3686978968873,800.6704386218745,807.4904017278612,790.8960094787428
1731107241.5783143,780.6433558955418,800.4421347688523,806.7131091403331,795.7978811880785
1731107241.5822086,779.9689871938969,800.2146361744446,806.3339456247826,801.2678677368485
1731107241.5843754,780.486873551502,799.9846639062088,806.0910519808043,804.6676155541609
1731107241.5861027,780.7189545158725,799.7489712879991,805.5039776272141,804.2098524127852
1731107241.5894227,779.7937081148452,799.5091359280759,804.3588222208875,799.8706445555588
1731107241.5899973,778.0887835662913,799.2756990056183,802.9427010777468,793.251650774296
1731107241.5938911,776.8824515184438,799.0647764131002,801.89122560707,786.8054727583126
1731107241.5977857,777.3886762193732,798.8821054694098,801.8265863922776,782.9602044346395
1731107241.6016796,779.8810234567782,798.7011241261588,803.0401111349596,783.4037118551586
1731107241.603267,783.4069309821032,798.4592569516379,805.3681903019201,788.5565175903698
1731107241.6050527,786.2096859660167,798.1026488935769,808.2868188603321,797.2281537422697
1731107241.605574,786.6887975017983,797.6807081901395,811.1511174094245,806.5888371396995
1731107241.6062877,784.5066388862547,797.4256263718574,813.4279045384787,812.7811766703776
1731107241.609468,781.2163232643443,797.7014400900786,814.780497111695,812.4007784931425
1731107241.6133623,779.7671090950719,798.7702302412379,815.0041088464172,804.3992524920606
1731107241.6172564,782.7978836317541,800.518638592336,813.9555232175113,791.1504726479525
1731107241.620683,790.6449220534989,802.4227880661508,811.6069281223263,777.5318192954121
1731107241.6211505,800.6206848614258,803.8704345216114,808.190258640307,768.2892205359612
1731107241.6221588,808.475994257162,804.6085835773281,804.2689433475442,765.5071035607227
1731107241.6250448,811.2272046724313,804.9288292210161,800.6216793140164,768.0360678603099
1731107241.628939,809.1772117065632,805.4177454137239,797.9921168229257,773.0573615639493
1731107241.6328332,805.4218340363478,806.4670309326834,796.8637322246891,778.2142035023426
1731107241.636313,803.2235757393427,807.9313021765985,797.3569656035927,782.5745175168657
1731107241.636727,803.4890298158816,809.1944844064487,799.2158512307866,786.0591026218851
1731107241.6406217,804.4480313815025,809.5767464469997,801.8321060034884,788.3838440436278
1731107241.6410506,803.6343977325434,808.7668651082423,804.3581163410686,788.764774119743
1731107241.6412346,800.2783663915817,806.994424491869,805.9958228429417,786.6784553167018
1731107241.6445158,795.9908047089889,804.8808648329635,806.3859839086982,782.868761318191
1731107241.64841,793.2217879360406,803.0982607910416,805.8184879225162,779.4882480657535
1731107241.6519432,792.9342607876006,802.0178930579514,805.0301479730902,778.9674828345667
1731107241.6523042,793.6008757931804,801.5162400620306,804.6930978569316,782.3381736206436
1731107241.6561985,792.4912824463406,801.0687087276925,804.9977992799825,788.3426779832852
1731107241.6599424,788.2128242083368,800.1409064197668,805.656963270473,794.1517517330713
1731107241.6600926,782.2838636686864,798.6743567858817,806.2608947571221,797.2376592750501
1731107241.6639867,778.2540795510929,797.3154906446024,806.6139763716418,796.9973482567384
1731107241.6675732,779.0143612880071,797.1395011248267,806.7682802007657,794.9327338471376
1731107241.667881,784.5745750129596,798.9640126967739,806.8093266508241,793.3716564517672
1731107241.671775,792.1710284921015,802.6898609164155,806.6783762292921,793.8168393857993
1731107241.6756694,798.4748410065031,807.165127756413,806.2357884235037,796.1452003998136
1731107241.6761818,801.910975828825,810.752553031934,805.492877547036,799.0598324347501
1731107241.678834,803.2387070502916,812.2779694346265,804.7453634966101,801.2215066743316
1731107241.6795635,804.2286634310137,811.7042296233237,804.4285375495024,802.1378682503932
1731107241.6832032,805.8289501272707,810.016956684737,804.8098118878642,802.2769064946032
1731107241.683458,807.4006704648949,808.4295236369214,805.8274928427081,802.5173890906898
1731107241.687352,807.5232159841212,807.6033190628962,807.2384749776968,803.449540378298
1731107241.6912465,805.5446401689414,807.4790492121219,808.8911219526431,805.0256667649396
1731107241.6951404,802.5006548756736,807.6462605719303,810.792389411783,806.7326121590411
1731107241.6977258,800.5958182930398,807.7643609483976,812.8794144306779,808.047611554299
1731107241.6988337,801.6385326887652,807.7240072709454,814.7619082987746,808.7546716084685
1731107241.6990347,805.6822121128617,807.5798076017173,815.7554332217923,808.9131748510756
1731107241.7029288,810.9540375102464,807.4214965067521,815.2215216453137,808.6528498689534
1731107241.706823,815.0998304715029,807.2974415811647,812.9290177006052,808.0754244894714
1731107241.7107172,816.7249364658037,807.2078805873559,809.1754685850219,807.294845876694
1731107241.711129,816.0446148221272,807.1321746839278,804.6687950978085,806.4511866100297
1731107241.7144637,814.2780101681362,807.0535949088361,800.3256602158308,805.6664988141694
1731107241.7146115,812.4693244215041,806.9675418551602,797.0555114108687,805.0977586551624
1731107241.7166176,810.7848226520863,806.8775024299699,795.4844933847729,805.103486356965
1731107241.7185056,808.778107217344,806.7882600597819,795.6634787410306,806.2323732673888
1731107241.7224,806.2222822707568,806.7021661139381,796.9894359800323,808.7787529804879
1731107241.726294,803.6634384236418,806.6190564425932,798.5259827482732,812.1481687250365
1731107241.7300937,802.1551814881811,806.5377865512223,799.569033666174,814.6999315818496
1731107241.730188,802.3569352323333,806.4575033127177,800.0191158987515,814.5034332543936
1731107241.7340825,803.7320193820842,806.3780093915419,800.254459202139,810.6521710719787
1731107241.7355094,804.570515914372,806.2995109104738,800.6496479146992,804.1524914774626
1731107241.7379766,802.991197880986,806.2222580852124,801.1921896086661,797.586382456828
1731107241.7418709,798.3176337184401,806.1463629926261,801.5203763855405,793.6584616970011
1731107241.7457235,791.8249402217825,806.0718037745081,801.3058369328116,793.6267345006552
1731107241.745765,786.1979554326034,805.9985029350255,800.6213981581438,796.7271021308422
1731107241.746076,783.9739748211776,805.9263904588424,799.9813191621236,800.9298752392128
1731107241.7496593,786.0503585023572,805.8554324577054,800.0205302439595,804.3537734240475
1731107241.7535534,791.2975809837075,805.7856442079943,801.0465384403041,806.2389130905146
1731107241.7544012,797.418226638836,805.717093635019,802.7713942514671,806.8578484251132
1731107241.7574475,802.2384910788345,805.6498686427756,804.3971186673404,806.6783175591963
1731107241.7613418,804.4837702354124,805.5839810364746,805.004964303768,805.6796714546994
1731107241.7613535,803.8075663284757,805.51924484089,804.0311995830165,803.4772471699871
1731107241.765236,800.5690965419024,805.4552691601141,801.578371937042,800.0654574518137
1731107241.7691302,795.8186699900002,805.3917332969133,798.4060284173963,796.3469714842391
1731107241.7730246,791.3272038908553,805.3289241581703,795.6113795759945,793.8130279859218
1731107241.7732928,789.1537971602331,805.2681047977458,794.167308372937,793.5902040459481
1731107241.7769186,790.6603070029876,805.2109536970814,794.5494155478203,795.6874839012627
1731107241.7769835,795.5800422570053,805.1576557717727,796.6146651850981,799.0457593178235
1731107241.7808127,801.9169416038995,805.10463083793,799.740127621333,802.2474990434343
1731107241.781023,806.8918507581117,805.044720810283,803.1078727752157,804.2954596184329
1731107241.7847073,808.4081969222614,804.9728259138628,806.008900717681,805.0054141643515
1731107241.7886012,806.1865365637778,804.8960267337909,808.0897590856276,804.8987730471374
1731107241.7921846,801.9311194341952,804.8394332446547,809.4761258485973,804.693469087393
1731107241.7924955,798.3923312528847,804.8336044680183,810.672092533565,804.6667872095687
1731107241.792614,797.7540096253638,804.8774246367667,812.1769220019397,804.366766905677
1731107241.7963896,800.2477877055396,804.8979837056033,813.9650960730313,803.0533186920716
1731107241.800284,803.9666203796627,804.7622373757642,815.2075953591036,800.6252277167315
1731107241.804178,806.1890035559401,804.3934991893036,814.5940746864005,798.1384936961416
1731107241.8080723,805.3694753032426,803.9665306523545,811.2132830017676,797.201309372656
1731107241.808244,802.2604493169512,804.0143391202419,805.4105778596294,798.6008778096627
1731107241.8110764,799.2264972347192,805.2126031439639,798.881701890288,801.4125385394907
1731107241.8119664,798.3298513704592,807.8059947310985,793.776118396902,803.5297939186564
1731107241.8158607,799.8291611837768,811.070277428994,791.4249996269796,803.2755263374086
1731107241.8159702,802.3289122506924,813.4145390615284,791.695445198303,800.767581449537
1731107241.8197548,804.3250736433298,813.2958041410945,793.4586903458006,797.9188559699874
1731107241.8236492,805.6783467173929,810.3339456910296,795.6781380851095,797.0759494533876
1731107241.823874,807.6541304587819,805.7065429585252,798.112349488333,799.3376719776595
1731107241.8275433,811.4534635601659,801.4609258828945,801.0802869211476,803.779865643245
1731107241.8299682,816.5194909777348,799.2737621147428,804.677694488962,808.1130367646751
1731107241.8314376,820.2141365651164,799.5696340851669,808.3158689384976,810.2629359701566
1731107241.8353317,819.4206052686711,801.5142548802478,811.0319271673688,809.7079530604374
1731107241.8392258,813.0053663237878,803.7109193579826,812.1902392232898,807.6036628803158
1731107241.8395042,803.1831634000449,805.0497004425055,811.8453666743602,805.668561263388
1731107241.84312,794.5088420106042,805.2220132360358,810.487188147526,804.7799970240569
1731107241.8470142,791.0374345062392,804.6897514563731,808.5686371815183,804.4239140335745
1731107241.8488598,793.6853808131433,804.20403154937,806.3537558394999,803.3915188546354
1731107241.8509085,799.7312291198101,804.2310716173714,804.1401811942047,801.0833649748646
1731107241.850917,804.7819077141684,804.7054908563338,802.4448802676757,798.3196382318033
1731107241.8548026,805.7219147269578,805.244912843429,801.826406600932,796.9605323091442
1731107241.8551342,802.5592875707162,805.5401786075067,802.4799241795067,798.5416990018393
1731107241.8586967,798.0320164953556,805.5462560368967,804.0168218941146,802.9002027277639
1731107241.862591,795.4882659841619,805.3987343332674,805.6580834905648,807.8970516676069
1731107241.8664854,796.644712274216,805.2435719260615,806.6774118030662,810.648706647769
1731107241.8677516,800.6804035570559,805.1456447059298,806.7353573038156,809.5133518174657
1731107241.8703794,805.049777096262,805.096266865924,805.8957329469581,805.3184791671383
1731107241.8707645,807.2834706065195,805.0611409107613,804.4146385109634,800.7558411063922
1731107241.8742738,806.571843595973,805.0165655401596,802.5468328447391,798.3384889077904
1731107241.878168,804.1933370784099,804.9582460691747,800.5173574683937,798.5836485479878
1731107241.8820622,802.5822349235699,804.892912612378,798.6012743583219,799.9358817751175
1731107241.8858645,803.6574932624851,804.8278147602435,797.1512016289226,800.4275916927569
1731107241.8859563,807.53024043963,804.7658770033744,796.4845748196933,799.5654714949845
1731107241.8863945,812.4978068576632,804.7063174324932,796.7009541626963,798.8090882877349
1731107241.8866434,816.3423140529653,804.6472291443939,797.5981030382094,800.3089087474228
1731107241.8898504,817.9718510228339,804.587392635203,798.7935391328737,805.0474106400836
1731107241.8937447,818.1433969285597,804.5266252018932,799.960990348074,811.9189871088901
1731107241.8976388,818.6930354992387,804.4652830524135,800.9471118657507,818.4113424787546
1731107241.9015331,820.8808447489653,804.4037102880562,801.6504741359838,822.269762535537
1731107241.9020245,824.1831144249993,804.3420096883943,801.8530346091377,822.862372431941
1731107241.9054272,826.5176657501303,804.2800958107163,801.3109016104507,821.3171273651084
1731107241.9055352,825.7557288484334,804.2178369315114,800.1008854113956,819.4811557809376
1731107241.9093215,821.3845072106654,804.1551459657516,798.8114238632437,818.5919994249142
1731107241.9132156,815.0858666999738,804.0919901236614,798.2207328868539,818.656426753071
1731107241.91711,809.8002564606392,804.0283561070008,798.6527532300805,818.874481633838
1731107241.9176545,807.928230321509,803.9642172782364,799.6263665239803,818.5848957818347
1731107241.9208117,809.9154118668757,803.899529106211,800.1978119481121,817.8652131940368
1731107241.921004,814.1599914541788,803.8342541239803,799.746528542458,817.3392882849425
1731107241.924427,818.2071260968296,803.7683950884718,798.5339974253645,817.4755609978705
1731107241.9248984,820.2886182525633,803.7019980108416,797.5608909475628,818.0371079231378
1731107241.9287925,820.123696585835,803.6350902853352,797.8421964186981,818.1240226935795
1731107241.9326868,818.5990094786395,803.567565944486,799.6825833253105,816.7305894480431
1731107241.9332843,816.8583096628514,803.4991171830487,802.5062076164913,813.3851480847567
1731107241.936581,815.6480167787113,803.4293715680581,805.3367664602547,808.4604847726639
1731107241.9404752,815.2796582536971,803.3583060677047,807.5172430914491,803.0154059613673
1731107241.9433186,815.8825135344294,803.2867020871761,809.0966621514375,798.307468038269
1731107241.9443693,817.4528087629902,803.2160344899303,810.6026348741832,795.2525581810656
1731107241.9482634,819.6204698214013,803.1472056657753,812.4195347205648,794.0892367041022
1731107241.9489148,821.4947415688937,803.0784333044728,814.3012168978917,794.3886039804058
1731107241.9521575,821.9519129490402,803.0042399672734,815.4228345046446,795.3923803514857
1731107241.9557588,820.3419535607121,802.9184750237326,814.9341182651809,796.5108043034061
1731107241.9560518,817.1690996941065,802.8223255987846,812.588908137614,797.7115203779538
1731107241.9599462,814.1584399225555,802.7322910914911,808.9930272212163,799.5380750265401
1731107241.9622104,813.4124008855144,802.6764864929875,805.3125609282818,802.6678508000703
1731107241.9638402,816.0096573011408,802.6691846769024,802.6460011169958,807.2270384301382
1731107241.9645448,820.9910650582615,802.6717956390033,801.4492534887711,812.347979411226
1731107241.9677346,825.6428269849945,802.5791903521049,801.3614457359955,816.4272195951388
1731107241.971629,827.1303877995913,802.2854098598581,801.5592653101505,818.1001624623365
1731107241.975523,824.4109915864709,801.8402047035484,801.4333747565939,817.3132784611272
1731107241.979417,818.938771094087,801.5944366514661,801.1003563824423,815.5840199303177
1731107241.9801748,813.4981777380879,802.1238962433187,801.3098201770989,815.0184190467261
1731107241.9811022,810.0086830398619,803.7966335734503,802.7638893326381,816.6827027939444
1731107241.9833114,808.0684768994525,806.2171323026485,805.3896585625088,819.6213195640544
1731107241.9872055,805.4767815813703,808.135368045134,808.1827050824396,821.425835971207
1731107241.990706,800.3529591963435,808.1682120219361,809.7608394746511,819.9944131398971
1731107241.9910998,793.0953944990553,805.8734076174749,809.187483414221,815.0816335351976
1731107241.994994,786.485705651025,802.2269916671256,806.4771258548352,808.3989357460865
1731107241.995805,783.7497365758132,799.0106077924219,802.5299097032905,802.2665086017363
1731107241.9988885,786.1015319136053,797.5775622785015,798.6536387852143,798.0095995409498
1731107241.999994,791.7672908695804,798.0003928694988,795.9856600044842,795.3812835331095
1731107242.0027823,797.291298392512,799.2393508062986,795.0670509789156,793.2871555742098
1731107242.0066764,800.0555796066582,800.080590609681,795.7286739627043,790.9767357483885
1731107242.0105708,799.9732624095894,800.004352269846,797.3351100271084,788.6324722465737
1731107242.011435,799.0618944130439,799.351198523032,799.2385712649676,787.0112346290044
1731107242.0144649,799.4121780989852,798.8514329372273,801.1336030990938,786.6838966147751
1731107242.0183592,801.3603626718387,799.0434924648273,803.069895742129,787.6412040962774
1731107242.0188856,803.3537611299746,799.9897024678238,805.1576989521692,789.5009128676426
1731107242.0222533,803.4446338920552,801.3151048739593,807.2428863915615,791.9138906086205
1731107242.0256531,800.9985998614886,802.4043731951264,808.8383237678577,794.6738628239333
1731107242.0261476,797.1875724137623,802.6550804292935,809.3907880978181,797.4817089963308
1731107242.027065,794.0081060221502,801.7523621358262,808.6966828630756,799.7487127552793
1731107242.0300417,792.7952825608531,799.8705204662242,807.1388682575462,800.7843556693051
1731107242.033936,793.466852789675,797.6539620438443,805.5233571442016,800.2764042376864
1731107242.0377774,794.9500306622671,795.9293608990426,804.6023232767116,798.6074020482789
1731107242.03783,796.2178863693788,795.2948909157899,804.6378732709616,796.6530587227888
1731107242.0417244,796.9934375059551,795.8378494268303,805.3396836613848,795.2000477527753
1731107242.0426953,797.6650063137243,797.1523682446953,806.1973466797399,794.512521956895
1731107242.0456183,798.7071903890458,798.6315326128641,806.9023915762966,794.4431811958583
1731107242.0495129,800.2099708959506,799.8362060501493,807.5136920850739,794.9350681569088
1731107242.053407,801.8416336710897,800.7000547195316,808.2902807821209,796.3511075322948
1731107242.0566692,803.1294954572578,801.4361922123801,809.4192404681008,799.216006488273
1731107242.057301,803.7597162801958,802.210622347715,810.8985714127253,803.5167705028941
1731107242.0583253,803.7038348468867,802.8299520068549,812.5960458344684,808.1711158021427
1731107242.0606,803.1505463349633,802.7213902488863,814.3073307088837,811.2453541286761
1731107242.0611954,802.3204992151968,801.2928312324003,815.7230119795267,810.9851567476381
1731107242.0650897,801.2950919208453,798.4495079155654,816.4365474555201,807.0595136744286
1731107242.0689838,800.0033179663164,794.860468241497,816.1375938212922,801.100894429136
1731107242.072878,798.4089945360081,791.7085867084919,814.8831010482711,795.9871330820627
1731107242.0739553,796.7429105529999,790.047787924607,813.1608649846011,794.2030833855631
1731107242.075561,795.5287146420685,790.2136432684896,811.6277440258795,796.3828078894096
1731107242.0767722,795.3128980352362,791.7108735544723,810.7388413660207,801.086144654868
1731107242.0806663,796.2951327803929,793.646275475897,810.5894561279632,805.9513657767955
1731107242.0845606,798.1632260984476,795.3694618331086,811.0578968516974,809.301954231747
1731107242.0884547,800.2559809647584,796.8398915960518,812.0389288879992,810.9796983635575
1731107242.0895855,801.9093116191854,798.4657344161238,813.5029470067096,811.9064185515624
1731107242.0923493,802.7391223431262,800.580471761054,815.3319400728947,812.9748962325875
1731107242.0944529,802.7137473454732,803.0038543800082,817.139354486881,814.3192822824179
1731107242.0955472,802.0291284518104,805.055612525776,818.3275135847492,815.4616847031918
1731107242.0962431,800.9051737646032,806.025950642166,818.4196047133482,815.9394292114944
1731107242.1001377,799.4433758524859,805.7428882046403,817.4168292935555,815.7120966699015
1731107242.1040316,797.6259386444456,804.7790306030521,815.8571618930664,815.0827745969365
1731107242.1052155,795.4246737358467,804.0841541706194,814.4883304638637,814.3903257450754
1731107242.107926,792.9163835227821,804.2682690371595,813.8049585862864,813.8071582144245
1731107242.11182,790.3539900055035,805.0890697308275,813.8204815651992,813.33612394071
1731107242.1133444,788.2460154726524,805.6157404204997,814.2418131630892,812.9085681580138
1731107242.115714,787.4524681396153,805.0061954757772,814.8735925624404,812.4690198392262
1731107242.1196084,789.0851233953371,803.2441887008433,815.8744544920987,812.0026622897211
1731107242.1208456,793.9288333932807,801.1505632044671,817.5778193637002,811.521512696271
1731107242.1235025,801.5041708794236,799.6778512611943,819.9447272136008,811.0416413579699
1731107242.1273968,809.5231234128653,799.2119463118828,822.1095524193707,810.5708231438855
1731107242.1304944,814.5772736909214,799.4891727498492,822.5587432481988,810.1084047885346
1731107242.131291,814.0226183614956,800.0082072512328,820.047170194465,809.6505109742081
1731107242.1322362,807.8297273842576,800.4270064835479,814.6671798524824,809.1942939355317
1731107242.1351852,798.8756665000711,800.6688788231096,808.1691330400354,808.7391172633291
1731107242.1364756,791.2638077293876,800.813649038669,803.1004786553185,808.2856825209037
1731107242.139079,787.8690344465372,800.9567787751496,801.2769093508083,807.8348174049302
1731107242.1429737,788.9190791892348,801.140244569645,802.6914126872982,807.3868754837823
1731107242.1468678,792.4542581022756,801.3566375102596,805.635121875025,806.9417735818528
1731107242.150762,795.9277797933645,801.5819100427947,807.8380739175716,806.4992797096771
1731107242.151128,797.5418710859665,801.7998890354488,807.7251682685466,806.0592291396612
1731107242.1521058,796.6243869744645,802.0079053643241,805.0055279449593,805.6215756709614
1731107242.1546562,793.4298508671075,802.2107803079946,800.4920670808764,805.1863412164943
1731107242.1585505,788.9931588781384,802.4135619371314,795.5505319930433,804.7535529039583
1731107242.1624446,785.0467291834847,802.6182617577302,791.5593050858888,804.3232108129309
1731107242.1654415,783.5283130945463,802.8243494661394,789.5037121210602,803.8952835253749
1731107242.1663387,785.5515575346518,803.0305538083383,789.7143865404903,803.4697157673002
1731107242.1677358,790.4850969317819,803.2360996480999,791.8046794346254,803.0464443574732
1731107242.17002,796.0403822881538,803.4409298186005,794.8584654148536,802.6254286885716
1731107242.170233,799.5892765259817,803.6453519287909,797.8079812255736,802.2066892677142
1731107242.174127,799.8759825825446,803.8496583551519,799.844989646336,801.7903160265491
1731107242.1780214,797.8368143480691,804.0539716335162,800.6952302878428,801.3763919227893
1731107242.1819155,795.8669396159811,804.258283117264,800.6246917873376,800.9648256576546
1731107242.1833658,796.0816262839548,804.4625513107253,800.1670261403157,800.5552132049542
1731107242.18581,798.8950323822916,804.6667663176222,799.7632699780056,800.1469674158561
1731107242.1889114,802.9440589940696,804.8709612324797,799.5747314767682,799.739883969374
1731107242.189704,806.2807531967745,805.0751924729118,799.5410913514404,799.3349007516207
1731107242.1935985,807.7716888546681,805.2795127615103,799.541307271666,798.9342036876334
1731107242.1974924,807.6121778520683,805.483948667318,799.5028357157578,798.5396580975088
1731107242.198996,806.7723152354996,805.6884915851475,799.4189636713895,798.1496244438059
1731107242.200389,806.1070338730757,805.8931166334421,799.3153493755492,797.7566442225557
1731107242.2013867,805.9068817691558,806.097838575115,799.2154871676152,797.3505146522433
1731107242.2052808,806.0211811924569,806.3027792606923,799.1272394471454,796.9294321339338
1731107242.2078032,806.1936680082337,806.5081693847302,799.0468230817169,796.5137123628504
1731107242.209175,806.2795440407994,806.7141964365248,798.9678021410849,796.1455710517953
1731107242.2130692,806.2713386427089,806.9207147039122,798.8866118531058,795.8568260431766
1731107242.214626,806.2249380887307,807.1270542826215,798.8031395261194,795.6090204597162
1731107242.2169635,806.1884380478031,807.3323372292314,798.7188176966525,795.2567382363952
1731107242.2208576,806.1765067883305,807.5365140071739,798.6348393683901,794.6191690258534
1731107242.2247517,806.1802773190095,807.7415693669203,798.5515408467417,793.702449726013
1731107242.2266953,806.1863130752049,807.9513696438731,798.468672011671,792.9586953411457
1731107242.228646,806.1876178062923,808.1685711416955,798.385879182595,793.2818895331214
1731107242.230256,806.1843447460673,808.3891847515475,798.302977806885,795.4838411391919
1731107242.23254,806.1796345916005,808.5995876260416,798.2199646646519,799.4679880251283
1731107242.2353358,806.1759601252098,808.7835678672075,798.136910578376,803.8566816629282
1731107242.2364345,806.1739725764362,808.9424576554208,798.0538684217997,806.6466008663601
1731107242.2403286,806.1731440962895,809.1164100909001,797.9708442659962,806.5362380515234
1731107242.2442229,806.1727806784315,809.377285109746,797.8878128547764,803.8774861648367
1731107242.2455869,806.1725611625805,809.7654499175015,797.8047430335805,800.4697975895806
1731107242.2458863,806.1725355603279,810.1868146889867,797.721614582786,798.3466925363448
1731107242.248117,806.1728922037881,810.3634866703162,797.638425159863,798.494423384746
1731107242.2520113,806.1737717624538,809.9699942949896,797.5551897289755,800.4513981088407
1731107242.2559054,806.175218575168,808.9696593189092,797.4719290762881,802.9705020182083
1731107242.2597997,806.1772214686888,807.8871433197941,797.3886432391604,805.0746349404246
1731107242.2615163,806.1797653807159,807.628897299874,797.3052808477606,806.6340152317603
1731107242.2636938,806.1828511858546,808.8285559928389,797.2217401319909,808.1246503083433
1731107242.2644787,806.1864866201093,811.2377433277295,797.1379426667655,809.9262668442566
1731107242.267588,806.1906748407267,813.7283883158138,797.0539710168525,811.8001627552638
1731107242.270283,806.1954239382171,814.9694339241964,796.970156219739,812.9500113828136
1731107242.2714822,806.2007770420911,814.3221096487144,796.8869215914738,812.610309136543
1731107242.2753763,806.2068308034846,812.3287098329654,796.804286270211,810.7532614071231
1731107242.2771463,806.2136934136533,810.4073200159261,796.7212984078063,808.4127656955466
1731107242.2792706,806.2213644653975,809.9090876419469,796.6361284957756,807.3171024061377
1731107242.2831647,806.2296116230257,811.2071548647332,796.5475629702704,808.926050503726
1731107242.2833705,806.2380217173067,813.5064237983252,796.457584786754,813.3894696893365
1731107242.2870593,806.2463837031753,815.4866176195245,796.3727326096599,819.1113676543079
1731107242.2909532,806.2552861579172,816.2110103058766,796.3006458619047,823.3304710324461
1731107242.2927766,806.2663445017093,815.5869165395475,796.240442143446,823.5017643078498
1731107242.2948475,806.2812361343183,814.1462715564303,796.1727652234357,818.6815851788831
1731107242.2987416,806.2993648848026,812.4971740460858,796.0636308271436,810.0513076246039
1731107242.302262,806.315731980769,810.9390995270585,795.895081560645,800.278863118335
1731107242.302636,806.3223828555474,809.4273568114568,795.7145703350832,792.189552054436
1731107242.30523,806.3160709451925,807.7337138385708,795.6589551175872,787.5883424745117
1731107242.30653,806.3092474185277,805.6015232415886,795.893242467234,786.8250729410832
1731107242.3084066,806.3328215551162,802.8614130423529,796.4652353128739,789.1339633622587
1731107242.3104243,806.4157886383605,799.5744744278709,797.2147404450552,793.3545089727389
1731107242.3143184,806.5407345691267,796.1796509603885,797.9240973936194,798.5363044745582
1731107242.3182127,806.6081469610854,793.4919502572773,798.6664836034919,804.0868378177311
1731107242.321154,806.4738568273373,792.4338423545775,799.9804232925799,809.4449939814895
1731107242.3221068,806.1045343287742,793.5876701362871,802.5443829332992,813.6408840603788
1731107242.3240366,805.7890028586219,796.838142332208,806.5188499229154,815.2851983716539
1731107242.3260012,806.1943942910274,801.3549813620582,811.134857308295,813.2498291679168
1731107242.3298953,808.0478719802666,805.9512409374046,814.9659242512237,807.6484668449556
1731107242.333789,811.5279952624587,809.6051678146819,816.758013815285,800.2748650406335
1731107242.3376837,815.8468458991289,811.8368350233287,816.2345488672435,793.9413207767625
1731107242.3396668,819.4680354282985,812.7530747209289,814.3070870945747,791.0180634328851
1731107242.3400457,820.8898043051132,812.8112828011738,812.5448955538753,792.1374581941362
1731107242.3401773,819.4947893252947,812.5113689674532,812.249581079926,795.9278299332176
1731107242.3415778,815.9556804602441,812.1964685656309,813.7232568833749,799.9322434807518
1731107242.345472,811.9332773705363,811.9973014064948,816.1774096241924,802.1129404037911
1731107242.3493662,809.1674933303714,811.8525315733093,818.296205103319,801.9839891550475
1731107242.3532605,808.4556740599548,811.5533967718558,819.0321251744676,800.6278711067075
1731107242.3552969,809.1797381613388,810.8261831005588,818.1040078985782,799.584967832499
1731107242.3571546,809.7468620393366,809.479167211274,815.9690227522391,799.4709969054766
1731107242.3589373,808.6780179346242,807.5859741998751,813.458999748965,799.4915919971041
1731107242.3610487,805.5858008029776,805.6089069909431,811.4242415965589,798.3430436218742
1731107242.364943,801.3417217895911,804.334763894456,810.5423810575759,795.7286626392739
1731107242.3688374,797.3417306508127,804.5451294815705,811.2020487341587,793.0138251231068
1731107242.3709269,794.4843176440229,806.5073083958913,813.3416987889542,792.214864689645
1731107242.3727314,792.6886984217248,809.5897430482327,816.3105363408224,794.1144860019886
1731107242.3751242,791.282534474969,812.3742156727811,818.9801210809172,797.3051502516295
1731107242.3766258,789.8115316300234,813.3754970840089,820.2437559768526,799.2499441652031
1731107242.3778293,788.5003277802341,811.985965895111,819.7011817143751,798.5503882823231
1731107242.38052,788.0193362694174,808.9454010329781,818.0223706006661,796.3551876952941
1731107242.384414,788.9133142211377,805.8785816735366,816.5767260445169,795.5385829500221
1731107242.3865569,791.2884953862713,804.1740648745509,816.4649783458951,798.3067623456166
1731107242.3883083,794.9360520071315,804.093743086202,817.6691985500167,804.3124163934715
1731107242.3922024,799.5293308307807,804.8646743915823,819.0438936829422,810.860995988307
1731107242.3960967,804.5192146486953,805.6281315839428,819.187826766153,814.9350992750677
1731107242.396721,808.8672140947538,806.3071962567523,817.4594963252844,815.2860202552578
1731107242.3999908,811.1455277287295,807.5397628507824,814.290180406596,812.9640420952029
1731107242.402187,810.2600067443133,809.7637401256568,810.626636372078,810.0982605943689
1731107242.4038851,806.3502270813751,812.3973955964258,807.1289571164742,808.1545887971777
1731107242.4077792,801.0561255749365,813.9745748038904,803.8852428591298,807.1301800890764
1731107242.4100714,796.7549194870622,813.17858471599,800.7977776698057,806.1244273808576
1731107242.4116735,795.210764011653,809.8803663598076,798.1060431700377,804.4854676542129
1731107242.4155676,796.587841126702,805.2999910870084,796.439552219998,802.41046884228
1731107242.4156127,799.5336146846848,801.2003229457702,796.3513735894599,800.6453938445987
1731107242.417817,802.2545264245372,798.816860721892,797.827076116104,799.8570985563034
1731107242.419462,803.7730144297694,798.3346166514411,800.2340997641603,800.3695745006921
1731107242.423356,804.41885907249,799.1464755350477,802.6979007979741,802.3150195936125
1731107242.4272504,805.2178059694086,800.4781302808981,804.5394684245202,805.7340695142441
1731107242.4311445,806.758194056346,801.811450025752,805.4890737837894,810.3580686550774
1731107242.4334471,808.551999658307,802.9005279661151,805.661062499987,815.3637164589411
1731107242.4345045,809.4284477202026,803.6136683479529,805.3946428621426,819.5555322934741
1731107242.4350388,808.5473882324155,803.9321321816246,805.0460326096616,821.999090171168
1731107242.438933,806.1072486876707,804.1502396227244,804.8233754480754,822.6161955751568
1731107242.442827,803.1821968675563,804.9700608364415,804.7511881772106,822.2373794617029
1731107242.4450183,800.9264849291097,807.1567758766962,804.7526572475534,822.0774289158337
1731107242.4467213,799.8649809350447,810.8237209019819,804.7508951657705,823.0361929453111
1731107242.4490774,799.7807490141001,814.9121962613332,804.715552731402,825.233361460261
1731107242.4506154,800.1139278917876,817.48901287563,804.6547646954687,827.9132338599766
1731107242.453396,800.4160080672748,816.9046184531062,804.5879632239661,829.6948693209911
1731107242.4545095,800.5313063620995,813.0587739452388,804.5272378325704,829.1368397093472
1731107242.4584038,800.5158118177487,807.737823029674,804.4739451519033,825.456297606284
1731107242.4622982,800.4777842306546,803.5781914828652,804.4239688313431,818.9949566693666
1731107242.4647074,800.4790951469529,802.2798783058151,804.3734034742423,811.0703040418039
1731107242.4661922,800.5226245634424,803.37504641238,804.3208669118121,803.3209235569946
1731107242.4700866,800.5839693626693,804.5358907187178,804.2669176940058,797.0460278160266
1731107242.472288,800.642206105239,803.2648131623821,804.2125920539875,792.8946169596027
1731107242.473981,800.6909674546537,798.7262599653383,804.1584764722649,790.8445004783982
1731107242.477875,800.7341170657064,792.339274366641,804.1045899200458,790.2807632125197
1731107242.4799657,800.7775008308478,786.70752858826,804.0506876977262,790.1707386698298
1731107242.4803374,800.82416373558,783.7636337624066,803.9965566539814,789.4277181301309
1731107242.481769,800.8740443282907,783.5758274390715,803.9421222695536,787.3939687618964
1731107242.4856634,800.925784470628,784.6436732966093,803.8874079917857,784.202150528381
1731107242.4895575,800.978317427199,785.2621626417397,803.8324564534128,780.8016122981654
1731107242.4911797,801.0313683664288,784.748234102089,803.7772834490522,778.5912346689056
1731107242.4934518,801.0851746501135,783.6189997443688,803.7218746438087,778.7598048664642
1731107242.4959676,801.1400455376989,782.8096764387943,803.666202714753,781.5974851036265
1731107242.497346,801.1961279818928,782.7736965957104,803.6102428345772,786.1739974585473
1731107242.50124,801.2534073567109,783.2185331817408,803.5539782620607,790.6917578442356
1731107242.5051343,801.3118087192947,783.5352123805228,803.4973984926243,793.4064491091093
1731107242.5090284,801.3712780011551,783.3932254718054,803.4404947979192,793.5326019076691
1731107242.5100715,801.431803798138,782.9638552671702,803.3832556625616,791.502733883406
1731107242.5115976,801.4933999541021,782.6726958764267,803.3256630486297,788.4632713920962
1731107242.5129228,801.5560821627848,782.7916609128699,803.2676917632284,785.4991572196724
1731107242.5149128,801.6198567297001,783.2338428358912,803.2093159412216,783.1827699376809
1731107242.5168169,801.6847218159301,783.6666820525414,803.1505236689326,781.6029447269921
1731107242.5207112,801.7506734438531,783.7915218016419,803.0913305504561,780.5930167665997
1731107242.5246053,801.8177095760082,783.5565803758162,803.0317716793719,779.8899086673589
1731107242.5272276,801.885829993398,783.1744624550435,802.9718549770326,779.2498590820869
1731107242.5284996,801.9550334109811,782.9805627040231,802.9114921830904,778.6333653347655
1731107242.528963,802.025315183851,783.2700474579697,802.8504779648949,778.3405525156712
1731107242.5323937,802.0966690539573,784.2222569689766,802.7886113119699,778.8407310163375
1731107242.536288,802.1690939999605,785.8970279003083,802.7259715578591,780.3247018472044
1731107242.540182,802.2426018679969,788.2046927690146,802.663152969641,782.4290790135692
1731107242.542858,802.3172155628661,790.8210610405399,802.6010619585127,784.5508310568653
1731107242.5440764,802.3929482564405,793.1672207123286,802.5399915147904,786.5763068504396
1731107242.547855,802.4697690013134,794.59960041414,802.4783595835107,789.2802670611355
1731107242.5479703,802.5475868234499,794.777657400365,802.4124996785207,793.7748118990764
1731107242.54986,802.6263008729896,793.9573850831224,802.3392042097242,800.2282124100892
1731107242.5518646,802.705931251782,792.9354850940463,802.2609756802191,806.9249098666988
1731107242.555759,802.7867472874236,792.6057550219874,802.1899466744353,810.7511704056502
1731107242.558488,802.8692033791186,793.412066884826,802.1430118659903,809.138058035049
1731107242.559653,802.9535204218391,795.1161552047325,802.1236143784361,802.1334903500592
1731107242.5635474,803.0390511440917,797.0856746049296,802.0990318316403,792.8676632119517
1731107242.5667467,803.1240653138105,798.8757201097271,802.0004320885276,785.8106686209277
1731107242.5674417,803.2068240194366,800.5955829686799,801.7765014434362,784.038493469194
1731107242.5713358,803.2880913619354,802.7202869574795,801.4958408012376,787.5688781341981
1731107242.574118,803.3733391682354,805.5110553269111,801.4203954621012,793.8909280829312
1731107242.57523,803.4710327673951,808.5794396293809,801.9245171140988,799.9950563695618
1731107242.5791242,803.5842919336195,811.0080436491793,803.2194716814929,804.1957927594425
1731107242.5830183,803.699263697579,811.9541999104553,805.0726643108909,806.5838035143363
1731107242.584807,803.7827547882108,811.2681341200661,806.8463343623774,808.2674039955633
1731107242.5856383,803.8048708472401,809.6673667646384,807.944810316724,810.361761300081
1731107242.5869126,803.7869926737123,808.3499423868311,808.3123275750753,813.4489049349716
1731107242.589748,803.8391676162753,808.3027271057534,808.4888391653147,817.5235949098087
1731107242.5908067,804.1191666864339,809.733095142976,809.1172719849376,822.0788538470687
1731107242.5947013,804.6708041771899,811.9648214697104,810.3236023929105,826.1933617852594
1731107242.5985951,805.221583271298,813.8599742136868,811.5434700145098,828.8003892423504
1731107242.6024897,805.173625551932,814.5052060219165,811.9873544046857,829.2324753933178
1731107242.6045303,803.9838188067545,813.7329361420282,811.3490547394723,827.7159428828534
1731107242.6053782,801.7541189789692,812.1707570437964,810.1198929079561,825.3122471381863
1731107242.6063836,799.4600759137516,810.8429710469532,809.2301376061166,823.2273506378219
1731107242.6102777,798.407767858038,810.6206414364771,809.358710321859,822.0484240487662
1731107242.614172,799.2422047523427,811.833017484621,810.5164277417359,821.575313316152
1731107242.618066,801.3828219047189,814.1687315288267,812.1826970274318,821.2974956492072
1731107242.619754,803.4642995715361,816.8227824249278,813.7430544802323,820.8885802511139
1731107242.6210082,804.4419977835446,818.8079872911272,814.7815195957188,820.1415891279127
1731107242.6219604,804.3889069458531,819.368767548405,815.0539103529018,818.5273442958543
1731107242.623422,804.290849826227,818.374036658849,814.3460812436088,815.1487649744885
1731107242.6258545,805.0580793230116,816.4526659865783,812.4991499529048,809.5148633271632
1731107242.6297488,806.6541301587865,814.6737706003772,809.6255532222798,802.5330442524997
1731107242.633643,808.098735820282,813.8754251124528,806.2615798040295,796.5496601648215
1731107242.6366382,808.3089041293738,814.0897854597175,803.2117234868989,793.9581974127357
1731107242.6375372,807.0350743870215,814.5183654066606,801.1278788625682,795.3219444657467
1731107242.641431,805.1217618395672,814.0915566883682,800.1429000026415,798.6821171753465
1731107242.6423137,803.9172751792556,812.1785261015734,799.8750463642422,800.8710561623095
1731107242.6453257,804.3155439055303,808.9423979511622,799.8260977176432,799.904845234433
1731107242.6492198,806.1449536921356,805.184145848201,799.8499535066862,796.5081468274221
1731107242.6522684,808.3472729250279,801.9063497814789,800.2738901060139,793.5034761788128
1731107242.653114,809.8397685421348,799.9212087666566,801.535804471857,793.5837880372778
1731107242.6547012,810.4426208739308,799.6474416630213,803.643465013983,797.2952952473834
1731107242.6570082,811.1128013379421,801.0448289494883,805.9474436450938,802.7772963482279
1731107242.6609025,813.1620694554998,803.6076198018561,807.4423759788119,807.2742569510026
1731107242.6612055,816.9576302582332,806.4410435974719,807.342033831854,809.0534510445375
1731107242.6647966,821.1741599047747,808.5110340826557,805.4842104504978,808.2705831421359
1731107242.6678984,823.3906815416589,809.0729176766293,802.3511114303567,806.4095058204309
1731107242.6686907,821.780522388978,808.0975227680283,798.8219614973212,805.0599488480352
1731107242.672585,816.6461250921288,806.3968882221478,795.863791578345,805.0382185652979
1731107242.676479,810.4991009995442,805.2637590634757,794.2419485016782,806.2569409713954
1731107242.680097,806.4379193781297,805.7561023900305,794.2563563061599,808.0797519643096
1731107242.6803734,805.947899168246,808.0459527652054,795.582800729374,809.7228848441304
1731107242.6835284,807.8225381769387,811.258359156112,797.3675269290717,810.5062688442484
1731107242.6842675,809.1371935996958,813.926652652421,798.6340401216094,810.0106149911568
1731107242.6881618,807.6091129383341,814.8080482693626,798.8420566211621,808.2364938467247
1731107242.6896484,803.5002790422698,813.5909858132,798.2522858578288,805.7409590745633
1731107242.692056,799.4901997265243,811.0811114211198,797.775645493969,803.604873052265
1731107242.6959505,798.5557744384801,808.7298841302757,798.3017470320575,803.0851864885605
1731107242.6989892,801.548254213635,807.7480262810701,799.9481141490577,804.9816241382221
1731107242.699159,806.4288862628167,808.3399536675892,801.8546680989842,809.0208635289008
1731107242.6998444,809.7611789911105,809.5868825854144,802.7838694411639,813.7170700910148
1731107242.7037387,809.2324536432376,810.1074278625529,802.0988592651629,816.9889359950851
1731107242.7076328,805.2236816950606,809.0517852233914,800.3138514861158,817.3124679686089
1731107242.711527,800.3127667773743,806.689458757097,798.7543799319224,814.6961803752745
1731107242.714789,797.2622554685021,804.1400861297712,798.6302420545175,810.7313284939117
1731107242.7154212,797.1261977007262,802.4871289573945,800.279137922625,807.5686344595863
1731107242.7178807,798.8374240251986,802.0193222766534,803.092912261822,806.5248306084296
1731107242.7193153,800.3680893671819,802.2094336199832,806.0155011883577,807.3875239706119
1731107242.7232096,800.3701458312461,802.38197650535,808.1222470621323,808.931220707332
1731107242.7245955,798.9907089320319,802.4268139131707,808.9131009050251,810.096046544578
1731107242.7271037,797.3777262561971,802.9024344886857,808.3156652905786,810.7082561084047
1731107242.7304187,796.4980842493482,804.4415878861804,806.5992660067673,811.1337915455111
1731107242.730998,796.3706380837191,807.0150102567684,804.3200156383413,811.3670888041487
1731107242.734892,796.329936448906,809.74859390307,802.2340587292362,810.6355803332134
1731107242.7367723,795.9635129110574,811.4908645366613,801.0754779970001,808.0400951839916
1731107242.7387865,795.7709467534,811.6459117786933,801.2481526389615,803.6282131008711
1731107242.7426803,796.8794510246383,810.5624729752607,802.649168859867,798.7773182149294
1731107242.7460487,800.0378138674906,809.202917372789,804.8023864766395,795.3868685262689
1731107242.7465749,804.7891281116782,808.4559602915818,807.2154149872235,794.5170876635476
1731107242.750469,809.5805373440244,808.6780902592351,809.6349873041634,795.6452749878752
1731107242.7543633,812.7477751313951,809.7087125704778,811.9511755598908,797.1636253712784
1731107242.7556643,813.5689602112301,811.1412642399472,813.8689796995684,797.6774048573291
1731107242.7582574,812.5625151056349,812.5225423362627,814.7583550178134,797.0433349278718
1731107242.7595427,810.8662264548805,813.4024454738889,813.9680143394531,796.3746781259446
1731107242.7616787,809.2659593380702,813.3942689418406,811.4209299855745,797.097214966084
1731107242.7621517,807.6613085733477,812.3581040229768,807.9551672381328,799.851857563592
1731107242.7660458,805.3519731308056,810.5864796848452,805.0109223656993,804.0881081075172
1731107242.76994,801.852739663059,808.7539887572182,803.8006755505752,808.5845397815629
1731107242.7738342,797.5166525241268,807.5479252455743,804.5479994807972,812.3693787054989
1731107242.7745562,793.4110486006504,807.1920244521758,806.341626402422,815.236187891001
1731107242.7773087,790.5471204397585,807.2387651218938,807.6918687368847,817.498460428295
1731107242.7777283,789.1632286538977,806.8679752839729,807.4078731114621,819.3653614321681
1731107242.7816226,788.7368401079855,805.5497015485267,805.2546396250287,820.6125050910044
1731107242.7855167,788.7194710461105,803.5788997297742,802.0155494833551,820.8059836660997
1731107242.7894113,789.2744767722747,801.9967687398068,798.9480690966492,819.7331648092778
1731107242.7929392,791.2562247734869,801.8693700755719,797.0117720147219,817.5851516144517
1731107242.7933052,795.36741615122,803.4571250062181,796.4078215339853,814.8476327880192
1731107242.7934475,801.205425609146,805.9510637257632,796.6962066074849,812.1734526946982
1731107242.79449,807.0447067476844,808.0026137604209,797.2671618367079,810.3316290427069
1731107242.7971995,810.6207923150115,808.630461288454,797.7306945983921,810.0036496336396
1731107242.8010936,810.4137074908033,807.8147529871299,798.0019139204537,811.3059145569711
1731107242.804988,806.5624729896665,806.3763559095004,798.1693819621639,813.403657575052
1731107242.8085692,800.7868243105459,805.2941177399367,798.3374022771713,814.7668333164622
1731107242.808882,795.3461383269101,804.9877875494185,798.5507535740152,814.1001811044353
1731107242.8123395,791.7121562735942,805.0561854784041,798.8002980098736,811.2452488809627
1731107242.8127763,789.8576148964141,804.6056202111592,799.059329780665,807.2538073121443
1731107242.8166704,788.6661982629641,802.911342341614,799.3102567067923,803.5550234695794
1731107242.8205647,787.1479611739244,799.9691786757637,799.5504005324598,800.9537345008046
1731107242.8241992,785.4861442168991,796.5949481738171,799.7851799723052,799.288817359927
1731107242.8244588,785.029590075792,794.0213619080921,800.0201242609849,797.92139078349
1731107242.8283527,787.1901035978491,793.2383890051435,800.2573723712895,796.5057044539222
1731107242.829437,792.1212163032836,794.4626939469209,800.4962870729232,795.3510206803197
1731107242.8312314,798.2608701392357,797.0466701630351,800.73545368908,795.1314944395453
1731107242.8322473,803.1584759268832,799.8883476866016,800.9740249218337,796.2904629399163
1731107242.836141,805.034006273877,802.0959805966457,801.2119441724649,798.734223594396
1731107242.8398294,803.9698157564114,803.4763027465264,801.4495473996017,802.1194618354217
1731107242.8400357,801.8797878156014,804.5173816081476,801.6871471425471,806.4179597809858
1731107242.8439298,801.2484788699528,805.8997990848247,801.9248694411594,812.0488709299688
1731107242.847824,803.501394709697,807.9160814238475,802.1627013584748,819.200461897144
1731107242.8501232,808.1385972581616,810.2106503743973,802.4005978219619,826.8681311662872
1731107242.8517182,813.2136148618022,811.9699656833321,802.6385443539592,832.721377613179
1731107242.8554597,816.7510922071605,812.3804186470601,802.8765598092424,834.3657828629094
1731107242.8556125,818.0163227674931,811.0673414167044,803.1146747914194,831.184799734846
1731107242.8595066,817.7127273424509,808.3104717589773,803.3529233091024,825.1045427413358
1731107242.8634007,817.0681418914127,804.9565228684422,803.5913570503833,819.3840832590587
1731107242.864384,816.6711566702619,802.060313127935,803.8300586355792,816.3127565667986
1731107242.867295,816.0938996606255,800.4019286156555,804.0691154646305,815.7103207313043
1731107242.869015,814.6191364982303,800.1229536483069,804.3085397281003,815.3442935410577
1731107242.8710897,812.3617083334585,800.7085771943575,804.5481869222828,812.6976376135973
1731107242.8711894,810.6420316157217,801.3598712842421,804.787795416445,806.6499019767687
1731107242.8750834,811.0906794905933,801.5322426483793,805.0272517962679,798.1273809513082
1731107242.8789778,814.158355315774,801.263082071474,805.2669944651528,789.6896795771939
1731107242.882872,818.3771882096197,801.0436762931894,805.5081504259501,784.4045937266978
1731107242.8867197,821.1669312313769,801.3530857829538,805.7518515773057,784.3786835863906
1731107242.886766,820.6596617132269,802.2616378678986,805.9976360645492,789.5406780197161
1731107242.8879066,817.1333663621947,803.4362359432577,806.2420453632263,797.5230370381089
1731107242.8906603,812.9458345819916,804.4858564517077,806.4797165895635,804.9947463612002
1731107242.8945544,810.9931562099366,805.264256380816,806.7086926774837,809.6021024816968
1731107242.8984487,812.7426836994316,805.8341116891206,806.9378275587418,810.9862584366429
1731107242.899331,817.1463347894885,806.1930399448959,807.1883049624581,810.1368534035296
1731107242.9023428,821.1650704867968,806.1246004567438,807.4792682589394,807.9358197537656
1731107242.9023497,821.6054673681358,805.3737319310396,807.7974164742558,804.4355657968954
1731107242.9062371,817.0838639300038,803.9506488675435,808.0736261321783,799.4543830713644
1731107242.9067984,808.7940293069453,802.2013756991312,808.2103066179994,793.5740667322868
1731107242.9101312,799.5793133318534,800.5422255920021,808.1882623404865,788.2609212151184
1731107242.9140255,792.0834736957132,799.1417619882671,808.2069995277931,784.9190362148947
1731107242.9179196,787.4335625367805,797.8995485284671,808.7106136470711,783.8970168273128
1731107242.9179797,785.3325973631441,796.7354414326866,810.1459400515866,784.4306221943303
1731107242.921814,785.1172700772551,795.8445256150982,812.5141655703965,785.4119083129794
1731107242.9256902,786.5569607405217,795.5952655074416,815.0856649883573,786.1333249959556
1731107242.925708,789.6603228616057,796.1318698131302,816.6553271632171,786.4646095775483
1731107242.9296024,793.9015533264164,797.0782432587832,816.2735275689573,786.5966744274365
1731107242.9334965,797.8623699009772,797.6804034046179,813.926552213764,786.7364719840774
1731107242.9336095,799.8074446264329,797.3255293619487,810.6536315663296,786.9676482991387
1731107242.9342782,798.7728838873084,796.0224975143071,808.0225189946445,787.2682898269952
1731107242.9373906,795.2688655809394,794.4441665700355,807.2967335312927,787.5847025277185
1731107242.941285,791.0231092039138,793.488453933891,808.7400445016883,787.8830450013742
1731107242.944582,787.9510783019889,793.6946338247169,811.3997049799382,788.1591383384118
1731107242.945179,787.1053348264846,794.9469284615836,813.5294449757305,788.4241560658007
1731107242.9490733,788.3282451020186,796.6572745598293,813.532924403272,788.6888837128372
1731107242.94924,790.7608696972665,798.2469722590586,810.9469796178913,788.9571972417896
1731107242.9529674,793.7028740880792,799.5275294942003,806.8184289660375,789.2275783479718
1731107242.9568615,797.0984480034299,800.679804214039,803.1440887082834,789.4971371971365
1731107242.9607558,801.2959574110022,801.8753232146843,801.6985800236256,789.7641993609226
1731107242.9634736,806.349023428243,802.8997077472387,803.0214895521688,790.0286593597608
1731107242.9646502,811.4834221163876,803.1514463859265,806.1764071629509,790.291153598712
1731107242.96487,815.2109581872862,802.0683734017978,809.3137588818992,790.5522427588049
1731107242.9685442,816.086120618634,799.64603113948,810.6090239490184,790.8121087601576
1731107242.9692254,813.6275753003503,796.6025808726152,809.1020193505884,791.0706612717993
1731107242.9724386,808.7703666591201,794.0258636684423,805.146917953832,791.3277527217538
1731107242.976333,803.4889761857232,792.7708125424413,800.3154812469685,791.5833060331616
1731107242.980227,799.7845314555718,793.0730495514465,796.7044685293074,791.8373281354044
1731107242.9805,798.686101372131,794.6294528387801,795.870661882675,792.0898707301501
1731107242.9823654,799.9160276765494,796.9795265712041,797.9696866666216,792.340994659746
1731107242.984121,802.3817624346492,799.8021395839907,801.7148970000858,792.5907502217308
1731107242.9880154,805.0517366689664,802.9072222183638,805.2579258747209,792.8391578037658
1731107242.9919095,807.5297256406683,806.0455653143888,807.3453258450583,793.086183771508
1731107242.9958036,809.9526265772706,808.8215627120886,807.8642359064883,793.3317413744207
1731107242.9961302,812.4407192299093,810.8378136816184,807.4954575837049,793.5757637960944
1731107242.999698,814.7060235195323,811.9256159985566,806.9922827028256,793.8183506847176
1731107243.0012572,816.2199374373464,812.2161771724016,806.7324310334491,794.0598755667872
1731107243.003592,816.728461961225,811.9728516655814,806.716969231527,794.3008433653046
1731107243.0041726,816.4914574837419,811.3521023228906,806.7911602118405,794.5413701531772
1731107243.0074863,815.8851481582034,810.3352959464854,806.8321794368541,794.7805386339401
1731107243.0113804,814.7418660029523,808.8992748285142,806.8083769112276,795.0164015570009
1731107243.0117602,812.2348010512702,807.2423372793942,806.747298285153,795.2474883870161
1731107243.0152748,807.6725103755058,805.8048685160162,806.6847951521651,795.4756196235222
1731107243.0191689,801.5715323779615,805.0106013160473,806.6379102844585,795.7076722307137
1731107243.020149,795.8604739067151,804.9398860075086,806.6049584517649,795.9523379115362
1731107243.0230632,792.7232161126576,805.2492461531903,806.577257228249,796.2099434936029
1731107243.0269573,792.9019066075869,805.4437238081911,806.5485390916411,796.4609255240861
1731107243.0273902,794.9479390749552,805.2711742156271,806.517487087131,796.6679206600659
1731107243.0308516,796.1829813648695,804.8806943056711,806.4857308567082,796.8064717204644
1731107243.0347457,794.6480671306557,804.6126508448709,806.4551436974856,796.9176006591284
1731107243.03864,790.4682988108432,804.6356345599029,806.4265281137223,797.1346117081733
1731107243.0390408,785.5970124044029,804.7626646319161,806.3997195023251,797.610303039226
1731107243.0391195,782.2647963989069,804.5792093300703,806.3742346078094,798.3162155096285
1731107243.042534,781.4216189628265,803.7417581711633,806.3497489619369,798.8296286081058
1731107243.0430205,782.3072144133898,802.2172731991889,806.326202501837,798.3820858846857
1731107243.0464282,783.3060245241849,800.340496950432,806.3036793813205,796.3855210716644
1731107243.0503223,783.2897845370652,798.6986262473406,806.282265827533,793.2033188338852
1731107243.0542166,782.3949626777842,797.9035495191827,806.2619873816958,790.423226811701
1731107243.0579324,781.7141596091711,798.3205884420652,806.2428194802726,790.0745414694011
1731107243.058111,782.2498557020658,799.8544182634529,806.2247229536617,793.2192254977294
1731107243.0586505,784.0263521845945,801.9190635601909,806.2076680601278,799.0890164319769
1731107243.062005,786.0741152520475,803.6621367262691,806.1916385809128,805.5246827695325
1731107243.0658994,787.2568709545105,804.3713213468792,806.1766247929553,810.3318181170083
1731107243.0697937,787.230985605298,803.861379413102,806.1626160585998,812.4690334784563
1731107243.0736878,786.760462533868,802.6211069925168,806.149597887631,812.2926300681936
1731107243.0740669,787.1590033463332,801.6040653914187,806.137552763908,810.939421383611
1731107243.0742805,789.2968158931972,801.7226355874936,806.1264620801969,809.5106666120691
1731107243.0768242,792.8994563132053,803.2901528610781,806.1163073479152,808.6404088979099
1731107243.077582,796.6516245934325,805.7609361370286,806.1070703489072,808.5427343353506
1731107243.0814762,799.0807324995083,808.0090775970456,806.0987327492415,809.2337169364821
1731107243.0853703,799.6324473794598,809.0258826939092,806.0912757340661,810.6084211770026
1731107243.0892646,799.123672731467,808.5450006574581,806.0846798851586,812.3454074295151
1731107243.0899107,799.143955453015,807.1149605759008,806.0789252363031,813.8907204971761
1731107243.0931587,800.8137882376466,805.6096271418966,806.0739913647272,814.7457862640945
1731107243.095716,803.9140668343596,804.6534672342889,806.0698574500523,814.938974255763
1731107243.0970533,807.1407157123389,804.4287910339069,806.0665023263309,815.2310987630788
1731107243.1009471,809.2550729819925,804.8671426584267,806.063904573184,816.6913768688735
1731107243.1048412,810.0925494700315,805.8569057155482,806.0620426184025,819.8157169368515
1731107243.1055408,810.5386833756927,807.2100428533159,806.06089471886,823.8725266507342
1731107243.1087356,811.5382099558592,808.5123847311111,806.0604386786188,827.1008443367225
1731107243.109014,813.0561046346008,809.1488001366,806.0606513741208,827.7231664858278
1731107243.1126297,813.9105440007996,808.5846659331366,806.061508546385,825.051580706572
1731107243.1146078,812.6371839071237,806.6872086588058,806.0629855490675,819.8782482221723
1731107243.116524,808.7252227263816,803.8206677797782,806.0650592642043,813.9130847226012
1731107243.120418,803.2927072741742,800.6604427776452,806.0677099772731,808.7629775042888
1731107243.1211708,798.6506699651918,797.8938331571885,806.0709204573201,805.2443219273516
1731107243.1243124,796.9586924914512,796.0116320842744,806.0746698974996,803.4601677204732
1731107243.1282065,798.8423480063481,795.267881725988,806.0789247339309,803.3662251854366
1731107243.1321008,802.9631798378314,795.7391098948689,806.0836355769297,805.1261862410211
1731107243.1334994,806.9129434485227,797.359314305996,806.0887528532827,808.8300880224166
1731107243.135995,808.8221257980929,799.8689457803092,806.0942632710697,813.8732952912219
1731107243.1368008,808.5133839241596,802.747715654119,806.1002217502373,818.74077647638
1731107243.1398892,807.3957831812678,805.2853600559607,806.1067264172528,821.6359548619861
1731107243.143783,807.2812118991502,806.863126822612,806.1137975174361,821.612412737354
1731107243.143961,809.0763072196642,807.300058755211,806.1212088442378,819.3443423676528
1731107243.1476777,812.2805413582103,806.9768032334622,806.1284537794667,816.8698058822536
1731107243.1515718,815.5302031589118,806.5786453810837,806.1350739092005,816.3739373245597
1731107243.1523912,817.6675671298005,806.6197603225932,806.141353507729,818.7709641341149
1731107243.152431,818.5106400230754,807.1151140426512,806.1488556834714,823.0214094427517
1731107243.1554658,818.7844614904494,807.6458033056759,806.1598107591414,826.6851709648043
1731107243.1593602,819.3183013668925,807.7325195687448,806.1747233873554,827.4222829914103
1731107243.1632545,820.1856902420892,807.1964058221804,806.1893137693946,824.4911778667549
1731107243.1671486,820.53834055072,806.2343378303058,806.1943553487365,819.2314504148112
1731107243.168061,819.3264245432744,805.191896683641,806.1824845902729,814.1801016226993
1731107243.171043,816.3061226718065,804.2587069804493,806.1613241350694,811.4260355253354
1731107243.171283,812.4278377757161,803.3572216584108,806.1621922351619,811.3345431873705
1731107243.174937,809.2244340250626,802.3190627493708,806.2258058020541,812.4714234919962
1731107243.178831,807.7171838447822,801.1772574083353,806.3550051384594,812.6929216645984
1731107243.178908,807.7698889646779,800.2716254132911,806.4587494282581,810.6045367937985
