timestamps,eeg_1,eeg_2,eeg_3,eeg_4
1731144107.4910765,807.1839849913996,797.036617990351,701.2743675157421,819.2055210452831
1731144107.5030615,783.5195094875013,792.7426472376029,510.74950687738783,804.3483590860845
1731144107.506969,772.4853008266939,789.5400237796703,387.4425312959568,794.470777442421
1731144107.5099618,777.1230774157066,788.0304064752107,352.19810586619326,791.9189461542735
1731144107.5108762,788.9783708534352,788.0827302563071,371.33340273460334,795.3598513206247
1731144107.5147836,795.5459797730841,788.9463390198724,392.43688689017785,801.2096067726521
1731144107.5186913,790.9589282527219,789.6524320553564,391.00767549741266,806.722179059048
1731144107.5225985,780.6907014905242,789.5289126454034,385.08061760272733,812.2284789595394
1731144107.5265057,776.0471368287232,788.6282828436837,406.097616364694,820.3190546900079
1731144107.5288472,783.4813776060035,787.855587471203,457.7067881319013,832.4762241486148
1731144107.5304132,798.6350607483968,788.6109701839839,506.0020264023562,846.3375386448583
1731144107.5317993,810.5615983678422,791.9762503171656,512.1275121326321,856.5025953770421
1731144107.5343206,811.951886238452,797.8647810205922,474.28105092671893,858.5336407207313
1731144107.5382278,805.6240447312267,804.7650704691637,435.5814715226035,852.6411691938667
1731144107.5421352,801.30950604733,810.3849303463376,447.44509221230624,843.6487191692777
1731144107.546043,806.0774919221911,812.8185952706174,521.7774415669289,837.2188286966004
1731144107.547402,817.6148060134844,811.4569460478812,616.7095189847222,835.7364965542633
1731144107.5477324,826.5943127078682,807.1235720945987,669.726790619212,837.353070902792
1731144107.54995,825.667486355177,801.520282486407,649.3375559504134,838.512658445115
1731144107.553857,816.5175042316349,796.4233570931783,581.0000948683214,837.13302178438
1731144107.5577648,808.3868963355164,793.0319309650423,526.1551971405373,833.538093840049
1731144107.5616722,809.451202845311,791.6845025396748,532.4508519398997,828.9249111705842
1731144107.5630052,819.0249545975792,791.9940411506129,595.9183658107988,823.5924540532083
1731144107.5655794,827.916006782649,793.2667743107653,665.5108000848182,816.9760346912268
1731144107.5666175,826.830307181872,794.9111893167825,686.3960951897552,809.2049497420077
1731144107.5694869,815.171545627649,796.5909462398531,646.9958151588969,802.0271514620226
1731144107.5733943,801.8818121303341,798.1284998463615,590.484365689346,797.5646232000289
1731144107.5773015,797.1666827416694,799.3578083983119,579.2832785458204,795.9220190348597
1731144107.5786085,802.6562955842323,800.0683262326739,640.6332612069411,794.4044001602068
1731144107.5812087,809.4477498690687,800.0287587269594,740.0510878304912,789.7899032041369
1731144107.5851164,806.3089828855948,799.0618195296408,808.6896205004961,781.7636807784819
1731144107.585503,790.6419009071965,797.2064397030632,804.1678439289257,773.8944480848754
1731144107.5890238,771.9000567939872,794.9225903186951,751.3847135284334,770.7200742422867
1731144107.592931,763.9672277649822,793.1027463328229,722.7620192314248,773.5658793352042
1731144107.594211,773.1798665256906,792.6888647386513,770.6027431949519,779.2547238351958
1731144107.5968385,792.7488517658346,794.0709278112668,872.149316724876,783.0977646715004
1731144107.600746,808.6027065064727,796.7643228291421,942.4816077069182,783.3398630325703
1731144107.6043885,811.3850304279707,799.6850419846144,909.5035350699648,782.8397307845289
1731144107.6046534,803.7942563477046,801.8031582194859,783.0245983208017,786.3797361699562
1731144107.6085606,796.7478393577948,802.6473197615724,649.5359222624509,795.9571750143479
1731144107.6098144,798.2401989184536,802.3575944924027,593.0895082924453,808.1836402952857
1731144107.612468,805.6667128908932,801.4160847379696,616.9438771138861,816.1977967338039
1731144107.6163754,809.0531868560043,800.349065400709,644.2397873502621,814.7897947036683
1731144107.6202826,801.9484649175197,799.5396386058786,599.7577055242953,804.6697411805527
1731144107.6232738,789.0516746323,799.1267518016109,492.2613556963782,792.2679608713432
1731144107.62419,782.6960497967135,798.9832267016824,412.80001688044416,785.0102551261824
1731144107.6254177,791.240644743288,798.8264519186528,446.5662213042658,785.8578126372581
1731144107.6280975,810.4803038017825,798.4403823958266,583.9473164561779,791.6238663735841
1731144107.632005,826.5006559448215,797.85039893738,720.9882659779416,796.3377435758157
1731144107.6359122,827.6379322609049,797.3116815563807,753.3026571749224,796.558897936899
1731144107.6398196,814.6419223491115,797.1616041159034,674.6047979546074,794.0150483687054
1731144107.6410203,799.7424543688971,797.6981532621415,584.0481580216847,793.523581127751
1731144107.642159,795.4727980938183,799.1232592859673,593.5867078543398,798.3108502527099
1731144107.6437273,803.4335466730405,801.426382274859,722.760816821172,806.8604210413768
1731144107.6476345,813.1987734326042,804.1610945016192,880.242409112251,813.8663807176753
1731144107.6515417,812.2657290858529,806.3267716499679,948.4150505285745,814.3981031447793
1731144107.6554492,797.822576467656,806.6509218146092,889.7847291451919,807.8332755900072
1731144107.6566236,779.5163248349149,804.2841390298871,775.3698047575909,798.3078482112961
1731144107.6593566,770.8462423150075,799.5030472381223,712.0153872428807,791.2191036014244
1731144107.6610444,777.3183678040116,793.874706989183,742.3444550674271,788.6867438193282
1731144107.6632638,792.209343208207,789.6386693310145,814.1334215671377,788.0226532764193
1731144107.6671712,803.4108199529973,788.5999177987313,844.784717802721,784.7741699670694
1731144107.6710787,804.5595370015105,791.1917803349758,812.4939836000756,777.6002150148219
1731144107.672227,800.0636822716205,796.2785518564082,780.8077063441484,770.160230860843
1731144107.674986,799.7541152423355,801.785918766373,831.049169925914,767.8089318629536
1731144107.678893,808.7409169061516,805.739393688582,970.135674967752,772.0996710096521
1731144107.6799295,822.3690545588823,807.1177305632035,1107.4938374449885,778.745644825627
1731144107.6828008,830.9900850411681,806.1450762860568,1128.2873361587322,781.6561293860809
1731144107.6867082,829.6441496054695,804.0058839858837,996.664020721231,779.5006268152548
1731144107.6878295,822.9707205494342,802.2048250328392,793.0402496544505,778.1256878100821
1731144107.6906154,820.3980460108359,801.8597967109276,650.3768272642869,785.6582840291865
1731144107.6945229,826.3210457317473,803.2094859234213,646.1102913608102,804.2433917984733
1731144107.6984303,835.0730430922631,805.5645840433175,743.718885901975,826.1270733652696
1731144107.698815,835.9413180164904,807.7557746164817,830.5695921438653,838.3312762205679
1731144107.7023375,823.6825058508358,808.8473640864448,814.2651570713857,832.5727590665092
1731144107.7034328,804.4999206218171,808.6867135389485,694.0042541323651,812.2690611332563
1731144107.7062447,791.5368232168977,807.9323213440558,551.4198118826093,790.6509305186061
1731144107.7101524,793.6947594934388,807.5321407964453,476.1917986955883,781.2328729515648
1731144107.7140598,807.8499186983686,808.0077296579559,493.2051662725873,788.136148654669
1731144107.7177005,821.5523267256277,809.0771992814093,550.8929938189224,803.8519877644367
1731144107.717967,823.8506793837794,809.9381254565454,575.8001108158317,815.8634381622007
1731144107.719036,814.6044342194075,810.0095477623792,543.0247717695677,816.3248548194771
1731144107.7218745,804.0666770434054,809.5055181973413,500.12764751329,806.9450337807916
1731144107.725782,803.2945025644582,809.3127655995673,522.5124681261665,795.9274056589004
1731144107.7296894,814.1461415001158,810.2457431934748,638.6976381933581,790.7342248335342
1731144107.7335966,827.8668064267872,812.3003337374141,793.4038004982417,793.2565999583964
1731144107.7346387,833.3326889729935,814.503445608979,886.4772984608525,800.6437015312184
1731144107.7365856,827.1788391975615,815.4434238392766,858.4591495284806,809.4048435680271
1731144107.737504,816.4442997826496,814.1014221644076,747.6939109473374,818.0141796255967
1731144107.7414114,811.4627658482294,810.5150601521036,663.4611762624942,825.9352457228828
1731144107.745319,815.828420029389,805.9500618374901,692.0236724503862,831.381582976527
1731144107.749226,822.8888530263441,802.422222394639,815.4828119727881,831.4342701458719
1731144107.750242,822.0464388389896,801.6608574243238,918.4960101001577,825.0742168356571
1731144107.7531335,809.0679715934845,804.0061991168616,884.3868632807793,815.7638267782683
1731144107.755471,790.9624785352264,808.0011220737969,701.7651062890753,809.9491470417985
1731144107.757041,780.8581344962224,811.1454477342173,487.59268493075894,811.8641264404855
1731144107.7600882,787.0927312601191,811.452131428837,400.266745883644,819.2102662539552
1731144107.7609482,805.7728044208017,808.7214361466571,511.4893990721273,824.1363650002107
1731144107.7648556,823.2678067432975,804.5439223395543,745.8037385791547,819.3011761230342
1731144107.7658453,826.9190449408902,801.0064399318131,942.635375832105,804.0915117390595
1731144107.7687633,815.3245074058433,799.1384685096397,989.7201567071987,785.7750447453166
1731144107.7726705,799.5935972108442,798.3518770592055,911.7096295910035,774.6306463962525
1731144107.7743564,794.1911179351351,797.261163243012,835.9562031085492,776.912795720277
1731144107.7765777,804.7013913168236,795.0748927064584,868.6042412541514,790.8576451709125
1731144107.7804852,822.7139605747,792.291953883449,996.2496799281514,808.252786152627
1731144107.781448,832.324615738631,790.1189069793558,1103.2196053570865,819.9578070339422
1731144107.7843926,823.0579944588659,789.2154883191884,1085.2386705080876,821.2777743772675
1731144107.7882998,798.5887884818504,788.9892939463574,951.0139949299664,813.7127091162987
1731144107.7922072,774.1352775509959,788.1370213840792,817.5468364860867,802.5558974869977
1731144107.7932415,764.7678033826246,785.9483860231996,805.7466979126468,792.7659845271486
1731144107.7948236,774.1431859928241,783.1521954760473,933.2811501653862,786.2921318974572
1731144107.7961147,792.4983033538397,781.4903751054748,1100.285690421573,782.295038878559
1731144107.7970512,805.0936066297552,782.3694478330166,1177.7589152081505,779.2746656565038
1731144107.800022,804.0628152320724,785.7617719718668,1118.7074006694313,777.035047364286
1731144107.803929,794.1700362764738,790.2706550071255,995.5063289969136,777.1088752843463
1731144107.8078368,788.0321604390059,794.23375881582,933.5475554305455,781.6134804580129
1731144107.8117442,794.9416645581578,796.8976532039841,1001.1676075036236,791.4053244984487
1731144107.812127,812.666262975866,798.7509249299424,1151.736361394966,804.6627659952907
1731144107.8126545,829.0949152977751,800.8857792380395,1266.1072559611275,816.9018190132581
1731144107.8156514,832.310264911099,804.0166516790376,1255.8732724448728,822.8465323452197
1731144107.8195589,820.5920807558962,807.923838313535,1137.5675955634504,819.4188523580865
1731144107.8234663,804.0056608460529,811.6254235388042,1016.9483655200034,807.9966561308438
1731144107.8273735,796.3456042613124,813.9957277700653,1001.100987096679,794.1599196161319
1731144107.828257,804.1050410510065,814.3196648951825,1113.546044765344,784.7573886966394
1731144107.829559,821.3023486242897,812.4876931378485,1278.1962863291094,784.0977552599855
1731144107.8310122,834.1020121637274,808.8918018552454,1378.4307190416412,791.7452905510683
1731144107.8312807,831.5574745551245,804.235622384171,1341.9017321087645,803.2865474941065
1731144107.8351884,814.2797415884824,799.3776670772809,1189.0983265028874,813.4481895986568
1731144107.8390958,794.3903073657494,795.1976146043106,1014.0655717456672,819.4096830497297
1731144107.843003,786.5506702020016,792.4548173848102,913.7828897533093,822.0214286628126
1731144107.8438604,796.7220450514637,791.6364499603775,918.5185529082055,824.1659542990376
1731144107.8469105,817.4347428139195,792.8015645543366,975.4790973706351,827.8033303871866
1731144107.8498976,833.5838693405733,795.4699743404235,998.3507188089625,832.4087045962234
1731144107.850818,834.3920190262097,798.6911986392561,942.7670486294658,836.1924893168467
1731144107.8547251,821.9424953282698,801.4067337772506,845.6960331212183,838.6919969653854
1731144107.8586326,809.2417889387953,802.9924337093324,796.2700255059998,841.836586728016
1731144107.8594637,809.3196069596589,803.6227305144234,861.9406812631272,848.1061494325193
1731144107.86254,824.3295236639487,804.128436439183,1028.7532696297556,857.4587965799342
1731144107.8642948,843.6401470608399,805.361685474026,1201.7789840284208,866.124370577833
1731144107.8664474,852.4738987679077,807.4617458243233,1266.4298151696735,868.6902576036484
1731144107.868783,843.9696017557156,809.5382791248484,1168.6571373918446,861.8707675227282
1731144107.870355,824.7211347019136,810.0677037291526,957.8776878085425,846.8778513984748
1731144107.874262,809.1736294591419,807.8500303724629,758.3608686005442,828.5934854212004
1731144107.8750665,807.5242553969546,802.9439358285292,683.041214053535,812.4113887847288
1731144107.8781695,817.392319799774,796.8984744310861,749.8099266213638,801.3138496114855
1731144107.8820767,826.4881601777857,792.0128483363425,866.5014440602471,795.2161965251603
1731144107.8859842,824.0058431664456,790.0659696617636,902.0357513799205,792.5156182700339
1731144107.8876684,810.7002528662665,791.3921163724374,790.9303547795188,792.007057839005
1731144107.8898916,798.6828221557525,794.9118107664989,587.2487455893238,793.4024926628997
1731144107.8906696,801.0407877621439,798.9676601869804,422.8530038354859,796.4344703772263
1731144107.8937993,820.2711739840709,802.2540089658257,402.38428583577075,800.0609310785528
1731144107.8977065,845.4077082359285,804.2352084573458,518.6998243821722,802.8781089660442
1731144107.8990302,860.1914486473845,805.005258462053,656.4071991113432,804.1382669721086
1731144107.9016137,855.4738872022076,804.9482319782585,681.8272546239639,804.1132091675763
1731144107.9055212,835.8575653463968,804.4908158076548,549.4661362947992,803.5746165958662
1731144107.9062726,815.5664029601501,803.9342357438552,340.38129179916604,803.1277761176516
1731144107.9065535,807.2584976118422,803.2561457277076,199.5613798398914,802.9610950361213
1731144107.9094284,812.868481857572,801.9880157718729,220.12156983693967,802.976787229087
1731144107.9133358,823.4734036016754,799.4504938267348,368.51624275949575,803.0186742948626
1731144107.9172432,827.5221901903341,795.4043512312284,515.3298529056713,803.0042465167379
1731144107.9211507,819.9940746593231,790.6677833452682,548.4431429545982,802.9346346444604
1731144107.9218757,804.9826141660793,787.0266103976415,471.60292378700245,802.8463871413906
1731144107.925058,790.7470312327299,786.2302765460494,400.1862420490665,802.7685319123374
1731144107.925439,782.8963406195851,788.7308172984102,455.3571862116187,802.7087928451596
1731144107.928965,781.625081828542,793.2423050667212,649.2106877328318,802.6609677553963
1731144107.9328728,783.7342387428395,797.5988557615586,862.9936012383457,802.6167977571733
1731144107.9337656,786.0350205630674,800.2071113063985,939.354105839165,802.5723526516229
1731144107.93678,787.1341327358946,800.8503534750348,811.1220614674169,802.5280699744523
1731144107.9374788,787.2151649136433,800.3400023266274,558.7805332950072,802.4860420287438
1731144107.9406874,787.0035209039652,799.6236154963827,349.2959464729175,802.4478152440721
1731144107.9443245,786.9973399979921,799.1970396191784,306.8641900664092,802.4137847920923
1731144107.9445949,787.2835992556026,799.0787440466157,421.0658285329224,802.3836531457317
1731144107.9485023,787.7174947571503,799.0791137622607,566.699584735098,802.3570594196035
1731144107.9524095,788.1448614233324,799.0403792439614,617.2254650157107,802.3338888772874
1731144107.9530818,788.5037838659423,798.9179490574022,554.7569744624877,802.314251568576
1731144107.9563167,788.8106827230469,798.7440349467439,481.3434508977977,802.2983320903659
1731144107.9602244,789.1054043392282,798.56382791995,521.5488648105775,802.2862778186125
1731144107.9632096,789.4129874256129,798.3998906439773,703.0130587476126,802.2781735027843
1731144107.9641316,789.7364836203727,798.2509706397748,922.4020298496692,802.274068844486
1731144107.968039,790.0676105244073,798.106364200334,1028.402077392483,802.2740116053046
1731144107.968501,790.398412812009,797.9579939847168,949.7662551117784,802.2780623898791
1731144107.968685,790.7260702291903,797.8039589525363,757.8586952523227,802.2862923010659
1731144107.9719465,791.0517556603679,797.6462013294008,610.8846646169465,802.2987746871094
1731144107.975854,791.3776492647713,797.4871028947632,627.2432375914844,802.3155795003747
1731144107.9797611,791.7050258526572,797.3277478525823,792.6652707261348,802.3367722991236
1731144107.982095,792.0339989368891,797.1679873270278,975.5091527738339,802.3624158532778
1731144107.9836686,792.3641370187306,797.0072377100656,1034.967192198173,802.392571825756
1731144107.9842875,792.695069429325,796.8450954923604,932.1788810156878,802.427301373635
1731144107.987576,793.0267080717049,796.6814893840465,754.6732978753485,802.4666648635974
1731144107.9914834,793.3591641616725,796.5165393867246,638.4831741318418,802.5107214189078
1731144107.995391,793.6925858130777,796.3503788346915,656.8569975086323,802.5595288228913
1731144107.999298,794.0270660627677,796.183071282887,768.1034696903658,802.6131438029067
1731144107.9998908,794.3626443929536,796.0146172504859,859.879242639145,802.6716222467885
1731144108.0009804,794.6993513028189,795.8449910441086,844.9432801494423,802.7350187382685
1731144108.0032055,795.0372372655405,795.6741660001529,726.3015488806703,802.8033852182307
1731144108.0032368,795.3763562383409,795.5021262273899,583.9671613502593,802.876769646757
1731144108.0071127,795.71671583141,795.3288822717902,503.70503465682185,802.9552166377612
1731144108.0110202,796.0582471140757,795.1544937548254,510.6738321231842,803.0387717118347
1731144108.0149276,796.4008630842127,794.979069391117,558.8100871609345,803.1274877024628
1731144108.015494,796.7446269920728,794.8027006988214,577.8770053389871,803.2214267813065
1731144108.0188353,797.0899227010619,794.6253293547601,536.249825854824,803.3206492857648
1731144108.0198655,797.4373798712697,794.4466520452615,469.75034642385833,803.425188032861
1731144108.0227425,797.7873394195683,794.2662537214871,455.4566927946498,803.5350261572462
1731144108.0266497,798.1390289455238,794.0840812208903,550.2153216857686,803.6501153111594
1731144108.0305572,798.4902631624963,793.9010211820807,738.76026203012,803.7704612520375
1731144108.0310967,798.838801017341,793.718880059804,930.8835555281669,803.8962417304648
1731144108.0344644,799.1855835930029,793.5390014030305,1014.434316341079,804.0278280913398
1731144108.0379722,799.5376402589336,793.3597223163032,931.1853804391462,804.1655513976347
1731144108.0383718,799.9059981658967,793.1748268179563,722.8456877659613,804.3092141005332
1731144108.038751,800.2950058905252,792.976567316646,511.0692186656636,804.4577195367615
1731144108.0422792,800.6872022142157,792.7649228106,420.03857256904934,804.6095140984283
1731144108.0461867,801.0398173474382,792.5579116588478,493.3951645310381,804.764277300543
1731144108.0467,801.313425760485,792.3893760394974,666.6039003730525,804.9250583168471
1731144108.050094,801.5337553575772,792.2808698463897,818.9813916945311,805.0983456043764
1731144108.054001,801.8408061910292,792.1942570386185,868.1125593348249,805.2892274282895
1731144108.0576365,802.4371080938057,792.0086268869711,830.7444724652449,805.4921690718603
1731144108.0579088,803.3767462498733,791.5882251868117,797.1132154571308,805.685007855013
1731144108.061816,804.2912575674957,790.9661047984604,839.3206022512591,805.8391905929827
1731144108.0623033,804.3690789087505,790.5383933417369,936.3732056000625,805.9529997956334
1731144108.0657234,802.9608028241274,791.0265859991089,987.8312627556804,806.0902164989993
1731144108.0696309,800.7791039435915,793.0341077707434,908.3044398767249,806.3760069094255
1731144108.0727077,800.7949719653697,796.4329201704606,718.0526419853516,806.9016655419247
1731144108.0735383,807.300231760739,800.1852383428627,543.6330925022609,807.5631587939367
1731144108.0765216,822.4853486006604,802.8978706975287,520.4400520833051,808.0030479615438
1731144108.0774455,842.627531611665,803.6435421493915,677.2011345323236,807.9123894952759
1731144108.077906,858.1341467665115,802.3661905515311,903.0967016586667,807.7154647092657
1731144108.0813527,859.5506175362821,799.7351900455251,1031.6220494880906,809.0728211047774
1731144108.0852604,845.7273011385075,796.7979526643965,975.8641489752156,814.342682531091
1731144108.0891676,826.7156661284902,794.6946377259738,801.7337675368552,824.867389821528
1731144108.093075,817.4850618032581,794.4105439339714,673.9155054535067,839.2309147192688
1731144108.0935092,826.600367649275,796.5200838985454,717.2403979753184,853.0351557244439
1731144108.095407,849.0053580946133,801.04124949482,910.8817882315556,860.702952900125
1731144108.0969825,869.2106509170314,807.4995185294117,1106.2466939655596,858.3393950763809
1731144108.10089,872.8317011823041,815.0633636227492,1153.259706746705,846.0038290769266
1731144108.1047971,857.5698086697523,822.5369945934737,1027.1290034098474,828.0918980035889
1731144108.107443,834.9602089563754,828.2844169591992,848.7659015150027,811.4505237940501
1731144108.1087046,821.3772784802627,830.4707997063138,783.4425940010312,801.9875622675919
1731144108.1091125,825.2977604737789,827.8526388027938,903.7803881112393,801.5405351477657
1731144108.112612,840.9311257866066,820.7516396185297,1130.0305765334756,806.9591811539318
1731144108.114292,853.3724321933787,811.410612123803,1294.4420164182748,812.2049162239623
1731144108.1165192,851.1390701382174,803.1964820530326,1275.1073144652487,812.2624318754724
1731144108.120427,835.7629331932285,798.9634205678866,1090.218786567855,806.2699316781426
1731144108.124334,820.345155273598,799.604879287069,877.7714516307689,797.7466541927578
1731144108.124715,818.1857826844916,803.763875192143,779.8748006922909,791.8928841578653
1731144108.1282415,831.1491924774245,808.8544633740104,828.7884497586808,792.0276511458991
1731144108.1321487,847.7883948369606,812.630946129337,929.0102734437353,797.7023350522473
1731144108.1331775,852.9066940755173,814.2374415443726,947.7118842121906,805.6378067116365
1731144108.1360562,840.4466217607554,814.1609450475057,834.3164862070647,812.5297442136725
1731144108.1399636,818.8395166764637,813.3563712090368,667.6567339412751,817.46725195582
1731144108.1403184,804.3525141612665,812.3545666501378,593.0342922982834,822.0822810724119
1731144108.1421788,807.8769195101346,811.0368724920967,703.5080436150059,828.3605602974999
1731144108.1438708,825.8702265673159,809.120867268044,962.0486451735294,836.0291237680175
1731144108.1477785,842.809748391495,806.7799809394393,1224.284741386386,841.9702186559568
1731144108.1516857,843.376114990857,804.7164016026952,1341.7012102070476,842.5077356484672
1731144108.152063,824.8064985885009,803.5249411041939,1266.1759056862397,836.8228069024035
1731144108.1555932,799.535335090306,802.9145971371405,1079.4962427891714,828.4648297646977
1731144108.1559217,785.8010619974351,801.6318818077485,929.3081575931726,823.2823540361733
1731144108.1595004,793.5039803558611,798.3938045288334,921.3408701819358,825.1010740706531
1731144108.1634078,816.5229258967701,793.1664676425365,1047.0550034482906,832.5667906758225
1731144108.1673152,837.6014199506907,787.631234442568,1196.4075984923988,839.8914890117412
1731144108.1709485,841.8309408379375,784.2532277008218,1241.5201002337822,841.2046265633162
1731144108.1712224,827.9304682106759,784.5748867481577,1127.621255109918,835.1925660755643
1731144108.1715243,808.5080356657173,788.081634325806,907.6011692899564,826.2329043438707
1731144108.17513,799.4876901807659,792.5329379451335,700.9777055191867,820.9303774385163
1731144108.1769142,807.424509467247,795.4396026743786,610.9528808015757,822.7908364914357
1731144108.179037,824.76047986472,795.4908706501086,658.3750732018259,829.4481782226067
1731144108.1829448,836.4620442592192,792.9322131270437,776.3339303839786,834.744146386306
1731144108.186852,832.365572816655,788.9245181694943,866.5908735144352,833.7853425736982
1731144108.1871276,815.138421270227,784.786382798564,875.8562347489733,826.5912308685259
1731144108.1898336,797.5160088298737,781.8765205889908,834.0005416316321,817.3697187193695
1731144108.1907594,791.3985249926043,781.8636735478502,822.454399543527,810.4543718741999
1731144108.1946669,798.1569097931781,786.4127252666557,896.2651635030862,806.8127451320437
1731144108.198574,808.3414325655848,795.8833394073677,1026.16067324186,804.2316862776333
1731144108.2024815,810.7883314358799,808.0554403052025,1116.0327927405517,800.7022190209099
1731144108.202731,802.9775935918356,818.5209189650928,1086.968826251627,797.5442294362164
1731144108.206389,793.5256584238309,823.1652590453158,955.1436295342305,799.0734524089263
1731144108.2087188,794.5887335847386,821.0557224240827,829.6783931219309,808.7234173691471
1731144108.2102964,810.5567369220752,815.2165347403483,825.1509137506379,824.729636441051
1731144108.2116497,832.5643532338709,810.3212967063712,961.6636820571815,839.2063024769865
1731144108.2142036,843.8198009608911,809.0348441569911,1141.2600195801087,842.1910360050813
1731144108.218111,832.3006535255333,810.067856377395,1226.1205967636552,828.5309757991068
1731144108.2183335,801.2924407902407,809.5850458392075,1154.876029015148,802.8331055269218
1731144108.2220185,769.0940008031185,804.6560585617883,996.5810736821593,778.2320917303067
1731144108.2259257,756.8737989716376,795.728609115907,892.8342718981802,768.7170246375483
1731144108.2276042,772.986978125227,786.2077998338664,936.0503192246223,779.7647508938018
1731144108.2298331,805.8243685089552,779.9030147539787,1089.9517148011746,804.0846687743939
1731144108.2337406,831.571449397583,778.6867267188196,1222.37905755044,826.0918198654177
1731144108.2339368,831.6328696990068,781.9564036156618,1220.7529991549586,832.2287189482589
1731144108.237648,806.2308877560934,787.6288319850636,1087.4460191008236,819.6166011888351
1731144108.2415552,773.3500955086954,793.4022778007687,932.613027015863,796.7916412841428
1731144108.245463,754.1713476704371,797.479539713051,875.2306946368066,776.5764638213658
1731144108.246385,757.2026650284138,798.8596410766,942.289620493647,767.1350888360435
1731144108.2464895,773.8171595314523,797.5711410426187,1051.746912293298,767.9771247231652
1731144108.24937,787.7653078471753,794.7800330067083,1087.3534197711956,772.9495570023387
1731144108.24954,789.6412943367536,792.3468284040817,995.9742444045746,776.5686063618817
1731144108.2532773,783.9736055175886,791.7392116989492,825.5334627601242,778.1384245987624
1731144108.2571847,783.6378594829722,792.9630599636373,677.878589508035,780.8979962619873
1731144108.2610922,797.1993134349373,794.483573963524,623.010484934429,787.894198503522
1731144108.2649996,820.440766858976,794.4438360032044,648.614287378706,798.5781306770732
1731144108.265143,839.3003354381154,792.3310049301356,682.5174494117922,808.8650709948089
1731144108.265375,841.4983344555158,789.684312103094,661.1615075988399,814.2359823508027
1731144108.2689068,826.8713456601523,789.1052985195846,581.4576565148419,813.1559645255087
1731144108.2728145,807.815735822806,792.2273858497979,494.3672430901056,808.1689237832954
1731144108.2767217,799.6718934684028,798.2427409858467,452.8265114207519,804.0001549301581
1731144108.2806287,809.0123982355003,804.223211441545,464.328085856414,804.1969504550166
1731144108.280746,829.0496235607868,807.0591596604053,488.863977028603,808.7502870159037
1731144108.2811208,845.2874638977274,805.5610263215135,479.2991800543558,814.298650102246
1731144108.2842605,846.5461670300383,801.2053511646307,424.84201004779476,816.6512350944548
1731144108.2845364,832.8398395680845,797.1291836354046,359.3929013789452,813.8067777182619
1731144108.2884438,814.4693754192764,796.2255912048249,329.98975030375334,807.3706974141356
1731144108.2923512,803.4638001936421,799.5825585501474,354.9613134495127,801.4003310849323
1731144108.2962584,804.2003887191972,806.0017906727928,408.2370806986848,799.515864969844
1731144108.296349,810.575844498225,812.6168544751763,442.1260590809452,802.3933406519401
1731144108.300166,811.9079935373979,816.2318203676433,427.89220079237333,807.4840724907996
1731144108.3031454,802.6276489909271,814.8597892125491,379.62851768225437,811.0608648614467
1731144108.304073,787.546178514257,808.8038514212247,342.44715193341654,810.8763420386578
1731144108.3079808,778.0561551115409,800.6214640498738,355.88879778225356,807.3979844060037
1731144108.311888,782.3095080634979,793.8134937761047,422.3847393676623,802.9538173632021
1731144108.311952,797.7222198678814,790.9635245417549,504.69300730359646,799.8400353521437
1731144108.3157954,812.3778282337031,792.5414767963323,552.6238968420096,799.0212036170489
1731144108.3158562,814.4148223708739,797.0865127642091,537.8872700912157,800.2239213290811
1731144108.3197029,801.6561351302457,802.4097986453254,472.0525594885283,802.9246239949517
1731144108.3220308,783.3974341412505,806.8203407780887,396.70139722872847,807.077975902959
1731144108.32361,772.7360995879563,809.6490015979443,354.592683357234,812.8363621071649
1731144108.3275175,775.7355134335698,811.0567739338337,362.31447339919674,819.5426710712658
1731144108.3275552,786.4624780520273,811.5512346479246,402.30289173759263,825.0717217663289
1731144108.331425,792.0760843729224,811.5922091391205,438.48055399289245,826.4522129235148
1731144108.3353324,783.6798744894767,811.4157830169366,444.09552398479457,821.6352706643054
1731144108.3392396,763.8443394795407,811.0321618202363,422.0716360414105,811.1367083046546
1731144108.3409162,744.7013849168342,810.3182915982776,402.6136820411145,798.1323534058764
1731144108.343147,738.4815792834493,809.1498656568532,418.2255905742682,786.6982740969715
1731144108.3431582,748.2750475143015,807.5261556096317,473.60901256485505,779.368950321282
1731144108.3470545,766.0242176122297,805.6352469177899,534.5798807920737,775.786854097986
1731144108.3505917,778.7669738220652,803.8345143493667,548.6210242101872,773.4586045450275
1731144108.3509617,778.1457979376731,802.5850255883437,485.41003594756285,770.1024259376991
1731144108.3548691,766.2935578401895,802.3947384033945,366.49401906438527,765.8422780760653
1731144108.3587613,754.0114496352766,803.7368566047438,257.1007929651656,763.4482244277249
1731144108.3587766,752.5289553255765,806.8297211176294,221.13668176080034,766.1513250555106
1731144108.3598015,764.7750426640282,811.2804842772816,272.1110511138277,774.5272224724721
1731144108.362684,782.8523567753999,815.8697726231851,360.4833273593623,785.031855065707
1731144108.3665912,794.0989235793134,818.8500936823616,411.6928963032352,791.7885629569245
1731144108.370499,791.2890006269929,818.7865375575493,387.75250909672627,790.6231464771417
1731144108.3743644,778.648404325333,815.4218358342544,322.78482348417117,782.2654739381524
1731144108.374406,768.3914942316421,809.8800783228082,300.2271503672068,772.0762534365521
1731144108.3783133,770.44599244171,804.0057553490183,385.47708255008024,766.4050875007779
1731144108.378687,784.0206705159048,799.353928546973,566.2262803829108,768.3705931536633
1731144108.3822207,798.2336317033748,796.6021530467617,750.9843823889208,776.1948534361728
1731144108.385327,801.3608763075271,795.6979194975263,832.6904279285137,785.0990937589899
1731144108.3861282,790.9865573816867,796.358265188136,771.359486315138,791.0586626504295
1731144108.3899674,776.4704767186555,798.3017125857365,629.9817257763109,793.4877178895588
1731144108.3900356,771.3585671655737,801.0245995107532,530.6646040477062,794.9098200237854
1731144108.3939428,781.7315229720537,803.5423881371892,561.2488065522989,798.0610966946231
1731144108.397572,800.2618499475459,804.6342232469832,705.9637022042502,802.9568338454445
1731144108.3978505,811.473582680403,803.617225285003,857.9043045642064,806.583013575832
1731144108.4017577,804.3994732547769,801.0615489506945,904.8939782940123,805.6738508747677
1731144108.4055705,782.2376375756132,798.7639269679693,818.300775078174,800.1669552704155
1731144108.4056647,760.7579823113257,798.8244607532853,671.259037866835,794.0936488233607
1731144108.4095724,756.6339825723733,802.352847707616,572.851124436115,792.9521199583119
1731144108.4134798,775.3445831300373,808.6268055184051,576.3314611861801,799.900384554265
1731144108.4164574,808.2335757307001,815.2624901936491,640.389252304303,813.9986705700256
1731144108.4173872,840.0423983978443,819.3586323485649,675.3671393676123,831.3848046179762
1731144108.4200628,859.6205436678355,819.0254443949701,632.5858992657473,847.470885938144
1731144108.4211736,865.2682032120823,814.490611219975,557.5016136126137,858.1045847476889
1731144108.4212945,862.3462802738607,808.1525163800684,557.8141880822184,859.8297835677142
1731144108.425202,857.4008555657837,803.4248866623806,710.4880200142939,850.7591000215688
1731144108.429109,854.1212169240091,802.8402144876032,985.741464719583,832.2875396957313
1731144108.4330163,852.9262919831061,806.4350988570453,1254.7584544881947,809.7823667954509
1731144108.4353428,852.6529985180395,811.5400528610992,1379.3538377286413,790.5720828476569
1731144108.4367766,852.2127900098386,814.3768457841351,1313.7052162957984,780.2040788991965
1731144108.436924,851.2383703111784,812.5489337082644,1137.785173649179,779.9196378520892
1731144108.4408314,849.9049164150688,806.6138795916329,996.7233034258863,787.142528434924
1731144108.4447389,848.5123013642358,799.4722274344659,993.8826219240592,797.8275771061496
1731144108.448646,847.2269660205415,794.0842743753263,1119.3216027138333,808.1935055697195
1731144108.4523797,846.0541329820288,791.4576592414719,1265.207196727505,814.9580005296689
1731144108.4525535,844.9265300326834,790.5096083329436,1312.0596418198056,815.4215193504399
1731144108.4542282,843.7878007243369,789.6200209663831,1218.108165627025,808.7166422462927
1731144108.4547982,842.6215280373432,788.2389780826622,1046.0372106527625,797.3349730477922
1731144108.456461,841.4387500553069,787.133846837006,911.2801704194252,786.6100431153668
1731144108.4603682,840.2554359377935,787.3320367821601,894.1509398708292,781.3860206317639
1731144108.4642756,839.0797218929924,788.9796338681614,982.7462969039372,782.3126534774954
1731144108.4679828,837.91132139976,791.1740559313162,1088.4111217932036,785.4433832450906
1731144108.468183,836.7465410032319,792.738560469909,1119.3982827603609,786.1435807463674
1731144108.4720905,835.5825708738377,793.0731209684928,1053.341837015156,783.9889307757394
1731144108.4731135,834.4187716583451,792.3412237325958,950.9259815223152,783.820489175085
1731144108.4759977,833.2558467767872,791.0020028686247,901.1928231860567,791.4255671302321
1731144108.4799051,832.0946123959222,789.2659661072637,944.6637160714471,807.5174565675759
1731144108.4835858,830.9353882719107,787.0060347677429,1038.3387590070563,825.6612705277893
1731144108.4838126,829.7781079656363,784.1678840511108,1092.0842015540084,836.4049425817923
1731144108.4877198,828.6227452483471,781.2432824204344,1046.8283184617276,834.243639612157
1731144108.4895337,827.4695847345978,779.2638544444383,929.0467654571464,821.4907411046395
1731144108.4916272,826.3190326486488,779.1492320335012,833.1078702889597,805.9766244214379
1731144108.491999,825.1709876940583,780.8551251591422,841.4656115312712,794.9532799350415
1731144108.495535,824.0242614961576,783.0888290429001,946.7316976104721,790.5779374964071
1731144108.499189,822.8769318351498,784.0108636428372,1043.9606355006845,790.3697590901772
1731144108.499442,821.7282642598408,782.5328525920207,1007.8594356413157,791.2730913747117
1731144108.5033493,820.5814288117681,779.2559057425049,797.9670572968208,792.9635001453508
1731144108.5072567,819.4441066697406,776.2975015302028,505.14942210735194,797.3492311932037
1731144108.510884,818.3233231014483,776.0589367666756,295.0887507565472,805.230043666602
1731144108.5111642,817.214377587004,779.7267120358854,288.1510528952268,813.8245296533811
1731144108.514792,816.0921405918888,786.4580118000232,470.24013610982337,817.9200198913246
1731144108.5150714,814.9205066963614,793.7454060481138,706.9594216577638,813.8990696909999
1731144108.5189788,813.690343676967,798.7279757189659,849.8162175170052,803.2052674836286
1731144108.5228865,812.4685731288299,799.6632588273051,847.641861672911,792.2306030229588
1731144108.524269,811.4018130159807,796.740856938546,773.0094762538736,788.5054074392991
1731144108.5267937,810.6090514810224,791.8976878080531,745.8603745599951,795.8504471940223
1731144108.5297694,809.9722872748603,787.8700629278238,823.2355228520878,811.7498281635176
1731144108.530395,808.9944966507122,786.968854271865,950.7919533664334,828.611141751116
1731144108.5307007,807.0218349375922,790.0233425474377,1016.3916570874799,838.1868550870009
1731144108.5346084,803.9936900290412,795.9089011544397,956.5464905074571,836.5697003402723
1731144108.5385158,801.3410997174026,802.0378517811553,819.6911348923945,826.648321458551
1731144108.542423,801.9570703195883,805.7939317039488,727.3887122508518,816.2242284142665
1731144108.545998,808.1515416416659,806.1279788159776,765.417053920591,812.8463850773917
1731144108.5463305,818.2003607312412,804.1178888059894,901.8467570946236,818.9675956438151
1731144108.5486548,824.9507883520287,801.9244246622661,1008.3332346541705,830.9277695691874
1731144108.550238,820.0739294921193,800.9213672098601,969.7963095954954,842.2336969834518
1731144108.554145,801.9694208620788,800.5998242754375,787.7470267963297,848.2297228414175
1731144108.5580523,779.4594500868266,799.243277698369,586.4740797399822,848.5543700123397
1731144108.5590048,766.0667265537752,795.8073263169971,515.7282417578396,846.0963574432612
1731144108.5616012,769.2030589591886,791.3422879846191,632.5027678603557,844.0383631219291
1731144108.56196,784.1151187472515,788.6564383552027,860.0043694440021,843.5241145860834
1731144108.5658674,798.155948324474,790.3796579072108,1053.6512765495845,843.3169277769593
1731144108.5675402,801.6386892203071,796.8923477105271,1114.410159837364,841.1413355353214
1731144108.5697746,795.8334169536329,805.7199879276545,1055.3296912876528,835.5273929289646
1731144108.573682,791.2268601327974,812.9134441798093,972.6549834001017,826.9847061014618
1731144108.5772042,797.5660301017398,815.4535462797925,955.0895744371315,817.8161992757528
1731144108.5775895,814.3412139329275,812.9360560978522,1012.4078444823597,810.6901845167189
1731144108.581497,830.1335720260267,807.3713616458512,1080.089356517412,806.9949173428631
1731144108.5854042,831.6908798556841,801.4766643492283,1086.645942855659,806.2964048021213
1731144108.5864253,815.1457242870316,797.0099612495488,1018.9740739945922,807.3459609745606
1731144108.5893116,789.8483444859523,794.3980605977022,930.5422110291216,809.5923796463677
1731144108.5928073,771.5590742156455,793.5015019352863,892.2451041771155,813.5258415748705
1731144108.593219,770.7110500888824,794.3404626023336,933.6018108101025,819.3012184117794
1731144108.5937402,785.3791179886169,796.9620855636206,1023.5170933076673,825.0289315480619
1731144108.5971262,804.261047719082,800.7849124312576,1100.94000419076,826.8483323633717
1731144108.6010337,816.2650647077545,804.369927098652,1124.5966201295464,821.4073982549814
1731144108.6049411,817.994629252896,806.0674168074976,1100.6889060088263,808.9349154193109
1731144108.605311,813.5088648225204,805.0308535586041,1070.5721917753303,794.0980759980051
1731144108.6084104,808.7167021742974,801.6838279981223,1073.2051319095997,783.4087003224566
1731144108.6088486,806.7340126721995,797.2216261421624,1113.5748469922612,780.8263789198143
1731144108.6127558,807.321299226935,792.6218178276141,1159.858526170246,784.9555782492287
1731144108.6166632,808.8276928985331,788.1113621182775,1169.2028414898505,790.2708000585275
1731144108.620571,809.9885582282333,783.6320834162933,1121.9393174378874,791.6771590654547
1731144108.6240134,810.482872319288,779.8492799410711,1039.0042239131815,788.8163870649729
1731144108.624196,810.5916699141194,778.5571749274668,969.2140058914533,786.4038460151652
1731144108.624478,810.6778027586828,781.7237403903506,953.9331652316187,790.0121701835525
1731144108.6283853,810.9121002783302,789.6975592493213,993.3786648916246,800.6799001997967
1731144108.6284757,811.2759390218328,800.104978470015,1040.1538403911024,813.0285161800944
1731144108.6322927,811.680817534722,808.6349434624123,1028.9658258990303,818.8425650234144
1731144108.6362002,812.0634450829386,811.4203833469143,925.5821275344283,813.489717562698
1731144108.6396165,812.4108703638767,807.3893308661703,760.147225920898,800.0284859895662
1731144108.6401074,812.7398313122607,798.929563967837,615.7369849650881,787.54045738611
1731144108.6430814,813.0693280370966,790.4349129337205,573.253447525645,784.7406621461084
1731144108.6440148,813.4074192303017,785.744351419359,648.9094681989654,793.6214837553965
1731144108.6479225,813.7523831479688,786.134291627486,772.5821577931467,807.9166095212071
1731144108.6518295,814.0993302041202,790.0618405949828,830.2394851688485,817.5883885390282
1731144108.6552196,814.4450296509289,794.6577205001073,745.9865930924452,816.0816585655398
1731144108.6557367,814.7889510538987,797.8109327218332,544.4580315618919,805.0541186725738
1731144108.6596444,815.1320187474519,799.3591223531288,342.40657067340237,793.1543546623589
1731144108.6619668,815.4751481127942,800.6616032264728,268.65466144463403,789.7733180563694
1731144108.663211,815.8185991958734,803.1101934371984,368.77904703479453,798.3507223298556
1731144108.6635518,816.1621102843636,806.8931983487685,569.0946940960707,814.120149196582
1731144108.667459,816.5053377415387,810.9610367175601,733.1302256754818,827.8685198875819
1731144108.6708226,816.8481970950454,814.0209399365608,769.2918274340877,832.7320887849661
1731144108.6713665,817.1909050910513,815.5386745951873,701.1588995899184,828.72630762215
1731144108.675274,817.5336821781056,815.8804728218237,638.6139664961689,821.622949341193
1731144108.679181,817.876250078085,815.6437679138961,673.5932657835593,817.5284836795944
1731144108.680852,818.2175265375673,814.9577203239884,793.8908832115734,818.0135452392238
1731144108.6830883,818.5561115639898,813.4239328554112,894.3183948956216,819.7785488455745
1731144108.6864257,818.8918432021858,810.6555827057632,875.8163802659648,818.5499615554955
1731144108.686996,819.2275754177317,806.824604268145,741.9226897449922,813.2778513621646
1731144108.6909034,819.5689125337857,802.7063182890729,604.0251961650195,806.9259098316585
1731144108.6948106,819.9195971731464,799.2309635827535,588.9878923378938,803.5688032876462
1731144108.6979468,820.2734974691456,796.9822563754718,729.303650164735,804.7319654975731
1731144108.698718,820.6103269825394,796.0609771455271,930.9587289032775,808.2057569940816
1731144108.6997373,820.9062652228657,796.3321425630115,1047.5536041673654,810.1369346350098
1731144108.7020288,821.1638036246655,797.7093438342124,999.5728699016557,808.4222258104476
1731144108.7026255,821.4429357376018,800.1552026213823,839.4142863335608,804.5134946697121
1731144108.706533,821.8501424844495,803.4341390875448,707.0223593420537,802.157583821439
1731144108.7104402,822.4452216488983,806.9339746304654,712.7592084958446,804.1055125681128
1731144108.7143476,823.0924891314767,809.785012890293,847.2288851364651,809.518319629394
1731144108.7176318,823.3990766692606,811.2024327413715,994.8281539796692,814.3208266059812
1731144108.718255,822.9462039412585,810.8220858047624,1035.5121984881073,814.3681217997336
1731144108.7186227,821.8678526164755,808.8875189988573,941.5347618537941,808.8960294608986
1731144108.7221622,821.402577292255,806.2551639544738,786.2749569702216,801.4091450026831
1731144108.7260697,823.5994474742506,804.1719848457083,669.1377249402524,797.2541452566196
1731144108.7299771,829.5413286790147,803.7905173166079,636.0426036477727,799.8031662016558
1731144108.7326822,836.8793536232108,805.5717208656845,664.2502586202593,808.1448328840544
1731144108.733235,839.4646464093827,808.9457806223458,704.6425217398539,817.823847650926
1731144108.7338846,831.4355637479629,812.5640561373856,725.7549293188305,823.8593275928127
1731144108.737508,813.4698417395086,815.1002047043348,724.7903990896832,823.8245861230598
1731144108.7377918,794.6883236837784,816.0955648028026,713.9156322393515,818.9566779606437
1731144108.7416992,786.5474195575116,816.190827105085,704.4172920014691,812.7481321249294
1731144108.745607,793.2014924514729,816.4768782146368,700.2455435640693,808.3190283178253
1731144108.748838,807.2489540156107,817.4290635013105,699.7591913631019,806.6877704092226
1731144108.749514,815.4410326266612,818.3389690209463,699.9487069809165,806.9835568108746
1731144108.7534213,809.8826113488462,817.8050875997627,699.0996298184725,807.7976771618178
1731144108.7563934,794.9860614168773,814.9052275280573,697.1259748866555,808.2563654492462
1731144108.7573287,783.9008965817791,810.038307564947,694.6953081719686,808.2246615118919
1731144108.7612362,787.2853939011428,804.7444096438413,692.3816124383999,807.9574271848131
1731144108.764441,803.9496503301186,800.7555647815402,690.3595717547385,807.7139045978209
1731144108.7651434,821.309190350592,799.1268914838797,688.5226472548887,807.5919506831927
1731144108.7674177,825.3269403309037,800.0120327726046,686.7095553109439,807.5584848808163
1731144108.7690508,811.8003764851766,802.9070864612708,684.8358380243611,807.5446691997022
1731144108.7729585,789.8237397056206,806.8342879878569,682.902421900638,807.5092516876425
1731144108.7752786,774.6239810235032,810.2932862093542,680.9459278250041,807.4485854577985
1731144108.7768655,775.5196362811118,811.3812264776354,678.9949647053185,807.3774474739527
1731144108.780044,788.6965189564489,808.5308180012007,677.0563180845115,807.3092849496721
1731144108.7807727,800.662740613088,801.6590612710447,675.1227090702283,807.2485563151436
1731144108.7846804,799.5857088963311,792.8042711923225,673.1851151351356,807.1930556583618
1731144108.7885878,785.1959593326501,785.4206370436956,671.2394014153158,807.1390757089582
1731144108.792495,769.0578214067543,782.5208009965664,669.286131435504,807.0845648397018
1731144108.794164,764.9887131705025,784.9132396629689,667.3270189784371,807.0294492439095
1731144108.7956471,777.5676987165252,790.8279553971587,665.3616708532405,806.9745353376964
1731144108.7964025,798.142349480783,797.1744477614066,663.3868558583584,806.9204877351794
1731144108.80031,811.476973992678,801.4688118388813,661.3991241770696,806.8674783142684
1731144108.802153,807.5776150928892,803.0885356811066,659.3997648382707,806.8153430223344
1731144108.804217,789.2409399574734,803.1447624546777,657.3982117500107,806.7638589576703
1731144108.8081243,769.4777940406133,803.2991035829407,655.407771484264,806.7129000332342
1731144108.81125,761.1453043758139,804.5053488916877,653.4303157365465,806.662443202666
1731144108.812032,767.3216917464584,806.5242607010499,651.4376703661477,806.6125065783262
1731144108.8130493,780.1003183691852,808.3560532645788,649.3722031502446,806.563096954797
1731144108.8159394,788.1747022257374,809.0665990258807,647.1910356096481,806.5141941780514
1731144108.8198466,786.0718641760797,808.3401379637542,644.9473990111394,806.4657611322906
1731144108.823754,777.0442632089693,806.4790629174253,642.8401579598,806.4177585115334
1731144108.826853,768.3350462300416,804.0778339702339,641.1173278438243,806.3701524316891
1731144108.8276615,764.6997545275177,801.7736425336867,639.7801821929539,806.3229142225488
1731144108.8315687,766.0981117573745,800.2100646101719,638.2535402408718,806.2760170018715
1731144108.8319347,769.7920779468321,799.975309879593,635.4565802358117,806.2294330201971
1731144108.8354762,773.307185620472,801.2660481229758,630.7022864517548,806.1831330090677
1731144108.8368886,775.7348833985515,803.4558612401513,625.2164408239197,806.137086810539
1731144108.8393836,777.3770010781209,805.1113530695139,622.88747217338,806.0912641768379
1731144108.842456,778.8571662431833,804.7555567047025,628.129476966111,806.0456351560779
1731144108.843291,780.5444708417798,801.9548818024431,640.1128562834347,806.0001700714392
1731144108.8471982,782.4669602900944,797.8591239216402,646.8614707473627,805.9548393508179
1731144108.85082,784.4882515571345,794.6906896209761,627.4063638241236,805.9096134106435
1731144108.8511057,786.4864181039597,794.528012260142,568.8947797954228,805.8644626473605
1731144108.8550131,788.4219213963936,798.2246348153237,491.59853257935646,805.8193574920758
1731144108.8580592,790.3153556336908,805.0470908134819,454.3816319857005,805.7742684695447
1731144108.8589203,792.2003171805944,813.0039028265029,516.4564240205482,805.7291662332648
1731144108.8628278,794.0950254423136,819.5120502539802,676.9044640060443,805.6840215792411
1731144108.8667352,795.9997348822934,822.1590658714726,854.574902178438,805.638805452619
1731144108.8697052,797.9068506398924,819.5130913038199,942.2877471490248,805.5934889574985
1731144108.870643,799.8101844128985,811.8735971638645,892.8814322370823,805.5480433720867
1731144108.8716242,801.7080552662825,801.5932556228148,758.5511337360856,805.5024401664325
1731144108.8736622,803.601801736178,792.4910829487749,646.9091935520879,805.4566510195783
1731144108.87455,805.493245653682,788.2431112032964,631.6359764533718,805.4106478348541
1731144108.8784573,807.3832925408681,790.414927992675,694.2857711812214,805.3644027538385
1731144108.8823647,809.2719127139037,797.3962809288893,746.4274444757947,805.3178881701177
1731144108.886272,811.1587549599043,805.19473153195,712.7754478621223,805.271076743345
1731144108.8885906,813.0436586651764,809.7973517964509,603.6869330065036,805.2239414128153
1731144108.8892653,814.9267574621939,809.5454495558649,513.5863766481248,805.1764554087919
1731144108.8901794,816.8082352526642,805.8372914887399,544.4760400053642,805.1285922604089
1731144108.8940868,818.6879886039006,801.7152586046137,717.7128748192359,805.0803258019175
1731144108.8979945,820.5655283944111,799.5161241919222,947.8934542218025,805.0316301830524
1731144108.9019015,822.4403989546703,799.3972780070769,1101.449104011255,804.9824798900842
1731144108.9048684,824.31305972822,799.6894287065331,1093.9320834570922,804.9328497763638
1731144108.9058087,826.1855331936963,798.501264419952,950.9442904546372,804.8827150848967
1731144108.9063597,828.0606012136897,795.1777571800346,788.3100656356057,804.8320514330416
1731144108.907476,829.9388320308035,790.6425717735482,728.3498769673915,804.7808347439418
1731144108.9097164,831.8148991441553,786.6689741793642,813.5222775041294,804.7290411654226
1731144108.9136236,833.6776007007342,784.7583882107721,978.1417330046124,804.6766470884028
1731144108.917531,835.5184500425568,785.2960557195992,1097.499443860244,804.6236293798898
1731144108.9204714,837.3477125115365,787.3586545664432,1079.3352769916842,804.5699657853484
1731144108.9214385,839.2044521058099,789.2499637221724,931.424610375091,804.5156351480487
1731144108.925346,841.1380377282389,789.5090756583904,755.1930920594748,804.460616890577
1731144108.926361,843.1501313575832,787.8063341988931,670.0617014635745,804.404889539258
1731144108.929253,845.1290555222574,785.1124911017313,725.7314452325816,804.348429171656
1731144108.9331603,846.8618010606694,782.9946330292628,868.3403347268116,804.2912099456279
1731144108.9360745,848.2090908506206,782.5610666310877,984.8783312096486,804.2332087046508
1731144108.937068,849.4049382795375,783.8448366021905,991.2379204195296,804.1744123734424
1731144108.9409754,851.2092386900497,786.0032000854777,896.7856095218585,804.1148210946097
1731144108.941095,854.4931023234539,788.0020244118618,795.4371458090594,804.0544368960545
1731144108.9448826,859.0964305024593,789.1322211612724,788.3308095001911,803.9932351672251
1731144108.9452467,862.6198217320391,789.0487247971879,897.5306776608603,803.9311376010622
1731144108.94879,860.7175954713955,787.6103793952758,1041.655913120681,803.8680278755126
1731144108.9516776,850.105006460481,784.9611246831561,1098.5202485661212,803.80384396821
1731144108.9526975,832.8026816327451,781.8527878942223,1007.7563180885767,803.7387145565481
1731144108.9566047,817.1168999214243,779.7076561425341,827.3025683456839,803.6729996916905
1731144108.9605122,812.2837651100609,780.0153969722738,690.8279196720848,803.6070496254125
1731144108.964132,820.2140356261951,783.3465151619198,696.8790325995458,803.5406584906573
1731144108.9644196,832.2964301228197,788.8076357074934,823.0085745526111,803.4726022174033
1731144108.9672806,835.5044915733729,794.501630047416,940.8413671386102,803.4010441399815
1731144108.968327,823.2926978192642,798.6760453697129,922.7127916282095,803.3253696755904
1731144108.9722342,801.8177538363987,800.6244475150221,751.1386904515542,803.2486787134061
1731144108.9758306,785.7061753360501,800.6832487697679,538.3607392764128,803.1781850152702
1731144108.9761417,786.5010186715793,799.5524507917071,438.1678954409211,803.1201656208416
1731144108.9800491,803.1954644723239,797.744068881195,522.4006147409452,803.06957276678
1731144108.9828837,822.6509300389208,795.6458274876949,724.3351288809292,803.0023293925759
1731144108.9830172,829.717827795239,793.8660789797655,895.8468794676505,802.8850691874885
1731144108.9839563,819.0844515784079,793.1522400324428,930.4475160730165,802.7113063955685
1731144108.9878638,799.4215207247688,793.717357379988,848.4566947703049,802.546526308396
1731144108.9917712,786.3985294841101,794.6749042893842,771.7841696252598,802.5285154374683
1731144108.995679,790.0140233839597,794.4221757894151,810.4148468080023,802.7631773060497
1731144108.9984868,806.4061033846093,791.9279071329544,960.372093862983,803.1289576893687
1731144108.999586,820.8742546148007,787.855952344026,1103.7617631324533,803.1539178625636
1731144109.0019026,819.7784669102967,784.4310370904633,1111.4661843992612,802.2434940875354
1731144109.0034933,801.679541853078,784.0267555313452,958.3769389879392,800.4021860997934
1731144109.0074008,778.6632698213863,787.5718505219435,750.5262711302436,799.0833857964255
1731144109.0105662,766.8092405359413,793.971636439216,640.5469053566198,801.1884170982098
1731144109.011308,773.5750528370078,800.842136274053,703.4318818827007,809.3536180502205
1731144109.0140898,792.2472711650732,805.8809836103111,877.0883638263382,823.208931074065
1731144109.0152154,807.7451456106527,807.9471295625976,1016.4685333383209,838.1430466084748
1731144109.0191228,808.8632912736537,807.3592807930892,1014.3677025486151,847.6186223778982
1731144109.020788,796.9652632437083,805.4748822589617,886.4328965994105,847.8335411385996
1731144109.0230303,784.195318957411,803.8821693333513,749.4175635658155,840.8489790539377
1731144109.0269375,782.9188132886584,803.5800419015272,714.3210027490335,833.2099127657367
1731144109.029693,795.2775113652809,804.5009387261224,789.8076216210322,830.8376958591315
1731144109.0308447,811.529758560544,805.6245221627962,880.3102876773662,834.2819425360193
1731144109.0347524,818.4055180841411,805.652641423893,877.118598806521,838.3707762203717
1731144109.0386596,810.3330744155879,803.8851643654284,758.5682993064944,836.7068471416997
1731144109.039673,794.15498720051,800.7903534778776,611.3243625453408,827.2733857160197
1731144109.042567,783.5423479405318,797.8970771519668,557.8219989752199,814.3366081581756
1731144109.045296,787.7896323806733,796.9684504871686,654.9181314071056,804.9268135598596
1731144109.0453017,804.0521622607532,798.8443178995725,847.3280692390853,802.8445696950057
1731144109.0464745,819.2064920183494,802.6980446572625,1009.3707424190935,805.3755764744997
1731144109.050382,819.9499558963097,806.3902487206691,1038.2996411090544,805.7156963194498
1731144109.054289,803.3098677167445,807.8777428793372,926.8118061500535,799.1767553735522
1731144109.0581963,779.2499282909407,806.6729412446218,762.5172908629642,787.7198180555012
1731144109.0585587,763.1155916265619,804.1096348666745,658.7817152793174,778.5702907214196
1731144109.060899,763.7844134194678,802.1168688734068,671.7393379923315,777.9170071380918
1731144109.062104,777.0428276737616,801.5521530662409,765.7556269728134,785.3324630554662
1731144109.0660112,789.6074562208041,801.5631161013355,849.7700636109416,794.0859592385144
1731144109.0699186,790.4802807131521,800.4927996220897,851.8004079337335,797.1645705173296
1731144109.073826,780.2073732893559,797.4621478768852,772.1385402984503,793.5471765222736
1731144109.076502,770.3209754283298,793.2551754636366,676.9337287307787,789.0540355661312
1731144109.0774438,773.4256418203528,789.8433166008806,642.4229464494401,791.0423522922661
1731144109.0777335,792.2008658966538,789.0279261921415,695.4061695635841,801.6720272495661
1731144109.080037,816.5442333829156,791.2714296589487,793.498692799214,815.5894052681832
1731144109.0816407,831.3933453656992,795.510973845006,857.4019832442995,823.971492901328
1731144109.0855482,828.8742659118781,799.9676716449118,831.7058587480811,821.5064345221557
1731144109.0894556,814.6393026734419,803.2692820373381,730.9190919938926,810.5322075088266
1731144109.0921052,802.953757010234,805.0594417783564,634.2610122460853,799.0088155005841
1731144109.0933628,804.6120490551859,805.7720460784274,626.7773456450492,794.122090196334
1731144109.0963292,817.9972380966213,805.9754832340088,727.8769859571448,796.843915688724
1731144109.0972705,830.9458882779074,805.9561158147419,866.6489899685494,801.8275012916787
1731144109.1011777,831.7163482798427,805.7900562321169,931.9545070662588,802.4838887009479
1731144109.1050851,819.4877006647565,805.5853173096513,862.3990727208912,796.8110567775482
1731144109.1077082,805.3243751069161,805.5136149472278,701.4267903398728,789.0777310740473
1731144109.1089923,802.8505094688484,805.6464774770766,567.0752770809705,786.096696421171
1731144109.1128998,816.619959942547,805.867573864015,557.6081367858994,791.3882313144893
1731144109.1147726,837.9148667650968,805.9620946094473,670.5305110566708,802.1671323233414
1731144109.1152146,851.3774874841333,805.7253390111543,803.3743332827139,811.5668669485831
1731144109.1168072,847.0690461611655,804.9763064163615,837.786872158022,814.1390312611248
1731144109.1207144,828.3087516671311,803.589898022102,739.3920460567005,810.0625305854616
1731144109.1233113,809.0343532937055,801.6776029381147,590.5253139940912,804.6573633737538
1731144109.124622,802.7343713213168,799.783356495481,525.2227519390422,803.7184141119176
1731144109.1285293,811.845455996016,798.7914266456644,616.7841739624309,808.6810074460303
1731144109.1324368,826.3061152149007,799.4634235998718,811.8507462167328,815.7213675423797
1731144109.1341,832.4780249074611,801.920245623172,969.9556215327763,819.3902902464013
1731144109.136344,824.9148913328535,805.4915395866384,978.3150768542703,817.3945554353259
1731144109.1389143,811.0173984872981,809.0407545511611,844.8670923277239,812.3437672822004
1731144109.1402514,804.6956385281732,811.492476097138,689.8623858156133,809.2408146878129
1731144109.1441588,814.4764645441588,812.2129857623828,644.2898611976789,811.2070225953096
1731144109.148066,836.0159194676065,811.1089890216272,743.3753806663098,817.0611452646637
1731144109.1495082,855.0952450742551,808.5351701052108,904.4507104054852,822.4121633226462
1731144109.1519735,858.5287658988617,805.1556282500025,1002.780400909877,823.0522743772724
1731144109.152985,844.2433253143672,801.8160254322404,976.097774405329,817.967782979498
1731144109.1545174,822.7428114073032,799.3771381506764,869.2003740208999,809.883973732143
1731144109.1558807,809.0174387799099,798.4522883130011,785.2296706510448,803.1179859520786
1731144109.1597884,811.2493192814262,799.1194175675823,789.8190931183176,800.3634691413355
1731144109.1636956,825.0029750804572,800.8254610665706,852.4824098180995,800.7731828064948
1731144109.167603,837.2929866153128,802.6513360141317,876.5427125685596,800.7953006933931
1731144109.1701205,837.2043599515578,803.8166961832666,791.9731611952401,797.1447188041166
1731144109.1715105,824.5710607551674,804.0520024766332,629.2614386800162,789.5658540358279
1731144109.1718705,809.7888459352947,803.5669057408055,506.6900902041979,781.1355702884764
1731144109.1754177,805.0026164050893,802.7283946795441,537.9711422542447,775.8254046147462
1731144109.179325,813.8923843804699,801.8056683636777,736.8858848607375,775.3353718186227
1731144109.1832323,828.3970431105907,800.973438684673,998.7508840094587,777.9066603836714
1731144109.1842437,835.0878997889246,800.4158709539083,1173.925619949831,780.2331407386537
1731144109.1857235,826.1488726255562,800.2741727903942,1174.3671336971213,780.9081781008472
1731144109.18714,806.2218353356656,800.4401610646215,1031.695548718152,782.2890433575333
1731144109.1907558,789.5151604062077,800.4789131453264,866.5235883939308,788.7397399225839
1731144109.1910472,789.0704746940296,799.8988768591877,796.081542785691,802.3080820836643
1731144109.1949546,806.3252134600417,798.6100539050369,850.3036834061563,819.4784570347435
1731144109.198862,829.3086758035505,797.1217250713645,957.6342151378526,832.2631463555731
1731144109.2013266,841.3978537578411,796.1826806876812,1008.3720164566431,833.4854532345231
1731144109.2027693,834.1275475125994,796.0868463778475,943.8278246859188,822.4136776430809
1731144109.2066767,813.9005758042422,796.2758751981805,800.1440536537151,806.1935365889091
1731144109.2096412,797.0175222657972,795.706091987964,673.8134718154913,795.5781039250338
1731144109.2105842,796.8472331640643,793.7602688354513,640.6835678363601,797.8300834877336
1731144109.2144916,813.4291335254711,790.8955142153019,696.278281188484,811.8876872853633
1731144109.2169297,833.8385109245002,788.3597858060978,763.5666272842827,829.2718751354457
1731144109.2183988,842.8215530641949,787.142351282781,757.5165508511861,840.0404601928957
1731144109.2189791,834.8461703863725,787.0851190410685,653.2703195800929,839.4601410308874
1731144109.2223065,817.7533807155964,787.0088745000025,506.8305920173757,830.6308161139848
1731144109.2262137,805.3946880875102,785.8145532935181,415.09079190795177,821.3949445452387
1731144109.2285266,805.9007982277917,783.6135784111674,445.0347356267978,818.1836843400929
1731144109.230121,815.6292083989154,781.8667808732741,582.8583180967264,821.6331184536274
1731144109.2325327,823.4697795994532,782.3567887466434,741.2410890496423,827.0942321435768
1731144109.2340283,820.9084822331338,785.8299868706982,822.9837247023611,829.0284561582741
1731144109.2379358,808.5568603846211,791.4087996868501,795.4974215581741,825.3018773849975
1731144109.2418432,794.0231398753878,797.1705137735655,716.6981978654429,818.0517202169439
1731144109.2457504,784.5968134911632,801.3097783301963,686.8418488688637,811.1753801467769
1731144109.247412,782.233783409798,802.9765645432132,761.4296730238771,807.231522923214
1731144109.2481358,784.2585516919581,802.4051321166946,896.8869944045338,806.2845673937816
1731144109.249658,787.0532748172412,800.6138861940279,978.0563273687205,806.8704786204244
1731144109.2535653,788.6584760501461,799.0356503663123,910.2550229711194,807.5412433891827
1731144109.2537146,789.0000842586237,799.0650095920575,703.2448968245388,807.6669250064508
1731144109.2574725,788.8438694831958,801.4061558916693,476.6721810206201,807.332418406404
1731144109.26138,788.8326228971206,805.5258356388857,376.94683766447486,806.8669586231264
1731144109.2637389,789.1528438536064,809.8266470201818,467.67673169503576,806.4958960064725
1731144109.2652874,789.6777790427755,812.6700852725822,681.1270605637268,806.2581012098528
1731144109.266297,790.2250244391436,813.4545834618417,872.4213680315838,806.0876876685965
1731144109.2691948,790.7021480736714,812.7839358304178,934.5539376434468,805.9148227624254
1731144109.273102,791.1131062153947,811.714705962985,879.5418675477163,805.7115989432444
1731144109.2770095,791.500788427739,810.947090242816,817.4422632690533,805.4855782608388
1731144109.279342,791.8979999807029,810.600080075653,852.1214787531655,805.25486289706
1731144109.2809167,792.3126957232229,810.4644760349846,985.4367248041651,805.0307965522035
1731144109.2848244,792.7371615325878,810.3194182242867,1113.924401403465,804.8147527570563
1731144109.2851825,793.1617519119992,810.0766066989879,1120.2007807731093,804.6029842848459
1731144109.2884502,793.5820021468714,809.7597497463838,978.4190077922627,804.3919071552433
1731144109.2887316,793.9984486315618,809.4258368950042,781.6950433059801,804.1802697420712
1731144109.292639,794.4134270464581,809.1105349984269,667.246138545694,803.9686276603237
1731144109.294945,794.8285720853601,808.8180507986411,702.7535050909325,803.7579887242545
1731144109.2965465,795.2441813798534,808.5364337745096,831.0705938369869,803.5489479058404
1731144109.3004537,795.659779063243,808.2542499461105,921.2189117197556,803.3415734794295
1731144109.304068,796.0748436554744,807.967425913756,882.0881695433116,803.1356871826076
1731144109.304361,796.4891511890619,807.6775912372585,739.8618294028108,802.9311385137912
1731144109.3082683,796.9027355877955,807.3878022794648,611.3459517566175,802.7279048024558
1731144109.310548,797.3157050985129,807.0998123966627,597.7136479049874,802.5260536513116
1731144109.312176,797.7281106392343,806.8137123959217,694.039485173722,802.3256700176454
1731144109.3160832,798.1399267804942,806.528814331632,794.5959697703533,802.126814758149
1731144109.3199906,798.5511102478063,806.2445174120844,787.1898175647943,801.9295238871028
1731144109.3229532,798.9616687146549,805.9606252696593,652.0915231338097,801.7338256351144
1731144109.3231857,799.3716762971325,805.6772295492414,480.6625368358614,801.539751187616
1731144109.323898,799.7811973987842,805.3944803008919,400.63633596540194,801.3473301566039
1731144109.3261511,800.1901424284848,805.1124511988761,472.8701107671566,801.1565790723535
1731144109.3278053,800.5981788615577,804.8311286648793,644.2097125172805,800.9675015547034
1731144109.3317127,801.004888866145,804.5504590122529,791.9145855766344,800.7801149601363
1731144109.3356202,801.4102604225911,804.2703897621634,820.42142430142,800.5944946993634
1731144109.3395276,801.8152364569648,803.9908849222311,731.3545804165099,800.4107912359688
1731144109.3417542,802.2216022345216,803.7119268596038,613.0843392197398,800.22915779968
1731144109.3418386,802.6304998240146,803.4335196730632,563.7741651093983,800.0495763372517
1731144109.3434348,803.0399095901538,803.1556898454381,614.2898897847701,799.8717008442458
1731144109.3473425,803.4433896549115,802.8784633619754,712.0620261478771,799.6949693789431
1731144109.3512497,803.8335738169754,802.6018088258984,772.6241082106643,799.519178231659
1731144109.355157,804.2116546536787,802.3255810877619,751.2110081468055,799.3452963183124
1731144109.3573573,804.5970055086283,802.0495509382351,676.4528526766888,799.1756543380814
1731144109.3579211,805.0231378842448,801.7735955543607,624.0725492670113,799.012404238624
1731144109.3590643,805.5077433821739,801.4979878229614,655.6708651843503,798.8541939860336
1731144109.3607235,806.0059888219604,801.2234949398998,769.8458002403125,798.6935241364041
1731144109.3629718,806.3927330238206,800.9508890756233,900.3053238493641,798.5195336136861
1731144109.3668792,806.5378488242508,800.6798009067838,962.5418912949807,798.3293678245825
1731144109.3707864,806.488560064703,800.4077107459317,917.7021123972278,798.142990620507
1731144109.3729603,806.6353755979579,800.1307263532539,807.503764823408,798.0044842973076
1731144109.374694,807.59767535863,799.84738632448,729.6551282156933,797.9500480979762
1731144109.3786013,809.6204001852391,799.5639715091821,765.4487868042364,797.9451150507045
1731144109.379609,811.7011684933202,799.2955968964072,912.1701936100401,797.8412653924272
1731144109.3825085,811.3309251168705,799.055878229351,1076.453616703282,797.4425428865867
1731144109.386416,805.9522549520236,798.8349739947854,1140.5014224481333,796.7320839322722
1731144109.3885634,796.0270743388902,798.5823028622196,1053.5902721428963,796.148998131806
1731144109.3903234,787.0749117152836,798.2246479542383,876.7542097328278,796.6003571821376
1731144109.3926566,787.1680870594448,797.7383818563477,741.9789131896383,798.902144042418
1731144109.3942308,800.2358992832909,797.2367984309492,753.4499003371004,802.8207778836535
1731144109.398138,821.0157812128382,796.9477519093399,905.4030811373705,806.5810005202073
1731144109.3984945,837.3782547297982,796.953608684124,1081.8090322077526,807.726145408578
1731144109.4020455,839.0668378257338,796.8118212642427,1142.4889958451065,805.0719533796166
1731144109.4041665,825.6517714366819,795.5263434884841,1032.123247392155,800.1588166025557
1731144109.4059527,806.8709503442313,792.2173050271542,826.0349709924011,796.6697489849381
1731144109.40986,794.9301308377696,787.1072985669292,672.4576513372548,797.972394512235
1731144109.4137676,795.064418187791,781.9447177233401,674.2714407223488,804.6825667619308
1731144109.41738,802.0670844074892,779.3666675518723,806.4039211327533,814.2233338109237
1731144109.417675,805.4934243643884,781.5087038064784,938.9588283722791,822.7102181705696
1731144109.4197695,799.0932116842175,788.6321918980761,947.8579971378505,827.6587562003597
1731144109.4215825,786.611339582409,798.5094287347933,819.3248158768863,829.4804209870015
1731144109.4254897,779.1004602915457,807.0256242639636,659.234196952134,830.7292805094615
1731144109.4273922,785.8037150607151,809.9999839146875,600.4612017328168,833.7208500113112
1731144109.429397,805.9815047350228,805.5329844319452,689.116530953559,838.3469493865377
1731144109.4333043,828.5387956838565,795.5315810989547,847.4464255738139,841.8514882563587
1731144109.4353726,840.1978942111189,785.1336743949993,943.666577104219,840.9190993523506
1731144109.4362652,835.9204140381596,779.939966515152,906.7477312758738,834.5597323041283
1731144109.4372118,823.0174431634099,782.6353381517469,786.3672987284816,825.4225288793974
1731144109.4411192,815.1594616389004,791.3434797147804,706.2421795655251,818.2140742086392
1731144109.4450266,820.8727207692491,800.996650719908,751.7369747884622,816.1971453876977
1731144109.448934,836.1432501767981,806.7698307551535,890.8496866367907,818.5116865441939
1731144109.4509757,847.6813763596534,807.0713829172826,999.7734422459534,820.7156204834345
1731144109.4528413,844.3586523342608,804.0489937358392,972.2124704256981,818.4843107814244
1731144109.4551504,827.1192174283739,801.5829662657196,816.1408090159188,811.6452879442675
1731144109.4567487,808.8047823769265,802.5061691003124,651.4468553231656,805.0411549191172
1731144109.4606562,803.899418984551,806.975323176136,609.332507432688,805.0472221289884
1731144109.4621277,816.7099615820025,812.7288719958581,720.9612536446475,814.2735120070777
1731144109.4645634,837.7291971884842,816.6157906779249,891.4501109309304,828.8701800574437
1731144109.4665787,851.0778752524063,816.2398349819739,979.9666694120095,840.9729183548893
1731144109.4684708,846.8712461790235,810.9110456659884,915.7070594489111,844.5054943875913
1731144109.4723785,828.5213305144947,801.7637010152056,751.7774459541678,839.5619927436705
1731144109.4740355,809.3270031224191,791.3092675704911,615.0776880444905,831.7319133028225
1731144109.4762857,801.5213921706753,782.6851335719604,598.7411070398126,827.0988929742945
1731144109.480193,806.9565051831886,778.6947379896703,688.965391350863,827.3129870612722
1731144109.4821818,816.895539467432,780.7575159745973,784.7188440704138,828.8455069627083
1731144109.4841003,820.5298359017771,788.1499551359582,788.482689627831,826.7335738418183
1731144109.4880078,814.5971475796317,798.0876505561298,688.277573160143,819.3470526479239
1731144109.491915,805.935492923887,806.8863938450104,563.2872424305767,810.1247034212465
1731144109.492921,805.1121242586943,811.703300434272,513.4972950274475,804.9395850863182
1731144109.4958224,816.7776532000543,811.7990018510178,576.7915923654377,807.2664190494352
1731144109.4968631,834.895071596985,808.4944699953136,702.2222840031866,814.959523039977
1731144109.4977849,846.8487549639351,803.9526712373238,796.6159901105589,821.2253609783137
1731144109.49973,843.2721737423847,799.7868434052955,801.4109707228779,819.2499120759549
1731144109.5036373,825.7917283801851,796.4963249393736,736.6633144531332,807.0956464873365
1731144109.5075445,806.2864912306566,793.8997961502312,680.2075727871347,789.1176191592863
1731144109.511452,797.8794737561212,791.898739728634,702.3956943171679,772.8549672776568
1731144109.5118065,804.7287578340785,790.7966928647686,808.9615291986755,764.0686650212878
1731144109.513388,819.0124792873636,790.9644266616511,934.8645319543552,763.9648641615602
1731144109.5153594,827.7237961486284,792.2507894048275,992.0206760811662,770.34337432861
1731144109.5192666,823.6599467669349,793.7286737409408,934.9122474940825,780.7748204342863
1731144109.523174,811.4061837860083,794.1176635109059,796.4686959002613,794.4875549974618
1731144109.5270815,803.3168616452905,792.7203366781471,668.0150914427592,811.4496340496536
1731144109.528991,808.8348059188318,790.2044327005628,636.2007865625824,830.0049090292068
1731144109.530692,825.9398234312124,788.4714512206452,720.509353871458,845.726891998964
1731144109.5309887,841.7934784878001,789.4665061845357,856.1790975057902,853.1020721769705
1731144109.5315986,842.3794320815875,793.739219804359,937.2186335501513,849.2095683835652
1731144109.534896,823.7967965077445,799.9400891554834,891.8110623817986,836.4317000256892
1731144109.5388036,796.2082262285509,805.7111695916251,736.5094919512259,821.3818562139578
1731144109.542711,776.7786707405743,809.2083465800724,567.0403358016663,810.4791454284849
1731144109.544594,776.650122794461,809.9816751763976,488.94330587407575,806.0767158152428
1731144109.5466182,792.2810398255826,808.6592213901536,539.3713019195613,806.3574569149524
1731144109.549577,808.4629597595781,806.061036834304,662.3043603571141,808.092276918971
1731144109.5505257,810.8479531829793,802.7681285538503,758.9388195495782,809.1403485934279
1731144109.554433,797.725854007825,799.4163004204854,772.4300097828325,809.0614130756182
1731144109.5583403,781.2476946123097,796.9925941395401,734.5124081352354,808.3871336730632
1731144109.560197,777.1111884746856,796.3700740478522,732.0756186571546,807.7236132389885
1731144109.5622478,791.3111730613507,797.3239740116326,821.9477021434913,807.3265971974847
1731144109.5661552,814.7897509156705,798.1716404687904,970.27748767099,807.1402298908287
1731144109.5663342,830.2120131325865,796.8357077576815,1073.4583963731156,807.0092011241828
1731144109.5684624,825.4737303680034,792.736982001616,1045.6003919204545,806.8323309462936
1731144109.5700626,803.4564387643035,787.8573353140562,896.7761526033925,806.5948451195221
1731144109.5739698,780.4173389234631,785.7361641680624,731.2516474043632,806.3282856505903
1731144109.5758002,773.9322271287302,788.8660451220801,663.1116341042982,806.0643478222099
1731144109.5778773,789.4180181090022,796.4931821735187,720.2245543400122,805.814945026492
1731144109.5817847,815.7933926706693,804.7604499994129,821.197540261184,805.5760019749505
1731144109.5856922,833.9828406930246,809.3049479106763,848.2435344658419,805.3390773799339
1731144109.5873475,831.6989318765247,808.2981985526117,753.7396876292129,805.0990898272807
1731144109.5895994,812.7846785555405,803.4317862742315,606.2728986199654,804.8555391429602
1731144109.5914032,793.9117896550604,798.1005609200928,533.8433129971909,804.6101641056895
1731144109.5935068,791.6663005805669,794.5111916582619,612.2416618455801,804.3645281489008
1731144109.5974145,810.2766052321861,792.3305443847111,795.2001099210286,804.119086489319
1731144109.6010697,838.974259478595,789.9217287274532,947.3555517292859,803.8734889828472
1731144109.6013217,860.1523237595828,786.7089856640824,953.1322969018638,803.6272461082236
1731144109.605229,861.643648638344,784.2063377425611,810.469925805373,803.3801372555081
1731144109.6062331,844.0957163253179,784.6824791662674,631.8110815221202,803.1322082252375
1731144109.6070063,818.6108811893571,788.8312752706928,552.6930678378193,802.8835041770292
1731144109.6091363,797.2344528028887,794.7853162879805,624.14373493167,802.6337925603477
1731144109.6130438,784.1723028843215,799.454771312858,776.5814607720308,802.3825449265079
1731144109.616951,774.7493391896677,800.9225822236809,882.3872484573518,802.1293570634454
1731144109.6208584,762.4303010846899,799.7171251627955,862.7781040944294,801.8746767446459
1731144109.6226094,747.0761614848468,797.9980323200713,749.6186956897433,801.6201894753318
1731144109.624766,736.4554937655215,797.6544301330223,652.8989167622871,801.3678916244698
1731144109.6251185,739.2900380625056,799.0595857831207,664.6693086692123,801.1174923028785
1731144109.6286733,756.1455480625117,801.2748321246708,781.6230141602209,800.8637134193204
1731144109.6325805,776.7498849965871,803.1110241608216,909.4354370844951,800.5972703003231
1731144109.6358051,786.7521019565216,803.9843229472127,942.2588264185563,800.3129796647835
1731144109.636488,778.6906601901467,804.039961730512,850.5651772162939,800.0226581404448
1731144109.6382124,758.2337358571708,803.7546905075792,707.0264249128652,799.7604157139746
1731144109.6403954,740.4690938428629,803.5110816563126,631.5007626589877,799.5625620104369
1731144109.6440036,738.8782181570939,803.4358998199054,698.9986841002967,799.4176568900008
1731144109.6443026,755.40989142737,803.4744665453392,881.07140394068,799.2197015739761
1731144109.64821,779.3634246866305,803.5307945952203,1064.2562434343067,798.7966485856151
1731144109.6521175,796.013046852453,803.5519415508284,1131.2132409676055,798.0725965700422
1731144109.6538155,798.1288812523936,803.5368217658918,1044.1887439551754,797.3049129580629
1731144109.6560247,791.0659847634466,803.5074136328537,869.7780816265539,797.1500127804433
1731144109.659932,787.3201735964186,803.4819146408948,728.4261551999263,798.2319171729162
1731144109.662889,795.2809451525466,803.4655464064347,707.7486456400695,800.1720867606524
1731144109.6638396,811.8008949724499,803.4547041263241,803.4998095745486,800.7481958324784
1731144109.667747,824.876014903399,803.444253198822,928.6843541298452,796.4895731218146
1731144109.6694183,824.0970221468792,803.4316207338076,980.2210243403731,785.4843217452445
1731144109.6705406,809.9682007825473,803.4169533334183,912.8397281793185,770.8267154653195
1731144109.6716542,794.1164928268583,803.4014855998324,768.1327279868124,760.8914218187784
1731144109.6755617,789.9856891926795,803.3861590380051,640.534021789583,764.2256520340491
1731144109.679469,801.6397366613361,803.3712116003787,606.7261784862735,782.311888563606
1731144109.6817744,820.1531362366271,803.3564409513572,670.8059193503648,806.8882612041172
1731144109.6833766,830.9465191037854,803.3415927755804,766.3548749543216,825.1974203675435
1731144109.6850214,826.1661380639968,803.326560009443,813.878162713808,829.3466415468238
1731144109.6872838,811.6646159185588,803.311376034111,787.7747643225428,822.0265394899764
1731144109.6911912,802.4862310285182,803.2961234767874,737.0421042784736,813.8358979405684
1731144109.6950986,810.4635708248976,803.2808642093943,740.4998329341507,814.5186149023676
1731144109.6990058,834.2062356468394,803.2656232957854,833.1624906334636,825.3109736198081
1731144109.7006245,859.6787830522014,803.2504070709881,967.6437371935241,838.3845176066748
1731144109.7006598,870.7732669793804,803.2352237405213,1046.9436919100551,843.4562762539795
1731144109.7029133,861.3846348443695,803.2200884582849,1004.1642368646542,836.0668848946061
1731144109.7052765,839.6753045683541,803.2050135472174,862.4100473731955,821.0725770456363
1731144109.7068207,821.5083068201317,803.1899977349177,721.6304656851614,808.9138704734597
1731144109.7107282,818.3050429895449,803.1750320193537,679.3999990788088,807.8483708037202
1731144109.7146354,828.7552764424523,803.160130004347,750.4345171267988,818.2176096736233
1731144109.7162275,840.7956285229905,803.1453650709236,854.5401070250186,832.858412017753
1731144109.7185428,842.134487720586,803.1308670337255,886.4323542612561,842.7600706618359
1731144109.7195451,830.5950858246292,803.1167300538397,809.102064362096,843.2211050342689
1731144109.7224505,815.6159954405848,803.1028495022932,688.6491047061184,836.0144203759871
1731144109.7263577,809.7205704572511,803.0888316386868,637.365782800372,826.6735402570677
1731144109.730265,817.3989402481774,803.0742041044185,713.0829442390495,819.690056108058
1731144109.7318306,831.0503853643484,803.0590199498747,863.7853482091823,815.4774134827562
1731144109.7341723,837.4542297306618,803.0444988462251,968.0473824593203,811.1298753907698
1731144109.7380798,829.2043953533437,803.0328225577631,937.069166240776,803.9616288761591
1731144109.7384305,811.464757985197,803.0252600859264,789.7521944787727,794.7243485511083
1731144109.7400117,798.3985098487924,803.0191321196999,636.7560600187584,787.6815300863102
1731144109.741987,802.026528134444,803.0064873774645,588.7825225781595,787.2240294081803
1731144109.7458944,822.3388972862699,802.978684305522,667.6176141251414,793.676523107195
1731144109.7474337,846.670574609079,802.9380464144741,793.2570667118847,801.983388817072
1731144109.749802,859.2183145029406,802.9090160613739,854.752986200883,804.905682285879
1731144109.7537093,853.3802683667801,802.931880035979,803.0428659099456,798.5722677928652
1731144109.7573156,836.8806012316824,803.0249239207482,687.9660012593308,785.8844678429284
1731144109.7576163,825.1805242262658,803.1277047516243,610.6194266374054,774.6878027958332
1731144109.761524,828.4313159788877,803.081486486155,634.0013861238843,771.8880875912002
1731144109.7630367,842.9168749679116,802.7203548056423,728.8433427733,778.1644129942282
1731144109.7654314,854.2636727869217,802.0743898884004,799.654661681127,787.510592923623
1731144109.7693386,849.6436602157661,801.5201303559911,766.8880338372363,791.8850184767314
1731144109.773246,828.6333576326219,801.6239020172724,634.6923372230365,787.2337196759283
1731144109.7747471,803.840335013688,802.6493166575665,488.43181856209026,776.3552971346744
1731144109.776201,791.1417086606688,804.1332636652329,426.48477647985624,766.7760866501801
1731144109.7771535,797.6359333561095,805.0438391769145,483.9626135869778,765.507097908907
1731144109.7786398,816.7226041147165,804.5354839357313,609.407960594188,774.4893648674763
1731144109.7810607,833.8034615900775,802.6756358363284,710.2840128150096,789.6924934798893
1731144109.784968,837.878439716382,800.4513233462219,727.7585222574592,804.1613929600586
1731144109.7888756,829.865456088669,799.0100724786356,679.5417432198724,812.708715986054
1731144109.792783,821.0988930436753,798.830534144616,637.5930575991157,815.0584982235949
1731144109.7942429,823.3389176104165,799.5913950145524,661.9792965506807,815.4725011025395
1731144109.7950864,838.5604983753834,800.7889904485227,747.7393965889967,819.252574465619
1731144109.7966902,856.9174087234593,802.3590138150756,828.824796273408,828.4792778250229
1731144109.8005977,864.3744209751295,804.5505958839982,834.2021559102848,839.8648309685098
1731144109.804505,853.5109661558453,807.1487857255255,748.3586335921616,846.3783723637927
1731144109.8084123,828.718697195832,808.9552297377776,626.6837692623958,841.8068984517565
1731144109.8094826,802.0701046020519,808.2933803224192,554.4108310589967,825.1079262380636
1731144109.809846,783.8643745620632,804.285643165249,582.6203595303609,801.2783192461602
1731144109.8123198,775.7606349086508,797.7966094018195,690.67456900796,778.1286768760984
1731144109.8139718,771.701477243373,791.1371339927273,802.0961377865153,761.7173891412901
1731144109.8162272,765.1877595993843,786.692080465276,840.5425270653022,754.0616748053723
1731144109.8201346,756.2940333355048,785.5451121208459,784.2594052089474,754.2043476500257
1731144109.8240418,752.1091151897045,787.1043445899463,679.7792738961903,760.4221571535325
1731144109.825449,759.9221271055113,789.8241127926717,605.8566605736765,770.8029863166036
1731144109.8279493,779.0459244789176,792.2680915596449,615.0651013632228,782.0635096133346
1731144109.8318567,798.9544606927354,793.696945624345,696.5664272123596,789.1516571038458
1731144109.832857,806.2948189697614,793.9714645633835,787.3653712727735,787.6206563699409
1731144109.835764,795.4440897122322,793.1433250767723,823.1398502545164,777.4234299677928
1731144109.8396714,773.72209727481,791.1930596472511,790.0235896316742,764.3970263178927
1731144109.841052,756.5417319658854,788.0899400491661,736.826411530723,757.1370792346634
1731144109.8435788,756.0678705922844,784.0556558303564,735.6475862287762,761.0445252692426
1731144109.8442185,772.2287114514158,779.7933937761485,819.2621640083078,774.1621288683992
1731144109.8474865,792.9917027672634,776.4645807124991,945.9908023937555,788.2971880969029
1731144109.8513937,803.593093526327,775.3096909104615,1025.5752462525338,794.7738690546228
1731144109.8517425,797.6563248525799,777.0218052051621,990.8939420249297,790.4901932949095
1731144109.855301,781.7888989922282,781.2323239630089,858.1647223004898,779.7616920319413
1731144109.8566551,770.164618802464,786.5452956448197,721.6941941390585,770.7758216424188
1731144109.8592083,773.226308134501,791.2506143635225,681.3463408916942,769.5887873873984
1731144109.8631155,789.3385846864418,794.2766080450758,760.0084597745451,776.223716079117
1731144109.867023,806.12837894748,795.632064132835,881.5399632637501,785.479695400897
1731144109.8706276,810.5979491882068,795.9751997583338,931.4958658627556,791.3374255402476
1731144109.8709304,799.8974731578056,795.7696766126468,852.5850619869927,791.3831031815238
1731144109.8722582,783.9879561986294,794.8966029228123,695.2581560873498,788.1666615281721
1731144109.874838,778.0022544491511,793.0858704564074,579.4324304534575,787.0160603213096
1731144109.8787453,790.4138540619347,790.627004997887,597.0318815486733,792.2551744614876
1731144109.8789537,816.327058757051,788.5261006885518,735.3274032949942,804.4238683115108
1731144109.8826523,840.9899570911097,787.9134103824595,885.5791132357607,820.0761451074435
1731144109.88656,850.6632976646658,789.3197163633961,931.5800747046092,834.063486378049
1731144109.8878613,842.4553993747683,792.4978062484415,845.3492474367428,842.7563644547889
1731144109.889513,825.6429104929182,796.7784259707339,709.5033605621472,846.0055187412016
1731144109.8904672,813.5751555288067,801.4182756096783,646.6295261614025,846.3600268941893
1731144109.8943746,812.6656085231779,805.6453495591028,715.2446965750748,846.1088162350462
1731144109.898282,817.47055180519,808.6861577207632,860.9735985977319,844.7142801309388
1731144109.9021895,816.0470896554918,810.0838703481581,963.7101326067756,839.1915029295888
1731144109.9034643,801.1748265594448,810.0460638761882,938.6237056130444,827.4872913173078
1731144109.9060967,777.8473645846598,809.3232328864137,804.5537463243785,811.954010662765
1731144109.9083984,760.3987099175861,808.6624061203751,664.6882809565413,799.4283367234369
1731144109.910004,761.3274824801503,808.3873701661337,619.8981911352303,797.0627703118269
1731144109.9136891,780.8835214126149,808.4178608206587,688.5660713243271,806.8101194654512
1731144109.9139116,805.9969785308855,808.5359251430779,797.3947318752995,823.0750410185498
1731144109.917819,819.7058502980148,808.5960067291187,848.0167743191581,835.9290946450042
1731144109.9190674,813.844216800088,808.5731185775145,802.9243175723064,837.9025983712689
1731144109.9217262,794.9989909236357,808.5092237755739,718.6810918083219,829.219775902498
1731144109.9256337,778.944621039394,808.4486844071523,697.6025533604128,817.245669349347
1731144109.9272835,777.9960817990776,808.4091235685174,797.7717345128715,810.4912261123085
1731144109.929541,791.5223940461215,808.3856430486436,978.0523805948471,812.0928813839766
1731144109.9334483,807.2626323547571,808.3667192979265,1126.2244945270102,818.159965577064
1731144109.9346704,812.1064012622866,808.345179063742,1147.7073594131036,822.1059724999025
1731144109.9373558,803.2188716059713,808.3201997001119,1041.0202763731927,820.8223189613913
1731144109.9412632,790.3635429340725,808.2942009308895,898.2972833916511,817.1598357722329
1731144109.9451706,787.7837272830832,808.2694826439914,832.3260852160565,816.8538548301643
1731144109.946169,802.4808118029603,808.2468542978439,890.3571464864202,823.1433814751218
1731144109.9484246,828.2771212692105,808.225976935988,1021.8336023013717,834.0831352459649
1731144109.9490778,850.1652274212337,808.2062278700373,1121.3804768683538,844.5611112791526
1731144109.9502735,855.4512519478493,808.1872497347358,1110.2638449830454,850.527674070332
1731144109.9529853,843.1531320681887,808.1690201990504,993.4853427023257,851.4269749005325
1731144109.9568927,824.4769812046353,808.1516709285253,851.5478252944968,849.3695288644388
1731144109.9608,813.9599997260991,808.1353111358279,776.5443081327859,846.8076518153446
1731144109.9647074,818.177982580802,808.1199646332815,803.4409277267013,845.013657485109
1731144109.9650545,831.0272417988655,808.1055991438991,888.7132973088027,844.0244397966145
1731144109.9658766,839.3783372629072,808.0921817323118,949.8444998188442,843.3445233732633
1731144109.9686148,834.3399880619475,808.0797101451586,932.0781572352325,842.5662443747259
1731144109.9725225,818.6891311989377,808.068201819158,850.1864448755341,841.5766886044772
1731144109.9764297,804.3369726633919,808.0576499400078,774.8746907525659,840.4609198336246
1731144109.980337,802.1783010661513,808.047981144675,776.103954429617,839.336176968622
1731144109.9814796,812.998015115943,808.0390688525972,866.742613072755,838.2603384289908
1731144109.98316,827.0036930667319,808.0308426562859,988.9375913292615,837.2296131315544
1731144109.9839396,832.2224461386226,808.0234550942016,1054.761466018374,836.2160618892144
1731144109.9842443,824.6712083361015,808.0173398118006,1012.8630996153613,835.1988060102256
1731144109.9881516,811.7566909860421,808.012935805267,890.8461592069193,834.1730260854268
1731144109.992059,805.9108762156154,808.0100382112017,777.1483491538417,833.1437926937335
1731144109.9959664,813.6998127608915,808.007224639001,751.5170275813832,832.1172323250622
1731144109.9970827,829.7889688622064,808.0022906278198,817.637943618581,831.096067831311
1731144109.999874,841.276149621624,807.9943991125713,895.7018768955045,830.0798264263888
1731144110.002825,838.8781616639048,807.9870925268804,886.5502325035063,829.0669254564316
1731144110.0037813,825.1888793230967,807.9889329683883,757.9011616909829,828.056263073217
1731144110.0076883,812.5879884102848,808.0076926551501,580.3138986203465,827.0476006886046
1731144110.011596,812.4459133230504,808.0379814953517,478.8958947952451,826.041181897347
1731144110.0126858,824.9276282393381,808.0515827799826,536.3163157704972,825.0372550541848
1731144110.0155032,838.1971360923077,808.0081110169343,725.161840872247,824.0358532283152
1731144110.0178957,837.8307931603429,807.897372557856,926.0465602422174,823.0368378008237
1731144110.0194106,818.7800122745167,807.793645636991,1018.3524673687233,822.0400561403522
1731144110.0217102,790.1823245723851,807.8579883942616,970.0198948244911,821.045466156558
1731144110.023318,769.0122526381707,808.2138269302046,852.8398171251257,820.0531343490792
1731144110.0272255,767.3593893865423,808.7010442612392,772.5043447611156,819.0630781744285
1731144110.0282888,783.264142367897,808.6816886134831,776.0830920188005,818.0750281646336
1731144110.0311327,802.4641973664841,807.1768825274313,818.6863748916031,817.0883333474794
1731144110.03504,809.81597203767,803.4299361465263,816.6035044339768,816.1023021986051
1731144110.0389476,801.2513286757937,797.5570201299712,734.5456308395723,815.11703963387
1731144110.0405955,786.5546691109861,790.7354482156807,623.7954238935187,814.1342192050544
1731144110.0428548,780.77420294209,784.7153008243722,575.2312342815779,813.156589659956
1731144110.043892,791.4868314800412,780.9848583055634,631.6215191580843,812.1852614237893
1731144110.0467622,812.4569865068006,780.1330584222068,741.7371384190072,811.2157751936725
1731144110.0506697,828.7594607332821,781.7354786243394,800.2650142925978,810.2370513083305
1731144110.0526311,828.9356141542617,784.7213842398281,739.1641652700134,809.238567232464
1731144110.054577,814.1370104304003,787.9301296161784,589.5053191096636,808.226244380096
1731144110.0584843,796.8945612855716,790.5376987770197,458.7271221099715,807.2355065714097
1731144110.059481,790.6942968770504,792.1834275575084,442.2928749754642,806.3187866511875
1731144110.059495,798.9470043297604,792.8374454645464,545.4570110703327,805.4917814055635
1731144110.0623918,812.344916529261,792.6047806410572,681.563617912986,804.6619650944335
1731144110.0662992,816.7684787953782,791.6773963766409,747.1310316132358,803.6200633708311
1731144110.0702064,805.3007733157391,790.4874403577629,708.5717287897901,802.191375800838
1731144110.0741138,784.4731864768457,789.8611509793419,626.965649340343,800.5420138809164
1731144110.075098,769.5290980966479,790.8423315841967,602.1018549932785,799.4096042309684
1731144110.0780213,772.5035554188499,794.0604749651749,685.8916270620336,799.8512648200399
1731144110.0783665,792.7471917141954,798.9945549767608,838.2295945027796,802.3221680693982
1731144110.0819287,817.3699131589944,803.8071041268662,958.8904471686647,805.6649572310979
1731144110.085836,831.0086964039831,806.1622060620084,965.5733475711909,807.2097905301362
1731144110.0873666,827.1136240145405,804.6567936333751,854.6819811140142,804.5299456271316
1731144110.0897434,812.1345681521555,799.8374258429493,700.1972760131043,797.6835456240645
1731144110.090701,799.7397212956331,793.9299456894583,596.0455834686096,789.8500732268816
1731144110.0936508,799.833479297527,789.3769832923721,588.3520783368642,785.382548134612
1731144110.0972517,810.968298890706,787.2646133653992,647.8781904256314,786.5745801568667
1731144110.097558,822.0153666164399,786.8389166820098,700.3206372508616,791.8293080079859
1731144110.1014657,821.6792327540655,786.4299700304589,688.2982195813205,796.9724309809405
1731144110.105373,808.124706874028,784.9720281627523,616.08509132528,798.7219084345284
1731144110.1063042,790.7752060869886,782.889925415307,543.4156666534006,797.2353088673354
1731144110.1092803,782.7342940974924,781.7164552453888,535.7292210485161,795.3763849235298
1731144110.1131876,790.115672985391,782.8488034951654,611.7814126766368,795.4459405269974
1731144110.1161368,807.1538928096851,786.4642425925986,729.149691372101,796.6666818535587
1731144110.117095,821.0843674054192,791.3641758953593,816.7178161505833,796.0663659565286
1731144110.1210024,822.6628669261631,795.725801118428,827.9180382038919,792.0133988272723
1731144110.1219072,813.6329168199304,798.1273297563818,775.210324265611,786.8041306008973
1731144110.122102,805.0172292133102,798.2024614580673,720.968975644172,785.3336246354334
1731144110.1249096,807.6027622025741,796.6825493257533,730.4550432438853,790.6217013086886
1731144110.128817,822.4422904867407,794.9371781626189,819.7888795226289,800.2742729234611
1731144110.1327243,839.3966939448222,794.2480416313568,938.3646063231256,807.4948203308919
1731144110.1350222,845.2442429679362,795.1169629946247,1003.098995333506,806.2415988540275
1731144110.136632,834.7671769257015,796.9959663125744,962.4437373384869,796.2631970127544
1731144110.1375103,815.3889746049649,798.7072594406723,840.6332023844396,783.6561984648259
1731144110.1405392,801.1871208946962,799.3424752806775,723.6023870471848,776.3464214737872
1731144110.1444466,801.2132846014729,798.939847165773,693.6721028814148,778.1322658724777
1731144110.148354,812.0612912469949,798.3188316880887,763.8247316337934,786.0474681923715
1731144110.1522613,820.9898296586125,798.1915617216619,865.4745574303955,793.0133831044145
1731144110.1531134,816.8288096219954,798.3991513887379,901.6156694899933,793.4909134964013
1731144110.1539075,799.4081072200337,798.0603359491723,824.639152264119,787.5902225572842
1731144110.1561687,779.775625455425,796.5524018475828,677.462141864433,780.5333326455161
1731144110.1568377,771.2560670272109,794.3961339055749,563.6912279611936,778.1518874650986
1731144110.160076,778.7522509800443,793.1401621997919,567.2468833386318,782.1698091888119
1731144110.1639836,794.9189104381313,794.2482634547188,683.9870253576619,789.0459949828947
1731144110.1678908,806.2923970711527,797.9208740842837,823.0495209218539,793.1968101283971
1731144110.1687164,804.4714889075402,802.8340458147103,881.3819354176691,791.7996843796142
1731144110.1717982,793.19344372506,806.9375233008232,831.0719330703738,787.0384885823743
1731144110.172793,785.24261243405,808.5849825321059,742.579076647509,783.8885908274392
1731144110.1757057,791.4736164972437,807.1812258166975,719.771073728083,785.6210979151554
1731144110.1796129,811.069447368502,803.1384596835609,802.4100018323364,791.3191134172299
1731144110.1835203,831.4430476982781,797.4913294883279,924.6578617295149,797.4382185849475
1731144110.1843195,838.1556093339444,791.5477960755364,969.8884502170896,801.1782459971012
1731144110.1874278,826.6902972050817,786.6614936069625,874.9026336899587,802.1826801865967
1731144110.1913352,806.3426050872258,784.0303911879773,691.1355447710174,801.7496439003995
1731144110.1915731,793.1021965690409,784.4520503376082,547.955353046009,801.249327763954
1731144110.1916783,797.3120032173736,788.0474864457209,548.1641318498702,801.2826325907687
1731144110.1952424,815.7762598157652,794.0560776167654,683.1649285969039,801.7624713605325
1731144110.1991498,834.2750223506638,800.9147921305722,838.5318959800697,802.3663248580195
1731144110.1999226,838.4737876637703,806.806932582128,886.4874739555481,802.8738799627376
1731144110.2030573,824.9388535244085,810.5301192176079,790.4078092541263,803.2469980852065
1731144110.2069645,803.8194593419399,812.1024832414997,635.0146339895891,803.5498390158854
1731144110.2105634,790.993064754426,812.5262174158312,555.7403993580475,803.8504732861313
1731144110.210872,795.6966972852756,812.7835216776331,625.1969384463838,804.1761059901144
1731144110.2147794,813.4519809986622,812.9322948434257,792.1680198670201,804.5193517423728
1731144110.2155256,829.9873296194621,812.2209948080578,924.2626393332267,804.8625417551443
1731144110.2186868,832.9080010354174,810.1926193554791,916.8027576888453,805.194597145994
1731144110.222594,821.5385511343015,807.6491918037462,775.8669217575981,805.5141652163319
1731144110.2263086,807.0500885127085,806.3143704850072,609.0885259453673,805.8248915471811
1731144110.2265017,803.1001176185023,807.2732520328912,537.2094154670048,806.130265120297
1731144110.2294488,814.7768848950999,809.6029729646203,601.9317866050949,806.4314998197949
1731144110.230409,834.6029103161865,810.644367019356,742.1478377532111,806.7280451134876
1731144110.2311287,848.4502573533427,807.9708896972877,851.0777998629599,807.0189108542472
1731144110.2343163,846.4584775263364,801.5453434890458,863.2487795679708,807.3035192393892
1731144110.2382236,830.361942866518,794.2338750710593,801.1898748178519,807.5818232953576
1731144110.242131,811.640708766235,790.0791400900022,748.0142278620821,807.8540283208105
1731144110.2460384,802.2198910178785,791.5196224621966,772.7453623024155,808.1202973261824
1731144110.2467318,805.329360984388,797.6266304340267,871.8567195717322,808.3806153143291
1731144110.2483342,813.8503355871325,804.6788856325841,974.351721735888,808.6348174129487
1731144110.2499456,817.2328355216096,808.5984117365881,1003.5437605274194,808.8827326660404
1731144110.253853,811.021347009417,807.4007467154689,942.4534742164054,809.1243802334506
1731144110.2577603,800.9575494581162,801.9868731551007,849.0353943148901,809.3600926891347
1731144110.261044,798.1751363487845,795.083952198816,810.2241080937425,809.5903664986321
1731144110.261668,809.4150994899525,789.5257904517304,872.7352508942143,809.8153174586287
1731144110.2623348,830.4252351986361,787.153369498269,1004.8025667224674,810.0339939675612
1731144110.2655752,848.2804778963518,788.610829649209,1117.346136920864,810.2443363571691
1731144110.2672195,851.133161754776,793.4790341857394,1128.3769975019288,810.4446874454882
1731144110.2694826,837.6364951835286,800.3443135995066,1023.5258258956503,810.6367165356722
1731144110.27339,818.1800790762308,807.0460768048887,868.2205000099199,810.8273861961832
1731144110.2772973,806.5985587151345,811.4618727099304,761.0737398999288,811.0258366366893
1731144110.277938,809.0643083161115,812.5686320897337,761.3430719385906,811.2329753216212
1731144110.2812047,819.5147699668195,810.9763122095648,844.6870837257932,811.4292262283648
1731144110.285112,825.4994713394697,808.4196197201567,921.9720322498122,811.5758007321457
1731144110.286105,819.3193276319394,806.5799759136297,907.9414531871919,811.6455655040229
1731144110.2890196,804.7868143966558,806.1646086346755,787.6928500389712,811.6778549820766
1731144110.2929268,793.86232080025,806.8448520367767,630.3569497183418,811.8091838735065
1731144110.293541,796.1629309982026,807.8545994747894,539.2929708045529,812.2028514311378
1731144110.2957797,810.2648094353699,808.6019602386351,575.3861665402699,812.8444405228126
1731144110.2968342,824.1089799049756,808.8811337693452,710.650827098757,813.3188839554919
1731144110.3007417,824.3746593864809,808.7628131544391,848.7941239174723,812.8572982353908
1731144110.3046489,807.4557035636584,808.4303630600323,899.6676163134114,810.9082109309682
1731144110.30499,783.210376770283,808.0654678263836,849.6972500291865,807.990293471443
1731144110.3085563,768.1219779889836,807.7355600526945,768.6239387693674,805.8475995270118
1731144110.309144,772.8795253156247,807.3010823528265,743.9971544931027,806.1123828447579
1731144110.3124638,794.129469810446,806.464999339881,799.8876783639294,808.4112931432624
1731144110.3163712,817.1431876720288,805.0140713384243,874.2690737369178,810.1354489388922
1731144110.3202784,827.4060541400959,803.1160983507547,877.8336345577586,808.6266442657807
1731144110.3238754,821.7466414735843,801.4427219421617,781.0039630660901,803.7905154857004
1731144110.3241858,809.9471391529564,800.9464975980532,648.0243435906357,798.5416611008927
1731144110.324747,805.7108866257597,802.2810496176569,584.722206951718,796.5593292547452
1731144110.3280933,814.7013800819137,805.1043672569878,645.2286901373981,799.2208701452105
1731144110.3305151,829.6542058481378,807.7849199773955,780.4450982732661,804.2200779205658
1731144110.3320005,836.5270610645638,808.0358119607262,874.9395451165299,807.065180227946
1731144110.335908,826.4612418881849,804.4250114650368,842.4258524804773,804.4981190082304
1731144110.3398154,803.572377867209,797.8002678462913,699.2929046208451,797.3476880467795
1731144110.3403502,782.1019185049337,791.310706717575,553.5867023487295,790.522834435807
1731144110.3427608,775.2947862967472,788.5776544191527,518.147474023185,789.8331400877096
1731144110.3437228,785.1866793342109,791.1712104013498,620.8435702041046,797.7893676491086
1731144110.34763,801.578270941224,797.4061888794004,786.585693346097,811.5280750659742
1731144110.3515377,810.6010066990353,803.5467804092527,902.7661143286457,824.4991374401623
1731144110.355445,805.2480124505125,806.4705308157505,907.7633168414902,830.6236201773975
1731144110.3559532,789.1824443547878,805.5990328841898,826.9859191019214,827.7786144077361
1731144110.359352,771.878639792605,802.6707706141258,735.1572481861355,818.3446514313462
1731144110.3616462,760.9942501762652,799.9077701522477,691.2873959849405,807.1810542458452
1731144110.3632596,759.057616675471,798.363214605782,706.8222411255741,799.1108109348269
1731144110.3652506,765.5411660627096,797.7043071313393,761.2541081147729,797.3757274229852
1731144110.367167,779.465436179694,797.1710264680456,830.7258006784559,802.8836572921118
1731144110.3710744,798.5188455138909,796.5027923033608,895.9191355528078,813.643403969123
1731144110.3715563,816.6062540401279,795.97349548162,934.02550007859,824.8497877337501
1731144110.3749816,825.0042608787584,795.7500429483807,922.2201054349933,830.7280915885383
1731144110.378889,818.5316008182778,795.4650398171923,860.2314152170933,827.9888956115658
1731144110.3805315,801.5263589766955,794.5601823947112,786.5884884330975,818.6223059184675
1731144110.3827963,786.7867325169626,793.0178474646095,761.0270911598093,809.3039803190165
1731144110.3867035,786.5511294623988,791.5727769987456,819.1487550460178,807.0022952871967
1731144110.387159,802.4849806870518,791.0144915994492,937.4642033241048,813.7032625470991
1731144110.3906112,823.5581816057394,791.2608187817037,1042.6201245428426,824.4318048584727
1731144110.3945186,834.3531192101038,791.2936682407916,1061.8291070343746,830.5093610348949
1731144110.398426,827.3211967018101,790.2175059298986,976.6297319447476,825.9103541818936
1731144110.3994167,808.8931773867791,788.4554615635825,838.4846931203243,812.0149465658536
1731144110.399986,794.3285547989102,787.8075713426546,733.3420790816194,797.1215759402822
1731144110.4023333,795.4665848061674,790.1175055835457,720.1034781634686,790.9446844743824
1731144110.4027624,811.3691422002481,795.609007201375,787.7243994143607,798.039523112378
1731144110.4062407,829.4896768399028,802.3132173515968,863.4469736662194,814.9267549773452
1731144110.410148,836.3413936119847,807.1399768979117,867.7159735888271,832.9506989667619
1731144110.414055,828.6845211800609,807.8442338880933,775.3916134813961,844.4956890643705
1731144110.4179628,815.7557452479454,804.4689782749646,636.3222622447909,847.5582619217028
1731144110.418302,810.739649804766,799.2892882553576,538.8341427796657,845.2382026564949
1731144110.4183657,818.9956209224908,795.4074760426827,543.9220218542409,841.297520742028
1731144110.4218702,833.2456374689168,795.0251029397087,640.098180792068,836.3336589405876
1731144110.4257777,839.7042828924724,798.4309501426792,752.2783639444614,828.1013305269778
1731144110.4296849,829.7359987434529,804.0752584609995,797.5088691371269,815.2455742185351
1731144110.4335923,807.2397023535248,809.4197293089079,746.4076322185156,800.4536774819559
1731144110.4339683,785.8570157697494,812.0346483611137,644.9471295036903,789.7480887631913
1731144110.4347217,778.4487035802167,810.5756753490235,579.1754643022684,788.286262962978
1731144110.4371874,787.21471506893,805.4040122276385,607.596549634683,796.1368148214159
1731144110.4374998,802.130596619694,798.5370074798104,713.0901726257503,807.5812239947703
1731144110.441407,808.971585162719,792.6801276046335,815.354306159977,814.7595064885954
1731144110.4453144,800.8001611245083,789.7012770416317,837.9607946774123,813.1088890306855
1731144110.4492218,783.7965657403305,789.6410734406471,775.3481346317893,804.5210657556096
1731144110.4495716,772.4035918021029,791.1015152437874,699.1996687015538,795.7331486016049
1731144110.4531293,777.3493336857408,792.5477993159387,693.755792339989,793.151540863467
1731144110.4560728,796.3300527198663,793.2650161991183,775.2472343209613,798.1669184758799
1731144110.4570365,815.3324745695502,793.3677739072838,869.9245928598413,806.5633459718755
1731144110.460944,819.8190107582814,793.2782415588689,875.492623604837,812.1996952369949
1731144110.4648514,806.6448520540423,793.2943562766353,754.7953523052904,811.748737324769
1731144110.465175,786.839740544023,793.4768886879157,578.1386703280249,806.7754157198968
1731144110.4687586,776.9277879277195,793.7474767276238,473.09042324278363,801.9378898102193
1731144110.4694571,785.8487506364511,794.0171730117295,521.2438040440072,801.1632055375711
1731144110.472666,807.9834674534875,794.2481411401935,689.0627530104134,804.8166111758281
1731144110.4749582,827.7137983053917,794.4481830401015,852.8476564517232,809.7266472566529
1731144110.4765737,831.7448287065655,794.6398523771047,899.022800269016,811.7894762584064
1731144110.480481,819.4049885568558,794.8379555666245,816.6397010401364,809.2392298563076
1731144110.4807775,802.8600205657225,795.0447200732223,703.7363497412065,804.2692427076518
1731144110.484388,797.2038326210057,795.255576863622,681.1231512841333,801.6729577903772
1731144110.4882956,808.4326898191094,795.4658923865321,786.8966765749012,805.1966868683879
1731144110.492203,828.92263027416,795.6739022687625,942.7846386562384,814.2184121053434
1731144110.4938433,843.8440011541134,795.8801791374608,1021.30697269146,823.5788118042182
1731144110.4961102,843.0570405563337,796.0859432212843,954.792807550515,827.1994878575304
1731144110.4963808,828.7913891970393,796.2919316593112,792.1007854492694,822.9183618774255
1731144110.5000176,813.1559527704488,796.4982155007461,656.4767818162425,814.5206937205182
1731144110.503925,807.9147297361956,796.704539154439,643.5701252831664,808.9337074292845
1731144110.5041926,815.064329278736,796.9106712776933,746.7332634254586,810.6414514350759
1731144110.5078323,825.7888921232958,797.1165376291585,869.129412066143,817.9980062814197
1731144110.5117395,828.3682516020905,797.3221726221104,907.1475086551806,824.6913410676921
1731144110.5119836,818.322622175467,797.5276232701025,832.4758233090039,825.164210389536
1731144110.5127287,802.3379097237639,797.7329034014213,706.449554242952,819.2687280054048
1731144110.5156472,792.6918603863369,797.9380180281091,620.4551157060864,812.0833228518845
1731144110.5195546,796.784351651937,798.1430150457535,617.5028905457885,809.1384969201478
1731144110.5234618,810.4920431351109,798.3479932013252,661.8687229760657,811.3670695067808
1731144110.5273693,820.9732950688151,798.5530140091997,678.7136553013734,814.2246418347333
1731144110.5275867,816.8195740717239,798.7579459607919,624.9090275688111,811.6095528890525
1731144110.5312767,797.5188924843153,798.9623925527585,528.7288988837706,801.0490995012746
1731144110.531614,774.7636570380779,799.1659199868924,466.9890829150491,785.7851667872718
1731144110.535184,764.4048710538742,799.3686446853101,502.19593133514616,772.2861201475386
1731144110.538928,774.8482539541683,799.5717986957097,632.0372377345951,765.5290206197164
1731144110.539091,800.4435844630499,799.7774202988049,789.1148185651896,765.9759841519227
1731144110.5429988,825.0789909683855,799.9864601895666,888.312259402551,770.4952058204108
1731144110.5431898,833.7932843052553,800.195955948082,885.5611694918517,776.0716546547288
1731144110.5469062,823.8089527174412,800.3981471158831,806.1064096670704,782.7788514777443
1731144110.5504994,806.1909322220268,800.5853918418102,722.9958631954828,793.1516270526557
1731144110.5508137,796.4511990012909,800.7614345020394,701.8118011405252,808.3993269045917
1731144110.5547209,801.6464081824805,800.9510725099514,752.570565432362,825.0365715175508
1731144110.5586283,814.8591114743645,801.1920565346962,825.3945049475404,835.5613933474367
1731144110.5587928,821.866733684364,801.4974628019224,853.1369536060934,833.4537691258513
1731144110.5625358,814.2152626472852,801.8041653983405,806.3984004849312,818.7892453850297
1731144110.566443,797.2371430039284,801.9641783434762,716.4913846979074,799.6731857832505
1731144110.5693848,785.9516349180487,801.8492540544191,649.3149023974408,787.639419870527
1731144110.5703504,792.3115301886943,801.5697911489517,653.384256345831,789.8919776085284
1731144110.5736637,814.6426467963997,801.6502867101426,723.7113975852042,804.0355930188136
1731144110.574258,838.2053495992614,802.875781517491,807.6590786485614,819.4342356713781
1731144110.574396,846.5255033447519,805.6795949758714,846.1993081616193,824.5104594663621
1731144110.5781653,834.2892918924865,809.4823346404189,819.3833328643179,814.7361618161437
1731144110.5820725,811.3119772206248,812.7694553199244,762.3368128146042,795.3843998426814
1731144110.58598,794.4008620178885,814.1251288508779,738.0104589085724,777.1006976706817
1731144110.58827,793.9307461940894,813.3298300551785,784.6987704907549,767.9875538106414
1731144110.5898874,806.2918086580861,811.4338173207127,879.3544019031077,768.5063218127194
1731144110.589999,818.2290612690442,809.7947706204732,950.4767203063564,772.8159756629406
1731144110.5937946,818.8401568147535,809.0862786411213,935.5910448034995,774.6048621653106
1731144110.597702,808.6360999577108,809.1140876168482,837.537679611488,772.0360667053206
1731144110.6016097,798.1205736737156,809.3256329564122,729.4154044906338,767.9855308505691
1731144110.605517,797.7966082175739,809.3427259148832,698.9739328351409,766.3875258385211
1731144110.605602,808.7639828964705,809.1117052612954,775.6294688490881,768.6436654687765
1731144110.607155,821.9707605842219,808.7603225558595,900.7931421181522,773.0881537312767
1731144110.6083992,826.2441170374559,808.4172046690292,969.138194974227,777.0859981365473
1731144110.609424,817.5920400295107,808.1318639862408,911.6347368694345,779.1946634919876
1731144110.6133316,801.5503938473552,807.8891507108649,755.35037441703,779.6377429046298
1731144110.617239,787.3383067436138,807.6556727876113,609.1203733032828,779.4194553225334
1731144110.6211462,780.399801274485,807.411083071819,581.2028121578029,779.3427749715878
1731144110.621205,780.0834830714398,807.1533555844962,692.7871653643873,779.6532526939869
1731144110.6250536,782.5839564239834,806.8895987802094,859.9240689968752,780.2135260918461
1731144110.6260407,784.7064774221244,806.6263969722664,962.2073997565406,780.8108591016212
1731144110.628961,785.381296946778,806.3659854113843,941.9736767265275,781.3342400957457
1731144110.6328683,785.0770867852249,806.1073232003052,849.35261100151,781.7862322625749
1731144110.6367755,784.6169118371281,805.8486011300897,794.5985838923986,782.2168717306557
1731144110.6368082,784.4574115327296,805.5887993100876,849.9924566773741,782.6655184033302
1731144110.6406832,784.6110308993838,805.3278631737809,986.5724354837885,783.1425091510081
1731144110.6431346,784.8911490613375,805.0661758415423,1098.6293261608448,783.6393990941074
1731144110.6445906,785.142152179296,804.8040579861272,1092.6760448291586,784.1450969340949
1731144110.644926,785.3190569824401,804.5415920948304,964.997786916231,784.6544534797266
1731144110.6484978,785.4526442749033,804.2786955209332,804.6160633440193,785.1682404744231
1731144110.6524053,785.5871441864782,804.0152538203838,721.313583440448,785.6894420991417
1731144110.6524112,785.7450521325615,803.7511958675341,758.5090807866662,786.2202787406245
1731144110.6563127,785.9255878275201,803.4864978302285,861.606318709155,786.7614050903198
1731144110.66022,786.1185769226973,803.2211575405152,926.7872931766592,787.3125438019895
1731144110.6638114,786.3162876613989,802.9551767418108,889.5234745332559,787.8733401641607
1731144110.664127,786.516992449073,802.6885583794809,779.4181132445154,788.4437776204727
1731144110.6680143,786.7227470350776,802.4213024560319,696.0618088375841,789.0241447545612
1731144110.6680348,786.9360717876099,802.1533845947822,726.6548217289206,789.614829983001
1731144110.6719422,787.1582347337584,801.884726828214,874.1278977877265,790.2161704296803
1731144110.6758494,787.3892961560884,801.6152024095369,1053.7247085285935,790.8284185832853
1731144110.67787,787.628882833032,801.3447200187393,1157.8872045191665,791.4517804923062
1731144110.6797569,787.876792067084,801.0733719705485,1135.3693585318879,792.0864606778694
1731144110.6826966,788.1331441121239,800.801514156601,1023.9998710496105,792.732681219761
1731144110.6836174,788.3982433738455,800.5295688627104,916.5631473760491,793.3906768169684
1731144110.6836643,788.6723999223268,800.2574685680445,889.6379165347784,794.0606820854636
1731144110.6875718,788.9558474089081,799.9840732023288,949.1825805664412,794.7429246320521
1731144110.691479,789.2487601056059,799.7073733441173,1031.312177908836,795.4376281834783
1731144110.6953864,789.5513092572854,799.4262269417517,1055.3040341932829,796.1450212482001
1731144110.6992204,789.8636998886624,799.1431392423127,987.5013040689545,796.8653409458339
1731144110.699294,790.186156668966,798.8654284596978,867.2974895835785,797.5988214530609
1731144110.701582,790.5188628481844,798.6009409310693,776.1952015200986,798.345666618018
1731144110.7032013,790.861899088548,798.3473134438811,775.1825488777753,799.1060273007196
1731144110.7071085,791.215265243523,798.0818294911019,859.2599743043703,799.8800225101464
1731144110.711016,791.5790499751818,797.767395047003,962.9941423898554,800.6678306574504
1731144110.7126057,791.9536892156789,797.3873047407717,1011.0149619678889,801.4698103057832
1731144110.7148235,792.3400543792792,796.996372646669,974.1309428367828,802.2865134862158
1731144110.7149234,792.7390187807837,796.7355677704106,889.0219551560822,803.1184295120066
1731144110.7188306,793.1504427860223,796.7397291242509,827.325345933548,803.9654740784589
1731144110.720467,793.5722825944279,796.9284124499299,837.854335633186,804.8266282423301
1731144110.722738,794.0012815728027,796.8219052525121,906.9909297800573,805.7004506038211
1731144110.7266457,794.4363374849389,795.6617873467869,970.1068025748709,806.5868761148773
1731144110.7304263,794.8831996907666,792.9987293084309,966.9302138076064,807.489393007946
1731144110.730553,795.3554319980649,789.4119827928099,895.7020682695613,808.4149345361582
1731144110.73446,795.8652876706269,786.5897074871046,818.4748150017816,809.3686112477586
1731144110.7383676,796.4043796889124,786.3853330559448,809.6830050372498,810.3440970421624
1731144110.7393527,796.9287091143876,789.5061944816978,890.0028276367102,811.3178793274312
1731144110.742275,797.375598214501,794.9527717758817,1002.6766184126038,812.2608582861882
1731144110.7460296,797.7302402310237,800.617723571529,1054.4189357206187,813.1734502661637
1731144110.7461822,798.1109561786628,804.4436541082075,987.4789639797197,814.124353423771
1731144110.7473412,798.7740842866472,805.2798182267836,822.4025016787446,815.2415076730306
1731144110.7500896,799.9249305201009,803.0929213464367,637.5386068470427,816.6050591364714
1731144110.753997,801.3527839686785,798.7464135647883,508.0549791364117,818.0681925188302
1731144110.7579043,802.1885750953563,793.6531886038371,459.64964934852486,819.1714038565951
1731144110.758238,801.3044226672513,789.3731401398744,469.36312311343727,819.4012585922765
1731144110.7616327,798.6388600973672,787.1004171475295,498.1325778902941,818.8820568589325
1731144110.7618115,796.789582512781,787.1354274705312,519.7354394306269,819.0925996259324
1731144110.7657192,801.0374111326593,788.6599861729154,528.1787506310139,822.6713705554145
1731144110.7696266,816.0963999639105,790.1206426130798,529.3650422191376,831.6055120888916
1731144110.7735338,840.7808855398074,790.1584341010725,530.4447191051496,844.6663902210116
1731144110.7771232,865.5955300749713,788.5315867937475,534.5791393048696,856.6665148304295
1731144110.7772355,877.6523373524119,786.3289228984423,541.2209557219342,861.3794712930303
1731144110.7774413,870.6129704588678,785.2435308015516,548.5645504305671,856.4996032588758
1731144110.7813487,851.1864625018708,786.4433210181639,555.3896026332902,846.3658697676855
1731144110.7820766,835.4995467652835,789.9074805215654,561.4891222926983,839.5275771129242
1731144110.785256,837.2657024845877,794.6364596746395,567.2207030521906,842.5845623365241
1731144110.7891634,857.0504728099055,799.3607130352127,572.9610122982119,855.1580023208857
1731144110.7928388,881.4726617279136,803.072657182733,578.8594499583284,870.2114821867947
1731144110.7930708,893.2918647326095,805.1131029061581,584.8742954421057,879.5929016043774
1731144110.7960086,884.541966991225,805.0972026085633,590.9076870308204,880.275152651198
1731144110.7969782,862.333675425808,803.0259969529767,596.8987379949938,876.1937919219151
1731144110.8008854,842.7653053196708,799.5095961619993,602.8404555680767,874.3400612737523
1731144110.804793,837.9460384441022,795.7093894452784,608.7533017932806,878.5611962171026
1731144110.808442,846.6978398268184,792.8234980717318,614.6566203115668,886.2571878070113
1731144110.8087003,856.4016860991752,791.4599971815757,620.5570479952498,890.5875319783448
1731144110.8126075,854.1933888665117,791.4276608207647,626.4516004556483,886.2899782605301
1731144110.814894,838.0534137284994,792.0735976279452,632.335272266952,874.411027070466
1731144110.816515,818.6339787058826,792.7969841969991,638.205774384778,862.1256509851555
1731144110.816812,810.4637808706157,793.3257877069126,644.0636641039987,857.5652052298681
1731144110.8204224,819.875695198662,793.6753451986549,649.9097596995365,863.4639358857067
