timestamps,eeg_1,eeg_2,eeg_3,eeg_4
1731142499.4570909,833.7077178579522,802.7156959350541,786.2148705455903,837.4317458351496
1731142499.461,834.0177765657969,799.8336804995317,784.7955368168928,847.411785437337
1731142499.4649093,833.7920323408409,797.6775319336298,783.4993052503805,854.3289665843129
1731142499.4688184,833.4275662892794,796.643552770537,782.2001235297977,857.3225848585748
1731142499.4727275,834.2698388135844,796.6594698853123,780.6747156866772,858.2738013922884
1731142499.4766366,837.6824419849703,797.3110620322882,779.0488555933873,860.3063002459044
1731142499.4805458,843.8636322913051,798.1319108262261,777.9819448063647,865.3541911530958
1731142499.4844549,851.0821193447719,798.8233674499094,778.2002548212779,872.5079999936675
1731142499.4883642,855.8668575242673,799.2361538222896,779.6529339934954,878.3842955453116
1731142499.492273,854.6957700189716,799.18603395526,781.0959225157786,879.4943843274651
1731142499.4961824,846.9741734046196,798.3730003913854,780.7209592249445,875.0983198497906
1731142499.5000916,837.240953904143,796.5985990818184,777.5590379146481,868.3511652893078
1731142499.504001,833.589769836055,794.1467353360086,772.5271625276664,864.5017973125274
1731142499.5044231,841.6991854664783,791.9144733765511,768.0388044242263,867.0611939761081
1731142499.50791,858.5937817105631,790.9913704564028,766.2352326967815,874.642455878386
1731142499.5118191,872.42335716748,791.8952522396213,767.2124786908314,881.1313544234517
1731142499.5157282,870.5098392998544,794.1280029586778,768.8401840002239,879.7128417167987
1731142499.519637,850.2954090519999,796.5795035431197,768.513091756705,868.2982199219608
1731142499.5210967,823.8619826082984,798.5603195966416,765.475692024123,852.280259351446
1731142499.523141,810.9078900185284,800.543772455306,761.7532057010728,841.9219296744443
1731142499.5232887,824.4141192021693,803.7995073883619,760.7992666097825,845.502735897417
1731142499.5235467,859.8753937598899,809.0548476327155,764.8420042114147,862.9210500032877
1731142499.5274558,897.1685189960644,815.3143723760143,773.0089586531446,884.856420019318
1731142499.531365,914.6950502290688,820.0266108322622,781.7148755233623,898.8970795226894
1731142499.535274,905.3300575672829,820.7168416484525,786.9883055939514,898.4965286007402
1731142499.5387185,881.3713043510234,816.8856930570607,786.9147230259796,887.7296874252575
1731142499.5391831,864.0939774732158,810.612581074498,782.4489820560862,877.7129533224004
1731142499.5421543,866.3439579975393,805.293631217798,776.3350988670469,877.4359792591854
1731142499.5430925,882.7238573506229,803.4512946670293,771.333727120535,886.6683092650653
1731142499.5470016,895.5368157764829,805.275130770174,769.1250532136189,896.8926098525573
1731142499.5509107,891.0841900863334,808.899862535579,770.2310648149742,899.2383463925954
1731142499.554296,872.0588785820747,812.0118003546062,774.3074096499078,892.3985272282728
1731142499.5548198,855.3718009897503,813.4218397618152,780.1752624793056,883.7675034943684
1731142499.5560002,857.4685973265541,813.4839466377415,785.7668166434624,883.0482219328024
1731142499.5587287,879.8435091668416,813.3163617266467,788.6574214675048,893.9088062656351
1731142499.56102,907.0879712369806,813.692370643222,787.3543676482561,910.6684478845349
1731142499.5626383,919.1955144453389,814.5187260612036,782.4936729375262,922.6983852417517
1731142499.5665474,908.038605325021,815.1567343089463,776.7427255778767,922.9658532836661
1731142499.5698736,884.432537663489,815.130981244395,773.1158941696435,913.8221423876915
1731142499.5704565,869.7129666621423,814.5543905216273,772.8591395680877,905.2426684383526
1731142499.5743656,878.3670691970788,813.9334033707545,774.6256376416413,906.7179189891295
1731142499.5782747,905.8166176008644,813.5692382798006,775.6683847306672,919.2512526166735
1731142499.5798855,931.512617640394,813.1151108731951,774.0721250501923,934.0867678276354
1731142499.582184,935.0516747313908,811.7364575003503,770.2223291952076,939.4303481889604
1731142499.5854511,912.3864030136707,808.8235221249506,766.466512990174,929.8127143010025
1731142499.5860932,879.1981046888295,804.6952046988142,765.4310231874323,910.4755152441002
1731142499.5900023,858.9004656672889,800.6499345899149,768.3342504858787,893.2678204516362
1731142499.5909035,864.8571886801666,798.20446876178,774.3427414177214,887.5513143424583
1731142499.5939114,890.6388976579561,798.0548682324286,781.1180352370793,893.5473315621546
1731142499.5978203,915.5860894695747,799.5845083173216,786.0324483579559,903.1970623984287
1731142499.5987513,921.0275121181033,801.3339717485854,787.3908416656701,907.2297180464129
1731142499.6010287,904.4266106351229,802.0729652627052,785.1543433009222,902.2768397982652
1731142499.60173,880.5204746949637,801.6466180129306,780.870097398266,892.3709525696487
1731142499.605639,868.7523595081454,800.9904458837859,776.7843784003381,884.1558011005407
1731142499.609548,877.1409881299044,801.3954619406029,774.5351976635018,880.2747229864093
1731142499.6134572,895.6005330819178,803.6675759943367,774.1926569404923,876.6398072546563
1731142499.6166062,904.0761527355479,807.8138916481321,774.3355096929948,865.8884116228066
1731142499.6173663,888.7998160402074,813.3427676264015,773.1874317142473,844.2063117148252
1731142499.617617,853.5262876390187,819.6882866137787,770.0330165739858,815.9450366171349
1731142499.6212757,816.9907403244798,826.2226646254867,765.8710458419008,792.1285520598257
1731142499.6251848,798.9555973916073,831.8795254669784,762.798327899292,783.5549885351317
1731142499.625807,805.7923773633626,835.0060690291725,762.5507413403548,793.2070426428847
1731142499.629094,826.2218387929664,833.988752148424,765.2619896739757,813.2794851454519
1731142499.6321838,839.7257016965397,828.4016778420514,769.3686237431479,829.0286145712822
1731142499.633003,830.8516772559161,819.6886112208434,772.761829213693,826.9907175784111
1731142499.6364822,798.8494216683794,810.5679107386359,774.3496815699234,802.1014138062374
1731142499.6369123,756.1427780276421,803.4293442278757,774.8813458103615,759.1595127719892
1731142499.6408217,717.8235991604475,798.9799331537532,776.47571443244,708.4170045007882
1731142499.6447306,690.9926800737555,796.2688187060111,781.2943398588241,659.3551911912197
1731142499.647761,672.0884801373978,793.9996308115442,790.3494747231737,617.2199022953666
1731142499.6486397,652.9997713202698,791.8655542165703,803.1545632240236,583.482012386067
1731142499.6525488,629.3420247591112,790.6778893683497,818.1972255672594,557.8105155382293
1731142499.6553478,603.3970430958472,791.2733764702049,833.7077573197373,538.8821449129225
1731142499.656458,580.0949098291906,793.3584402745045,848.2018570607993,523.8357878165506
1731142499.6603673,560.9561330975249,795.4378183420247,860.6193054805435,508.0802207822056
1731142499.6607106,542.1255419999364,795.8757457718137,870.240527746885,486.66509441729477
1731142499.663339,518.212748318984,794.0899721003411,876.7099249004502,456.7426255577725
1731142499.6642764,488.241273358454,790.846579362568,880.3237114811699,419.6583223680746
1731142499.6681857,458.2437012017532,787.513626619734,882.3357732426871,381.3345426353445
1731142499.6720946,437.91727665770236,785.0374051817948,884.7552660453288,350.3560359573575
1731142499.6742134,433.6476703013933,783.5265592466666,889.3719902181277,334.26929095130976
1731142499.676004,443.30273196580174,782.6480773740504,896.5127765914062,335.81731802892193
1731142499.6789165,457.1651350380751,782.255462955282,904.6025661242666,351.36280962944846
1731142499.679913,464.84751695310644,782.534559035278,911.2071820848722,372.83040309626784
1731142499.6838222,463.2455393433287,783.557889761105,914.9590197354869,392.3645072529197
1731142499.6877313,459.2835280991646,784.8206502510081,916.7368271311167,406.9174189368312
1731142499.6916404,464.84212619154795,785.3626388341731,918.8575194752306,419.66629796262214
1731142499.6930792,487.34876466267036,784.4500802068791,922.7667714110489,436.9980033642822
1731142499.694494,523.208006728339,782.1886218250919,927.2729935320816,462.8221863461559
1731142499.6955495,559.3909032268045,779.4732319126826,929.1523394948556,494.2530106545442
1731142499.695614,582.4071502801438,777.2804738283098,925.921720638041,522.4132819934662
1731142499.6994588,588.1562360617495,775.8939431130026,918.4801659474192,538.7256746721077
1731142499.703368,585.0907515442865,774.7218413970854,911.1377971848033,542.3879737207993
1731142499.7072773,587.8119527851541,772.8734585844262,908.6305284517402,542.6640304493005
1731142499.7100716,605.64697195387,770.0164001760664,912.3460992642885,553.0617634262076
1731142499.7111862,635.3106886400687,766.785950963656,918.8599596561419,581.4929841479888
1731142499.7119448,664.1177831448912,764.3967757875414,922.1481134422859,624.7115272112093
1731142499.7150955,681.557537322988,763.7889142658812,917.8828006144053,671.8980659549259
1731142499.7190046,689.3265725409705,765.0088030622304,906.4692174517601,713.8335207021955
1731142499.7229135,700.4414087659017,767.2688417208069,892.4408614813042,748.9424183486084
1731142499.725649,727.3597550484802,769.5323388292983,880.7848324847959,780.9303624491193
1731142499.7268229,769.2459547919416,771.104082297628,873.2740227769159,811.271181271091
1731142499.7305174,810.0971323162121,771.848250118498,867.7702669445433,834.7444598182615
1731142499.730732,830.4274418051167,772.063953708844,860.8153998268103,842.9137790111877
1731142499.7308104,823.334809161019,772.2817528409995,851.0130967925736,832.5625986533204
1731142499.7346413,801.4260427495695,773.133037207372,840.207405962261,811.257860775454
1731142499.7385504,788.1165348016652,775.2144145920236,831.5956592494174,794.4783438284403
1731142499.741227,799.5880041739865,778.834639417952,826.6343228911331,795.7962766850685
1731142499.7424595,831.7977366709833,783.7361365394993,823.50819599359,817.5043022201914
1731142499.7463686,863.5202281607309,789.0665116955702,818.4364729839806,849.1457909851094
1731142499.749676,873.6728926902381,793.7689623490827,808.6969913042009,875.4565094950741
1731142499.7502778,859.1455933707111,797.2029866573184,794.9778361118618,887.7314087394419
1731142499.754187,838.1973020479636,799.5411081173982,781.2873196442083,889.6344848082015
1731142499.7568042,835.9451930827693,801.6102886078866,772.4332889096382,892.8174934165281
1731142499.7580962,863.5076738157405,804.2796164918128,770.7318864717361,906.1418747604471
1731142499.762005,908.1366582575835,807.8524627770845,774.1687646077864,927.6622210706356
1731142499.765421,942.8025382370736,811.8962415951728,777.3873630081014,946.0748363826817
1731142499.7659144,947.5203965913771,815.586690257157,775.0277235333203,950.2278960721685
1731142499.7685416,925.0101860474864,818.2679865902094,765.2257011185833,938.646196084085
1731142499.7698238,898.0979091302813,819.8134662536761,750.815104994684,921.32207478025
1731142499.7723818,891.2325291709959,820.5663799471673,737.3567159674091,912.5111983505599
1731142499.773733,911.2040894415873,820.9770118908643,729.4542002234225,920.3250736134572
1731142499.777642,942.5309392662015,821.2675529809458,728.057572565359,941.0997136385217
1731142499.7815511,960.9684627653205,821.3751897765433,730.5735339736907,962.5625644440236
1731142499.7854602,953.8787906126041,821.1286691760873,733.345034874004,973.0098241044692
1731142499.7874072,930.6872885608132,820.4082356304351,734.3233397228068,969.2853428961674
1731142499.787959,914.8889199623063,819.144044009257,733.9160627819697,957.658642284673
1731142499.7893696,924.3016545431892,817.2805845516215,733.7520632364453,947.5693571625762
1731142499.7932787,955.9001006702315,814.9052301794657,734.8369336936457,943.8218356143561
1731142499.7971878,987.7000691718631,812.4760253528942,736.8220654577242,943.6537261240978
1731142499.8003242,996.1294299595882,810.8076817938328,738.8079369550084,940.6821975603821
1731142499.801097,974.7444648985648,810.5998595922739,740.5506485718762,931.8945386300443
1731142499.803537,939.2434420873464,811.7886439145772,742.6324901011428,921.4458136494641
1731142499.805006,914.9536083370891,813.3438224459621,745.3937148189776,917.8951094365676
1731142499.8062727,917.0062709735323,813.8575775141437,747.9357739427372,927.1158495826196
1731142499.8089154,939.0326258505524,812.5473616919444,748.6232320503485,946.7849598500464
1731142499.8128245,959.1529232740811,809.8404896620808,746.9305863488033,967.1257958762947
1731142499.8167336,958.0888326816812,807.0351450836318,744.7893733541524,977.519099497195
1731142499.8191144,934.6187354190397,805.3579750939384,745.7100680965788,973.8743930883551
1731142499.8206427,906.0593354850517,805.2375783912607,752.0038673794672,961.0991956109472
1731142499.8245518,893.8423883592613,806.3119921765477,762.4326282221028,948.9448869511344
1731142499.8251383,906.2162676547517,807.9655868642824,772.4992775204887,944.6349154153429
1731142499.8284612,931.9310146011602,809.7998331925944,777.3655596882461,947.9569348464096
1731142499.8323703,949.4984004675503,811.6750413711683,775.1324623757638,952.3710734755375
1731142499.834692,944.2278699063197,813.4523080074027,767.9813734337852,950.9660123922959
1731142499.8352275,919.5108900236052,814.8155760812556,760.5106309188453,942.3702459247895
1731142499.8362794,893.7199495614927,815.4066731504169,756.7467281162533,931.8041060218493
1731142499.8401885,885.4254658749487,815.1564547076176,758.003231068813,926.3986799824106
1731142499.844004,898.7266358010318,814.4559437014618,762.7520285397559,928.7571982301541
1731142499.8440976,920.4235510504693,813.9092256752666,768.0878664256393,934.4557816404613
1731142499.848007,931.3310337996328,813.8063546857064,771.4824850108132,935.9246417051775
1731142499.8502696,922.3947252426858,813.7929062796372,771.7627184779343,929.3820964991397
1731142499.851916,902.0137403840714,813.1086826531755,769.11195760041,918.4351938665325
1731142499.8558252,888.2381781886523,811.2562419904585,764.5802250200074,910.8180445119299
1731142499.8597343,892.5240331366099,808.530775700081,759.6416184319421,911.1208492411704
1731142499.8628695,909.1404400196095,805.9307493311226,755.9213224395062,916.1918010854363
1731142499.8636434,919.4658022912405,804.4880894370847,754.8595305004656,917.4545249368653
1731142499.865847,907.6122111269281,804.5262548306133,757.1656759483326,908.1050260287543
1731142499.8675528,874.2738720240918,805.3980845763339,762.3172667661655,888.9756178610776
1731142499.8701313,837.255817649856,805.8945560280888,768.5886441604857,868.2678538601808
1731142499.871462,818.0526607586827,805.0512369835221,773.8245533986002,855.5499036163114
1731142499.875371,825.1151566741389,802.8172663868008,776.5817542783786,854.7839775894146
1731142499.87928,847.2461057922244,800.1348529541251,776.8810567244076,861.5893286139592
1731142499.881425,862.6888178806163,798.3490735852023,776.0202695799358,866.6776394667243
1731142499.881735,856.8572284247841,798.3101607287796,775.5700221541385,862.9028041772299
1731142499.8831894,834.2563963525516,799.7647615748845,776.2901239904706,850.587133383269
1731142499.8870986,814.3914880494596,801.475439952799,777.7750505200107,836.7807457064773
1731142499.8910077,814.639496840009,802.0186124124174,779.0759806504626,828.7435061996475
1731142499.8949168,834.4780582024521,800.7179744266982,779.7538865161251,827.022558269064
1731142499.8970022,854.9190462721494,798.0653557199597,780.4354437117747,824.4607825393425
1731142499.898826,854.1734920003496,795.3705808547701,782.352000203783,812.6225577222183
1731142499.900601,826.3974907456457,793.9423835693652,786.2382905202925,790.2934308483893
1731142499.9027352,787.470087274903,794.3727326934039,791.5377103572911,766.2782088732215
1731142499.9050343,762.752226850763,796.3231705019704,796.5664895853735,753.36350632472
1731142499.9066443,766.978924740837,798.8362258377525,799.4521555045893,758.1057450030441
1731142499.9105537,792.8511472859329,800.9192860215222,799.1115098670249,775.0811326782591
1731142499.9125798,817.4461502084292,802.0485514365797,795.7014177182886,790.7235586577872
1731142499.9144626,820.8053549379267,802.3053398099084,790.5054502865617,793.7810471942179
1731142499.9183717,801.2793152666463,802.1202365165748,785.4897989279211,783.7121006319495
1731142499.9194665,775.3464802600455,801.8983191942049,782.6333535226527,770.0560849655504
1731142499.922281,762.8489472733446,801.8188862740456,783.0387038308929,763.6031553849679
1731142499.92619,770.6608020923529,801.8646106655799,786.1232959435534,767.3141449629993
1731142499.928157,788.5298424723221,801.9485290012556,789.5847445080042,775.0388741440858
1731142499.9300992,799.8427949651496,802.0094048918977,790.6358322692671,778.8995691164507
1731142499.9340084,797.1177223996397,802.0357553145412,788.0123385322175,778.1146754208032
1731142499.9379177,788.3556791263213,802.044801268396,783.2739336991995,780.5063027508347
1731142499.9383318,788.8309734461149,802.0553908302678,780.0814863343138,794.6474980663513
1731142499.939938,805.7766542823507,802.0753132465474,781.6427470443533,819.6136540551688
1731142499.9418268,829.6332419309499,802.102745779561,788.1958543856327,842.2584142571119
1731142499.943735,840.0523710135836,802.1328778086441,796.6685513478947,845.7640503064478
1731142499.945736,822.4088016175547,802.1626234688266,803.0151500494442,823.1290842386579
1731142499.949645,781.4084025089948,802.1915687984518,805.4202630809991,784.2854834406253
1731142499.9535542,740.1169188254636,802.2207088049929,805.6458673875915,750.4384980388315
1731142499.9571974,724.282782151514,802.2510237718953,807.3254014334262,739.8692612147192
1731142499.9574633,743.8379258723796,802.2828760611599,812.730990322119,756.3503737395839
1731142499.9593124,785.8998902577453,802.3161365184474,820.9003127452938,788.5646979457864
1731142499.9613726,824.4803595434664,802.3505455590907,828.6808220135442,819.6044812381438
1731142499.9652815,839.1394616150758,802.3859495597393,833.5382643487253,838.3021640656973
1731142499.9691908,828.4477534968786,802.4223359130539,835.4826207330207,844.3470188286088
1731142499.9731,808.8095467119073,802.4597594607725,836.4898526363371,845.1796855634454
1731142499.9748416,800.5718949501116,802.4982679605417,838.2179168529152,848.6686361556737
1731142499.97489,812.4239660376545,802.5378736733965,840.3223618688203,857.3094258981864
1731142499.976063,835.5394715758808,802.57856304119,840.9644861738567,867.2823090291229
1731142499.9770093,851.2278625623783,802.6203177395206,838.9519060162737,872.0220767780104
1731142499.9809184,845.9623913151208,802.66312824746,835.3835684595991,867.432123306478
1731142499.9848275,822.3352192261168,802.7069947518354,833.1093942789722,855.2550722014626
1731142499.9887366,797.4151914295309,802.7519184158002,834.3437428783116,842.2873068721475
1731142499.9904675,789.4893756330429,802.7978894358794,838.5357666277464,835.7336700670768
1731142499.9926455,803.5068120760246,802.8448811531521,842.4715478054799,837.8423085457589
1731142499.9949286,827.0754064749538,802.8928609332602,842.6562216065917,843.9545453794331
1731142499.996555,840.5925121388758,802.9418211719712,838.0342470577377,845.927676170079
1731142500.0004642,833.4054976879587,802.9918121156018,830.8183700086786,838.7155409729111
1731142500.0043733,812.6556069761592,803.0429325769139,824.8076077091596,824.9844908723742
1731142500.006045,797.3371552199507,803.0952372886128,822.6131854320943,813.7276894702082
1731142500.0082824,802.3187112101189,803.1485852956105,823.9535667803106,813.4916028729037
1731142500.009745,825.4435907833094,803.2025713566071,826.1574246105044,825.3713925792122
1731142500.0121915,848.4602822420674,803.2567499312121,826.2599795565851,841.4237244963892
1731142500.0137942,851.3854727065718,803.3112142376926,823.0386699164123,849.956640098967
1731142500.016101,828.8888277387938,803.3671599554182,817.6322897353327,843.6972561135565
1731142500.02001,795.2379282283571,803.4265947636102,812.5466270517071,824.6195563212034
1731142500.0216224,773.2829061827398,803.4904857674995,809.9231233652376,801.9835715666587
1731142500.023919,776.1436069891344,803.5559743656714,810.2713542194473,785.5062946426034
1731142500.0278282,796.7701166926757,803.6154968039277,812.3827673826441,779.1419120479226
1731142500.031737,814.2733946373253,803.6616985868733,814.2891487112171,779.941192707888
1731142500.0326598,811.72291861315,803.6989359845682,814.4998731429362,781.9986494257984
1731142500.035647,790.3078939079596,803.7541567438018,812.7178510219534,781.4936070775575
1731142500.0372,768.0376809801149,803.8728995669503,809.7154737300135,778.5833121588856
1731142500.0395558,764.4634068900995,804.0938098530586,806.6299948295398,775.2779464846076
1731142500.043465,784.4771822377845,804.4217778369513,804.2244081354381,772.1355905779338
1731142500.0446484,814.4464717304793,804.8307117623963,802.5669315264997,767.3283619949859
1731142500.047374,833.3150426941359,805.285129396661,801.2665874837646,758.97560845949
1731142500.0512831,829.1844976018021,805.7253069205067,800.0623420785743,748.3163484550972
1731142500.0515256,808.0105693536683,806.0021864448893,799.344158293459,740.3746093459964
1731142500.0527775,787.881019665632,805.8472663794361,800.1849163826768,740.9489790127418
1731142500.0551925,783.9605724393217,804.9831883937131,803.7170788258248,752.0206191665966
1731142500.0591016,796.4189062038331,803.3546907552023,810.1194271760269,769.2767927381365
1731142500.0630107,811.0166106471231,801.2969225233555,817.8708860107631,784.1053407820772
1731142500.0669198,811.674331975602,799.4542116233935,823.9728358538912,789.1045998459175
1731142500.068355,794.543039539584,798.4624381071569,825.333477160443,783.308977513717
1731142500.0703912,771.8267071431079,798.611286124435,820.6333672382159,773.1419023320799
1731142500.070829,762.0254967401165,799.6954282708491,811.3951760424525,767.9531474959801
1731142500.0747385,774.4960168965341,801.0940047933125,801.3259461540564,773.034887480566
1731142500.0786474,801.0414590028915,802.0047124335798,794.2421332328926,785.2727885084671
1731142500.079552,821.6885060626539,801.7692490694749,792.0411786436805,795.0428252714769
1731142500.0825565,820.3268101433605,800.2139176452263,794.1316472243552,793.3268749150292
1731142500.0839326,797.7041110679717,797.8223489499368,798.4545349501025,778.7453339003462
1731142500.0864656,771.0731292214479,795.5350852639798,802.9681082559233,758.9558143732922
1731142500.0892568,760.3942956901395,794.2078708878173,806.4214478504249,745.1889465713102
1731142500.0903747,772.0775583516876,794.0953229386158,808.2404344903648,744.1479422535633
1731142500.094284,793.6781493476863,794.7733795299755,808.1905127032637,753.5259205584542
1731142500.0981932,804.253620484334,795.5463774659561,806.3790629237612,764.3504721446418
1731142500.0995102,792.020852545186,795.9581519919341,803.4834868445253,767.9190529622118
1731142500.1021025,764.5508222058929,795.9914039365152,800.6950391386504,761.7657859555585
1731142500.1060114,742.8473977509608,795.9028222824214,799.125006173184,750.3766197968356
1731142500.1081223,744.2643059838329,795.9678674102288,799.0067910535024,740.8240832957373
1731142500.1099207,768.5347057015742,796.3615928102001,799.3719504308965,737.3390974593611
1731142500.11383,798.2619847532765,797.1277913735075,798.6333063978446,739.1520319554993
1731142500.1144552,812.9604045142619,798.0851366594064,795.7943765787927,742.8072560780956
1731142500.1150875,804.8206257170874,798.7130595496191,791.377849697965,746.3247363849125
1731142500.117739,783.6071887318398,798.2612183115375,787.2362892026706,751.1751030476406
1731142500.121648,767.403050227922,796.2057363881103,785.264967464819,760.1589753453067
1731142500.1255572,767.3450139546794,792.7933249109562,786.0198528951333,773.1624763135368
1731142500.126988,778.9848160646662,789.1840032069118,788.4381051368063,785.0629583665489
1731142500.1294663,787.1545634350375,786.9325278151158,790.9649566990299,788.5530539780426
1731142500.1306653,779.971414331849,787.0858416702963,793.12140448895,780.2692902118542
1731142500.1333756,760.022175419166,789.5394449370119,796.0555070694645,765.0609788837182
1731142500.1372848,743.1053829341323,793.1414925106479,801.4374362883756,754.0173178302747
1731142500.141194,745.3337395096784,796.4648668035715,809.5393263065836,756.8904663348826
1731142500.145103,769.2373252710885,798.6573892419987,818.1818867372236,774.6067645754815
1731142500.1458535,800.4920893327401,799.7649076099533,823.6351609657618,797.9572154893772
1731142500.1462429,818.2711952562343,800.4040510592565,822.9894913858609,813.73795575585
1731142500.1490123,811.2110452215983,801.1874066232346,816.2744894109679,813.7622294802704
1731142500.1493587,786.4306257838833,802.3970278200549,806.7042318392267,800.1118708008305
1731142500.1529214,764.3276730846324,804.0412936388062,798.7757840153031,782.9982919096922
1731142500.1568303,762.8857600501241,806.0427340796296,795.5204471043572,773.0527675701125
1731142500.1607397,783.6278770927415,808.2790524695497,796.8290012189342,773.8423667387426
1731142500.1618204,810.4664771045598,810.4830903982844,799.9590483475436,780.1902384845029
1731142500.1646488,822.6965469736547,812.2249869054169,801.6981134273274,783.459349245663
1731142500.164719,811.9097880586608,813.1055402538682,800.4915071656653,779.4052288234956
1731142500.168558,789.115246269938,813.0178214251492,797.04895743332,771.9604054360177
1731142500.1724672,776.056153795029,812.2113780991904,793.2642092495548,769.6333973664135
1731142500.1763763,787.5101147750692,811.0710686703721,790.5810439224664,777.6043823991165
1731142500.177398,818.756429439618,809.8177901905223,789.1873645440163,792.4788150786881
1731142500.1802857,848.3252606205227,808.426996889947,788.5079406180417,804.3918367723512
1731142500.1835847,854.0114931280831,806.8281544616725,788.2555920271938,804.7442060031634
1731142500.1841946,829.7517148020275,805.1373318976755,788.8775223722744,793.0853062067198
1731142500.1842625,790.3617223549498,803.6380981979127,790.9466469037918,777.5493181394064
1731142500.188104,760.4991433988301,802.5159142043384,794.1701231567,768.6010858147529
1731142500.192013,756.3034567062945,801.6380278167604,797.1089367617568,771.0316797265468
1731142500.1929755,773.8530995524234,800.6235629764598,798.0257503279631,780.3456898593744
1731142500.195922,793.4021802208039,799.1389556997768,796.1969731537167,786.3853395259199
1731142500.1998312,795.9932845159284,797.157349330038,792.5875289291276,781.6702493414653
1731142500.2024505,779.0644804474473,795.0244098604012,789.3478428566538,768.1534328215942
1731142500.2037404,758.3046190956632,793.3619133474674,788.5560646097108,756.769146831286
1731142500.2076497,754.1509418694272,792.8592962216486,791.137686701612,759.3597496345776
1731142500.2085533,774.0364104682786,793.944028338928,796.6231036094961,778.8160373831162
1731142500.2115588,805.1996687502038,796.4288922026442,803.697664031638,805.4585095551943
1731142500.215468,824.3170008866064,799.4354671795838,810.9533829700165,823.348481637235
1731142500.2191656,816.3775687742399,801.8251665355043,817.2449542928283,822.2741411244316
1731142500.219377,787.4660500337084,802.9279728564441,821.5391434297914,806.0564347939538
1731142500.221316,760.7694612390965,802.9719985108584,822.703606012277,790.1194075357666
1731142500.2232864,758.4997021833491,802.7859913488028,819.7863294995188,789.559258374747
1731142500.2241306,783.9545730983738,803.0073966456561,812.8147629588443,806.7858049179314
1731142500.2271955,818.3675255972709,803.5333407211317,803.4443599622082,828.7684284955741
1731142500.2311046,835.6641518058386,803.7411973031562,794.6594420198169,836.710311380547
1731142500.2350135,823.5197607577943,803.2392045928055,789.4341010427352,820.9298127379706
1731142500.2389228,793.4100193991759,802.3566122701371,789.1773147138553,789.088997164986
1731142500.2397082,771.1437483345452,801.8413973877526,793.0246484911858,761.0037720449598
1731142500.2401814,775.678957059059,802.0647898116243,798.4099650107255,754.1679632939988
1731142500.2428322,803.8337134795125,802.5769364044492,802.5007527608835,771.5779241353367
1731142500.2467413,833.3542791029566,802.5268051813655,803.6711432339233,801.1134257108595
1731142500.2506504,841.3533423537729,801.5618975987526,802.271484019315,825.8857445878764
1731142500.254069,822.6275282691178,800.2761161980852,800.2766332084379,836.2835932140298
1731142500.2545595,793.0035664169296,799.6747565855601,799.8995779540966,834.1885401217024
1731142500.2552855,775.5639940760348,800.1170110402995,801.9290697576643,827.5262701314251
1731142500.2584686,781.5333025775908,800.7823943705513,804.9774691008533,821.5834014325665
1731142500.259047,801.5030472683798,800.2568244612381,806.4065913688728,815.1440382086337
1731142500.262378,813.8747968101586,797.7606612371819,804.4439671870682,803.9530430629408
1731142500.266287,803.3578590282808,793.9104926443724,799.8587694155225,787.1303316090231
1731142500.2701962,774.3099138164519,790.3422596332744,795.6746331166049,770.0779814468309
1731142500.2708633,747.9537331324319,788.5676675246332,794.9110863779572,761.2184256090987
1731142500.2741053,745.612321126821,789.0521978942513,798.0793622482303,765.5370227811688
1731142500.2779126,771.5061014527065,791.1636827890226,802.5482600113382,780.4357889495268
1731142500.2780144,809.0525331053171,793.8075207954961,804.4619167049484,797.1910173272829
1731142500.2819238,833.6648969088986,796.0928412557864,801.7736018078945,806.7536156079976
1731142500.285833,831.7301781155579,797.5944216284264,795.9586151579318,805.5482683105924
1731142500.2864408,810.6037548949611,798.2814067518407,790.9696768149947,797.3226236000261
1731142500.2889726,791.8975274905938,798.4092235190457,790.2030031867938,790.1148930230455
1731142500.289742,793.8247455934684,798.488464413896,793.8560581136127,790.6583096992744
1731142500.293651,816.92682775389,799.1820232084355,798.7661105623126,800.0304289692745
1731142500.2967782,844.429467639517,800.9883518230392,800.8439561782207,813.4127836537377
1731142500.2975602,856.5033944614762,803.8473081864009,798.150787903425,824.0379224689353
1731142500.3014696,846.5639081196399,807.0311719336921,792.2105427486728,828.3797718627462
1731142500.3020184,826.3254754405456,809.5461987726906,786.6723384937369,828.5510136369238
1731142500.305379,815.6747824446635,810.8221397363995,784.5856661892573,829.9606239802741
1731142500.3092878,825.8805963967835,811.1326060959879,786.4751035132097,836.2408831332682
1731142500.313197,850.0287762089771,811.3519122308411,790.4825487694552,845.8679599335403
1731142500.3156438,868.5154410180008,812.2165183483374,794.1158007316761,853.4020911220886
1731142500.317106,865.0529421881414,813.6954831715456,796.0792060646052,854.1510461024434
1731142500.317596,840.1228713481563,814.9729949007207,796.8740653456811,848.120701263289
1731142500.3210154,810.9417977849546,815.0293114599149,797.9222426822649,839.9086445263604
1731142500.323876,797.8991281873961,813.3581879326559,800.0585602051367,834.7735862383198
1731142500.3249245,808.3487709251378,810.3204026343651,802.6553705545925,834.2958794408232
1731142500.3288336,830.9069509210815,806.9475563247921,804.1063769543439,835.2984918127036
1731142500.3327427,845.0441305069509,804.3836167942028,803.2649390389089,832.9492987284278
1731142500.3331735,838.2318291839199,803.333788432373,800.5904259318985,825.4313566397271
1731142500.3345094,816.4318383889494,803.8131907247117,797.9544840641883,816.0905384118233
1731142500.3366518,798.9968928947302,805.25160062892,797.1896236482753,810.8963148643008
1731142500.3405612,802.0500797663046,806.7976094854974,798.5685778984721,813.035873805176
1731142500.3444705,824.2592087006632,807.6174777634693,800.5105979681078,819.26962242581
1731142500.3483794,847.1164721331654,807.0950990277562,800.8077809333255,821.6911000350922
1731142500.3487513,849.7494642628739,804.9674892471553,798.4000535227098,814.1413635121866
1731142500.3522885,826.1448916460895,801.4406541845736,794.2640527846135,798.21963214031
1731142500.353375,790.6455322791478,797.234850795885,790.6919964081344,783.4785544603918
1731142500.3561978,767.1526294386266,793.4400425900413,789.5298819691992,780.7686262912562
1731142500.3587794,770.5879102444408,791.1273858426292,790.7839941995271,793.4756062985898
1731142500.3601067,795.3445752537134,790.8382844033563,792.7283356636943,813.7415848109994
1731142500.364016,819.962671842075,792.2381661632745,793.4493949828218,827.3582734672468
1731142500.3643286,824.3986083267047,794.2330640266855,792.5661308262614,824.1909414234012
1731142500.3679252,806.0596228391422,795.6079813561602,791.6452461949766,806.1495256291292
1731142500.3718345,781.5527840421028,795.8339655999995,792.8632532676445,786.1477646458694
1731142500.3722403,772.6587264402147,795.4304423230926,796.9723101838941,778.5185653825432
1731142500.3757436,788.1194101070199,795.510364326233,802.3196983757863,788.3640708655225
1731142500.3796527,816.3846819509761,796.8102847581159,805.8685732386265,808.2438602841778
1731142500.3799062,835.2777898755709,799.0238138927798,805.4981784577624,824.471341513243
1731142500.3835618,830.368740137525,801.0472262152009,801.7602629426152,827.4498120919629
1731142500.387471,806.7446505249345,801.931236290513,797.6681434325218,817.7650620593204
1731142500.391106,784.6557427490446,801.680160735405,796.6208673964999,804.0637240915136
1731142500.39138,782.9509980604164,801.1843208933369,799.9713299552708,795.62587507988
1731142500.393683,803.9656928507413,801.364616020379,806.0025294255785,795.9551361761015
1731142500.3952894,831.929443958615,802.2955461648918,811.0591025999394,801.6727491274634
1731142500.3954835,845.8748991213741,803.0587458280867,812.0333799933354,806.3653062497706
1731142500.3991983,836.5047289662243,802.4420820618374,808.4167512080954,805.7880820924555
1731142500.4031076,813.4516036452472,799.9186616353682,802.4484578340935,800.6806146514816
1731142500.4070168,797.1271151548649,796.1444160472361,797.3490696128675,795.6349613710593
1731142500.409972,801.8639518919841,792.6031307969391,795.100748235541,795.2663856076829
1731142500.410926,824.2439041195034,790.6767377902454,795.5020610613273,800.7321655955182
1731142500.4110613,846.2246725318578,790.830956624139,797.0417484723642,809.266749546323
1731142500.4148352,850.2865069125738,792.471354213365,798.5626276403365,816.9399742699474
1731142500.4187443,833.8097566589358,794.4692851697002,800.1453171361194,822.1239569928005
1731142500.4226534,810.8240812982805,795.8636281559952,802.5591424664461,826.562524892139
1731142500.4265623,800.1138998554818,796.2249436802883,806.0329737805903,833.1607463487478
1731142500.4266388,809.8821544518468,795.5741737080516,809.6311051820061,842.694266102422
1731142500.4285862,831.4641741508345,794.1369628693958,811.7970894023674,852.6612334089377
1731142500.4288375,846.7877157572485,792.2291982019286,811.50322244758,859.3569102760102
1731142500.4304717,843.3012371392971,790.2894733842077,808.9783962426603,860.974579669541
1731142500.434381,824.4050890004945,788.8673523100955,805.4483398806556,858.6641754038775
1731142500.43829,806.9357179113707,788.4543548489202,802.1779757588987,854.9881183436693
1731142500.4421992,807.361432951114,789.2600017930179,799.655834148364,851.8495290916546
1731142500.4422164,827.6182467305722,791.117929353809,797.6104750958452,849.7318853040581
1731142500.4461083,852.435911447563,793.5938879549648,795.7933711249094,848.2066237075087
1731142500.4477031,861.0620002217433,796.2128146107785,794.6980787103608,846.7210486807336
1731142500.4500177,844.2997174602348,798.6588555622521,795.3567513985206,845.014508519144
1731142500.4539268,812.8244235594592,800.8309344947901,798.2407904547171,843.114783064293
1731142500.457794,789.4609208169313,802.7259374527606,802.3180916239069,841.1563033046517
1731142500.457836,791.2620855464481,804.2550368363648,805.377455822349,839.2353755204942
1731142500.461745,815.8818195962148,805.1905357217953,805.5904855848588,837.3717724930814
1731142500.4634898,843.45222821508,805.3578605313073,803.0206160491141,835.5400433025766
1731142500.465654,852.5178246061266,804.9399857863061,799.728852275264,833.7112268171953
1731142500.4665687,837.0568891325054,804.5790554451052,798.3562128487852,831.872973239772
1731142500.4695635,810.7780579408235,805.0724640053913,800.3348263440096,830.0278121506107
1731142500.4733715,795.3475256130947,806.8193690255478,805.0243412528782,828.1831087502329
1731142500.4734726,802.3584438492694,809.4523085339027,810.1905261075545,826.3437220461198
1731142500.4773817,823.9401258657375,811.9918084931325,813.3246659177639,824.5104116467866
1731142500.4812908,839.6949255588545,813.4389784905311,812.9976696822232,822.6817132254861
1731142500.4852,834.0368651740818,813.3590982594834,809.6150960729001,820.8561377149514
1731142500.4854343,809.389190756039,812.0557121986839,805.2312158442043,819.033138932924
1731142500.4889493,784.3439865443846,810.3143040090388,802.4389466072043,817.2129428033103
1731142500.4891093,778.519841326028,808.99084056521,802.8453076284437,815.3959777393555
1731142500.4930184,796.659535222603,808.6779692309262,806.0418492272952,813.5824694751881
1731142500.4969275,824.7319438307898,809.4873220653637,809.8371151937,811.772360016093
1731142500.4983933,840.8688908283261,810.9505720725635,811.7052809552372,809.9654637063356
1731142500.5008366,832.3006573901731,812.1499981470668,810.4582222850928,808.1617154285807
1731142500.5043,805.1038175325137,812.1611175135399,806.9008322061366,806.3613579418038
1731142500.5045266,779.3755995813315,810.6240333887747,803.0188180380026,804.5648842395111
1731142500.5047455,773.6468492824552,808.0240996082398,800.4701058055153,802.7725930026897
1731142500.5086553,790.5842982249535,805.387999048234,799.6594735308691,800.9838974663396
1731142500.5125642,815.1757459053139,803.570526405667,799.9531854587962,799.1970285728232
1731142500.5164733,826.9806650756884,802.7032301675357,800.4942575277158,797.4100543116416
1731142500.5201042,816.7895942730213,802.2761442311441,800.7939870470325,795.623468944363
1731142500.5203824,794.2284259858475,801.7639054366733,800.8041655150062,793.8426763502252
1731142500.5231657,779.990994725977,801.2053382814037,800.6885092798013,792.0766261342304
1731142500.5242915,788.8768727229238,801.1933739881753,800.5970770992045,790.3294866721499
1731142500.5282009,817.3500459042947,802.2871045623907,800.5794941745908,788.5882234453427
1731142500.53211,845.7154048890462,804.3907004639898,800.610944452421,786.8187066494813
1731142500.5332966,853.2712181007411,806.6690874434967,800.6500303256732,784.9873206034151
1731142500.5356815,834.4545710213938,808.0879076872385,800.6740593494626,783.1104944930474
1731142500.536019,803.2155477640719,808.1222347768912,800.6825420006484,781.2972044330719
1731142500.5399282,782.1348194887723,807.0482383690706,800.6848278344759,779.713380111842
1731142500.542031,784.8634037635442,805.6090586977233,800.6886452331017,778.41648949706
1731142500.5438373,805.8706206967123,804.3830039607426,800.6961889647336,777.1289440639766
1731142500.547747,825.7317275720796,803.4044432184365,800.7058961706415,775.199774787383
1731142500.5512593,827.5146373595154,802.318604522213,800.7155575489901,772.063753082167
1731142500.5516558,810.5648350600096,800.8629573449745,800.7240584325707,768.201842862023
1731142500.5555649,790.2377850702931,799.2074494300053,800.7314430732554,765.906974587764
1731142500.559474,784.2179995120672,797.8546679115244,800.738218035845,768.5918588464996
1731142500.5608966,797.4385693969867,797.2091216126347,800.7447638102658,778.0437811399993
1731142500.563383,818.3659638182854,797.2130087761852,800.7511605886692,791.3954159073737
1731142500.5668368,829.332829926288,797.3889020009372,800.7573009273783,801.3542970560486
1731142500.5672925,821.8031043657013,797.2765748556925,800.7630553309019,800.9943037073106
1731142500.5682,803.7254362057151,796.8853065732411,800.7683571278326,789.4850970762238
1731142500.5712016,792.9327556236126,796.7349951488085,800.7731996301941,773.4270378597025
1731142500.575111,802.0200137363059,797.4162177961051,800.7775973719556,762.2952883008611
1731142500.5790198,827.1882389953619,799.0542757542374,800.7815561342236,761.7429285847445
1731142500.5797622,850.5729575862197,801.1668717863911,800.785065483261,770.2200763134672
1731142500.5824144,854.649279474525,803.0388402592404,800.7881056544088,781.3987550637589
1731142500.5829291,837.017356839986,804.2561141574944,800.7906563077775,789.9690184158546
1731142500.5868382,812.9310601916311,804.9095031276732,800.7927006244716,795.6506572011801
1731142500.5907474,802.8318154411241,805.3068000950143,800.7942248474392,802.0572352853137
1731142500.5946565,815.0201151862561,805.4970852143745,800.795216158015,811.78861249392
1731142500.597992,838.2149615621051,805.083737485299,800.7956611707103,822.5852127966366
1731142500.5985656,850.6026358045049,803.5322498655863,800.7955456410285,828.4013801109248
1731142500.5986278,837.9877476950526,800.7204112135627,800.7948548840062,824.7086312170615
1731142500.6024747,806.0446865678239,797.2516117903134,800.7935742434811,813.3342579853478
1731142500.6031036,776.6832157754184,794.2452960393962,800.7916892966914,802.2714732874589
1731142500.606384,771.448360192945,792.7301634301408,800.7891858240024,800.0870446460339
1731142500.6102931,795.0043822393058,793.0414148361517,800.7860497033043,809.241079678305
1731142500.6135695,831.4840914788682,794.5974538856551,800.7822668447104,823.8416031512983
1731142500.6142025,856.449105006344,796.1975098061939,800.7778231900561,833.9617047129607
1731142500.6174934,855.1572215886923,796.705385031681,800.7727047472204,833.3118302213959
1731142500.6181114,832.9413650728436,795.7648787458518,800.766897624608,824.1221189582702
1731142500.6220207,809.7070843035493,794.1083964851584,800.7603880507719,815.101247647854
1731142500.6259298,803.2412012046509,793.180689562767,800.7531623819809,813.9347345292841
1731142500.6291473,815.0557690915886,794.2192820977223,800.7452071064499,820.5123632635841
1731142500.6298387,830.2568608411784,797.3741085169235,800.7365088510368,826.7855080614137
1731142500.633748,831.131436339608,801.5228599499844,800.7270543913343,823.6736229793464
1731142500.636359,812.7580631498228,804.9792097864956,800.7168306634073,809.2449723987617
1731142500.6376572,787.542785745652,806.6087191247798,800.7058247753624,790.9996746068499
1731142500.6380067,775.0381978580524,806.5328060098163,800.6940240180462,779.9759195668778
1731142500.6415665,785.5917965350936,805.9176437176343,800.6814158750783,781.483111034007
1731142500.6447246,811.3640744308907,806.0496536771641,800.667988032688,790.389181674571
1731142500.6454756,832.2184727250326,807.4097448502644,800.6537283896399,795.2139712078044
1731142500.6493847,831.7969427143474,809.3949891968256,800.6386250672753,787.7846589182908
1731142500.6532938,810.5806344596236,810.8122764532671,800.622666419564,770.3176366117817
1731142500.6552246,785.091452698453,810.7267639810793,800.6058410430705,753.8926222412282
1731142500.657203,773.9785800136495,809.0646645128226,800.5881377867964,749.6490775899807
1731142500.6603022,782.7964225322013,806.6015773314531,800.5695457619094,760.1653371417631
1731142500.6611123,800.2077484227099,804.4024102275397,800.5500543513788,778.0713183338414
1731142500.6650214,808.3968065136062,803.131659153203,800.5296532195285,792.6402946398277
1731142500.6689303,798.4565910383421,802.7086168270184,800.5083323214998,798.5121969317163
1731142500.6728396,777.7301687671829,802.5000284556339,800.4860819126155,799.2362610712238
1731142500.6729105,763.3134062085862,801.8326785620616,800.4628925576347,802.8937892296275
1731142500.67409,767.5303552169917,800.4148206888547,800.4387551398883,813.7462056691999
1731142500.6758797,787.4786084669204,798.4267980772105,800.413660870294,827.196587869528
1731142500.6767488,807.124239625429,796.357845862821,800.3876012962428,832.6585707513854
1731142500.680658,810.29149702504,794.8001871250335,800.3605683103522,822.3342016931922
1731142500.6845672,794.1458366695155,794.3014817195402,800.3325541590796,798.7390612525086
1731142500.6884763,772.0747306222655,795.2313452672386,800.303551451188,774.4381437080492
1731142500.6914573,763.1172644689632,797.6122170586691,800.2735531660576,763.6115641038082
1731142500.6923854,776.1654153308074,800.9711925900345,800.2425526618343,771.7738377778842
1731142500.6929555,801.9269720448925,804.3595981788163,800.2105436834087,791.6234865239026
1731142500.6962948,819.6246929728575,806.6633984606184,800.1775203702175,808.284077577181
1731142500.700204,813.3419361133161,807.1515659662233,800.1434772638586,810.0525316357994
1731142500.704113,784.953561351123,805.9511729485995,800.1084093155123,796.7501411616693
1731142500.7070348,753.3092198703409,804.0296497052321,800.0723118931595,779.6412688482596
1731142500.707814,740.2691994240686,802.5410759047792,800.0351807885896,773.0252864631959
1731142500.708022,754.3761277251073,801.9531559751208,799.9970122241879,783.5930666271748
1731142500.7118213,784.640306882878,801.7037480748653,799.9578028594927,805.3087570061062
1731142500.7119312,809.2117661455266,800.7845631729431,799.9175497975133,823.689031753777
1731142500.7158406,812.3896886121079,798.8051357028233,799.8762505907927,826.4771269658221
1731142500.7197497,796.7512020500393,796.5593265792116,799.8339032472126,812.7954393171484
1731142500.7226124,780.561794339839,795.5159237357174,799.7905062355301,793.8389215034878
1731142500.7236588,782.2400002660972,796.657596776047,799.7460584906482,784.596740316613
1731142500.727568,804.5106818031269,799.6939815932055,799.7005594186058,792.9638775310502
1731142500.730687,831.5386027988671,803.2823318762787,799.654008901264,814.3963470403256
1731142500.731477,841.635770015658,805.9612878406217,799.6064073006452,835.7034237189449
1731142500.7353864,825.0978234619307,806.9822806053991,799.557755462891,844.5846020316421
1731142500.73819,792.5476908970312,806.499565374709,799.508054721859,837.6336478224334
1731142500.7392955,767.1145259031734,805.2069700766558,799.4573069024541,821.3668010666527
1731142500.7427173,766.7996181972105,803.8451756213557,799.4055143238169,806.4526965725594
1731142500.7432046,790.8848747449218,802.8868187400718,799.3526798023514,800.1890419936018
1731142500.7471137,820.8088385287057,802.4431366069564,799.2988066542613,802.8178043779382
1731142500.7495525,834.6993282709245,802.3146296098098,799.2438986969961,809.484203560692
1731142500.7510228,824.2540971151789,802.1283140734607,799.1879602492401,815.0053815900807
1731142500.7537675,800.7302298145452,801.5288370252202,799.1309961301223,817.1635767135442
1731142500.7549322,785.2123148436422,800.3739918389861,799.0730116597687,816.7072152779157
1731142500.7588413,790.9985185187119,798.8658953483942,799.0140126635506,815.4389209165417
1731142500.7627504,812.6654546742707,797.5451474832818,798.954005479506,814.5917784095672
1731142500.7666595,830.9789299948818,797.0948683663898,798.8929969624353,814.4172941448032
1731142500.7684183,829.4061226199766,797.9855705989866,798.830994473718,814.5988634641981
1731142500.769345,808.1460530343277,800.1325769605512,798.7680058514167,814.7770674172682
1731142500.7705686,783.9203852208555,802.8062568039123,798.7040393759668,814.7998053720232
1731142500.774478,775.9407194127501,804.9100004082651,798.6391037727211,814.6994870487262
1731142500.7776208,789.8687371179848,805.490293518431,798.5732082930181,814.5676867057833
1731142500.7783873,812.9773765244863,804.1829322860103,798.5063628557904,814.4642156422535
1731142500.7822962,824.4876017432688,801.3587003478992,798.4385781190539,814.3978586852683
1731142500.7849226,812.781019276826,797.9308893812527,798.369865278397,814.3499681474381
1731142500.7862053,785.4901383143268,794.9534563159306,798.3002355164671,814.3017425051133
1731142500.787284,763.9217407491884,793.1901998441074,798.2296994330944,814.2460460291474
1731142500.7901144,765.8940779168236,792.8168050257233,798.1582672502232,814.1851989560702
1731142500.7940238,790.8921165068023,793.3869783008706,798.0859505120502,814.1241185275836
1731142500.7979329,820.065569130288,794.1265162431374,798.0127647818925,814.065747944881
1731142500.8005002,831.4920110388117,794.4577092800375,797.9387307261403,814.0103255166741
1731142500.801842,818.197874402761,794.4504643396765,797.8638698575559,813.9567611972988
1731142500.805751,793.9035242714205,794.8376086272253,797.7881940278572,813.9040575613406
1731142500.8061495,781.7119842915604,796.4765118296045,797.7116956378686,813.851859360889
1731142500.8096602,795.134320370464,799.579013096403,797.6343537329893,813.8002831343457
1731142500.8125243,826.9392006608507,803.3059545691168,797.5561681787907,813.7495462224248
1731142500.8135695,854.7087263163615,806.132882119668,797.4772094673652,813.6997505303325
1731142500.8160777,858.5595731294878,806.8209782474403,797.3976324670642,813.6508795155897
1731142500.817479,836.9382353972569,805.3158710370986,797.3175862772782,813.6028891203074
1731142500.8213878,807.91093195928,802.8868924117614,797.2370133902391,813.5557560603727
1731142500.8250153,794.7853131069097,801.3549669820563,797.1554832564422,813.5094275847748
1731142500.8252969,807.5389780633884,801.9286501747765,797.0723478124138,813.4637275615779
1731142500.8292062,835.2095258785545,804.4527492616926,796.987419950602,813.4183576097435
1731142500.8316553,855.5508440469392,807.5698471786532,796.9018823200731,813.3731177686919
1731142500.833115,853.813895628638,809.6512392058378,796.8184108595148,813.3282913615022
1731142500.8370245,834.7981671044872,809.837255074072,796.7392917852993,813.284831628891
1731142500.8409336,818.1979934779013,808.4833894841274,796.6626076226097,813.2438102614111
1731142500.843881,821.5689603953374,806.7579606400068,796.5794752531759,813.2049548106181
1731142500.844843,845.4259013567032,805.758643227463,796.4777469598905,813.1651985032904
1731142500.8472328,872.6609456187418,805.8396399641686,796.3553690098514,813.1193699831389
1731142500.8474278,882.3839774752304,806.6078564070347,796.2367937397058,813.0648587915178
1731142500.848752,866.7874111123454,807.4602888980403,796.1726505488502,813.0087468906798
1731142500.8526611,837.5442695616372,808.1120868959866,796.2009864144198,812.9703091776947
1731142500.8565702,816.6469291771803,808.6578238130267,796.2755640229116,812.9691037352726
1731142500.8604794,818.877681962998,809.1884248227494,796.2221294184616,812.9968467795477
1731142500.8627462,839.8370232461639,809.3983021851515,795.8244898152218,812.9924391737959
1731142500.8628104,859.2247402135641,808.6144306669192,795.0910515505689,812.8606028502618
1731142500.8643885,856.975281782666,806.2944001748833,794.5647631218757,812.5648046416793
1731142500.8682978,829.4739196537407,802.6067907238879,795.3173892652281,812.2576805780888
1731142500.8722067,792.8479020926234,798.5802802734265,798.3155626111031,812.3083434699581
1731142500.876116,770.5839447761587,795.6113922025116,803.4028418964847,813.0477329082114
1731142500.878388,775.2868039830822,794.6347361004101,808.8037247463612,814.2209158254528
1731142500.8800251,799.0806176312458,795.5561397068126,811.8858466163185,814.5314857152335
1731142500.8816118,820.1980315182994,797.3592362579299,810.7959152294151,811.9939381056338
1731142500.8823311,820.4278343587106,798.7820389340541,805.7175242704153,805.448618215122
1731142500.8839345,799.5438868253657,799.0610604231862,798.8228141522591,796.2502976770028
1731142500.8878436,775.187654888416,798.2514755493087,793.0218792680146,788.1046366416706
1731142500.8917527,768.1775241595689,796.9831282411507,790.3695741519313,784.4273035136642
1731142500.8939655,785.1251785054955,795.907249274132,791.0902323333197,785.6328841728488
1731142500.8956618,812.8621791161646,795.258683917054,793.7637853458764,789.2292562779612
1731142500.8995707,829.6102723836833,794.8201083710383,796.505216370651,792.3237769500566
1731142500.9004774,823.5540853596956,794.2559584925302,798.2974073021245,793.6645669228601
1731142500.90348,802.8970553664502,793.52001044685,799.5052578085534,793.6674837091651
1731142500.9073894,788.7257099569382,793.0034193731799,801.2412081494283,793.3007656543759
1731142500.909543,796.8209689343956,793.2899398691436,804.1950675349545,793.1960793928223
1731142500.9112985,823.9073109936007,794.6913956033579,807.937015771974,793.455793153213
1731142500.9152076,849.8185333314464,796.9368072838872,811.2090404449982,793.8940557549523
1731142500.917235,853.6039593004944,799.2953283180871,812.8518960450887,794.3182947443083
1731142500.9191167,830.2757140681857,801.0511784386273,812.561180922201,794.6536916058126
1731142500.919343,794.7378260789505,801.9260854373495,810.9217601675023,794.9228740083053
1731142500.9230258,769.985862234502,802.0908185338695,808.7982405981613,795.1762235943131
1731142500.9251206,769.2033482251638,801.8025073534913,806.6297656272365,795.4445543874139
1731142500.9269352,786.085397894055,801.0638187152091,804.1915594562715,795.7309913709131
1731142500.9308443,800.9995055508512,799.6665325450658,800.9922209502494,796.0247782041961
1731142500.9347534,797.7533288786369,797.5877564455701,796.9747603464746,796.3158848852248
1731142500.9382086,777.1051488343552,795.3328678211658,792.9472465556844,796.6008325047559
1731142500.9386623,755.9066178217953,793.8266190067377,790.3721551642174,796.8811036072783
1731142500.940698,752.7269752952632,793.8500593762782,790.6280821601631,797.1593590030143
1731142500.942572,771.9796227316267,795.4523164403791,794.2285126464562,797.437075632331
1731142500.946481,799.670756616684,797.8382142921496,800.4706350921185,797.7142711909021
1731142500.95039,814.2228128750754,799.8693378526671,807.6749678948422,797.9902977722604
1731142500.9521382,803.5733552656799,800.8264777361064,813.8520440383213,798.2645991182452
1731142500.9542992,774.8484015831484,800.8728712503693,817.4771759010763,798.5369790831708
1731142500.9562757,748.9775884153743,800.8826991043994,818.040715294059,798.8074922699033
1731142500.9570742,744.5346946225729,801.7621799968314,816.1094853215134,799.0762406082571
1731142500.9582083,763.5160257040757,803.7465195997871,812.8405109870654,799.3432566161663
1731142500.9621177,790.3035130535222,806.1697855091212,809.2530194393197,799.6084968669535
1731142500.9660268,804.6858980864378,807.8779822277356,805.8319818646546,799.8718869122492
1731142500.969936,798.3737528940362,808.0067687238792,802.8094261466285,800.1333602560827
1731142500.9718533,781.2943500134206,806.582471822942,800.7713813603226,800.3928704223987
1731142500.973845,772.349412898754,804.5243916738896,800.7581326435591,800.6503839190632
1731142500.9759398,782.5976615309729,803.0528042908112,803.4507216116472,800.9058693879623
1731142500.977754,805.426490979239,802.929043532928,808.1029242283435,801.1592918952981
1731142500.9816637,822.2164560243857,804.0538431690865,812.4396827033825,801.4106129982173
1731142500.9855726,818.5657510325963,805.6534447194434,814.015670141778,801.6597932511141
1731142500.9870417,797.0743068788544,806.8311177353391,812.0860334931068,801.9067941921685
1731142500.9874306,775.6872306069629,807.0276029426649,808.3320163934395,802.1515788621043
1731142500.9894817,772.8771524244555,806.1016664822866,805.6347019919693,802.3941113644299
1731142500.9933908,792.0528018643035,804.1327220259304,805.8138571482431,802.6343562850287
1731142500.994805,818.336247607486,801.2820655610627,808.2534172913382,802.8722784106033
1731142500.9973,830.6883647400942,797.9065683564207,810.6165276709411,803.1078427473003
1731142501.0012093,819.5565332288693,794.7514849021932,810.9861646398467,803.341014649942
1731142501.003008,795.2918456523195,792.853160322742,809.4678003868555,803.5717599076676
1731142501.0051184,779.9115057649112,793.0142063793776,807.8268770042724,803.8000447454986
1731142501.0090275,788.68289697621,795.1900786107648,807.6179708527321,804.0258357820079
1731142501.0129366,816.8689388891454,798.3475472961065,808.6478508314716,804.2491
1731142501.0136707,842.966964437517,801.0218370596893,809.1741617054702,804.4698047571289
1731142501.0168457,846.0310037831031,802.1867062182191,807.5299096240552,804.6879178140216
1731142501.0185857,822.8878927416591,801.7654657633724,803.6291925147804,804.903407317275
1731142501.0207553,791.1810013027246,800.4375635484944,799.112398181901,805.1162416805358
1731142501.021945,775.8117344263043,799.0024096765256,796.1849587853784,805.3263893916621
1731142501.0246642,789.6561379797263,797.8722733403511,796.182133087,805.5338189178923
1731142501.0285733,823.7574176745716,797.0432940199811,798.8501934093332,805.7384989606148
1731142501.0324824,854.4823504445134,796.4183831664254,802.6183046922223,805.940399132183
1731142501.0325365,861.772465060346,796.0902797025757,805.4990464618945,806.1394906084306
1731142501.0341632,844.1308689280471,796.3313381699766,806.0663999239177,806.3357457545909
1731142501.0363915,818.8420217540372,797.3672325824905,804.0711419400999,806.529135886275
1731142501.0403008,807.6844857102966,799.1836543595296,800.4452498952062,806.7196279267235
1731142501.04421,819.7210201446889,801.5068374112965,796.7134910459424,806.9071833358047
1731142501.0481193,844.7281597930977,803.8998085898182,794.1664295451981,807.0917638613104
1731142501.0497408,862.0416150537792,805.8621530482213,793.3169505413583,807.2733447820231
1731142501.051402,857.2851108272506,806.9204036006784,793.9347850435679,807.4519263095806
1731142501.0520282,833.5379902780776,806.7675575649567,795.4894154463549,807.627524112602
1731142501.0559375,808.384114739989,805.4415267782207,797.5592203827382,807.800125024215
1731142501.0568483,799.6302359808158,803.4156054353764,799.9019967436631,807.9696261168987
1731142501.0598466,811.2563116817133,801.4719162479238,802.2472625248915,808.1358236294813
1731142501.0637558,830.7657957650463,800.3724245540385,804.131186841655,808.2985339563755
1731142501.0653183,839.987614861383,800.5029315071997,805.0474062941938,808.4578459862796
1731142501.0676649,830.5336018275143,801.7000496057146,804.8550766384639,808.6143121909344
1731142501.0702677,811.0702957376109,803.3555248083859,804.0357616980838,808.7687194142364
1731142501.071574,799.9683809010289,804.7206681936643,803.410688112203,808.9212150078334
1731142501.075483,809.1085754836298,805.2262449455754,803.4404342177238,809.0702034753701
1731142501.0793924,832.6214469020858,804.6557177335112,803.7750926662686,809.2123131246494
1731142501.080896,850.7642260242203,803.1368712687039,803.6230056980276,809.3449005928873
1731142501.0833015,846.3140942611792,801.0377240744712,802.691234496131,809.470818989771
1731142501.087211,819.7248214137678,798.8566901787277,801.7452130945733,809.6015209711791
1731142501.0891333,789.8957911119343,797.1047657434419,802.103452030393,809.7517769641
1731142501.0911198,779.4751181389335,796.1393046337314,804.453460927588,809.9225635730721
1731142501.0917518,796.6865977624939,796.0044996533982,808.1202182835541,810.0813037258857
1731142501.095029,828.5902657208705,796.4249712140921,811.5094051881127,810.1646678933503
1731142501.0964737,851.2568010970745,797.0024234559319,813.3013585854626,810.1297848610911
1731142501.0989382,848.5585921844645,797.4598758585421,813.2832806295654,810.0436113398666
1731142501.102847,824.3759832035569,797.7369609036467,812.1438633082138,810.1310930267585
1731142501.1067564,798.5307436208643,797.9131035449703,810.5913850187733,810.6572246121174
1731142501.1079988,790.1991710178876,798.0834656753024,808.7164987538754,811.5934523953623
1731142501.1106656,802.7634187474212,798.2922349556598,806.1320039418376,812.2652414552942
1731142501.112051,822.4064955721756,798.5346449331219,802.6124539009885,811.4618460646393
1731142501.114575,830.8311801551285,798.7880554416499,798.5564695760678,808.4125045096156
1731142501.118484,820.7844003263915,799.0363573821435,794.8638100498978,804.2164959040642
1731142501.1223931,801.4737558555568,799.2763417104294,792.3720179814553,802.2583015511842
1731142501.1263022,790.0929209251058,799.5123634541445,791.3442154349641,806.3436172247798
1731142501.126655,797.1337033138666,799.7493174391052,791.409131924771,817.3161544319399
1731142501.126865,817.5731089622138,799.9892801455105,791.9286586330412,830.931582419488
1731142501.1276286,834.7184061145953,800.2318265404729,792.4190861949749,839.4424468310467
1731142501.1302114,833.4398819475134,800.4757288702482,792.7145938520572,836.5405972251147
1731142501.1341207,812.3936692716362,800.7201881730214,792.8731155343019,822.2280160137727
1731142501.1380298,785.5841697306528,800.9650955564346,793.0071940420398,803.591186969568
1731142501.1419387,771.7252997204168,801.2107131295029,793.1807729770737,790.3423998265953
1731142501.143206,779.5537929748693,801.4573045536081,793.3963774169547,788.2988859636874
1731142501.1457305,800.9138473812872,801.7049743763106,793.6283624289285,795.8856703878773
1731142501.145848,817.5124942839989,801.953697427902,793.8549300442162,806.2681931189812
1731142501.1497571,816.046088702052,802.2034123582637,794.0695278558259,812.9385635517008
1731142501.1536665,799.2356060652414,802.4540859721628,794.2762359098688,813.9023869356909
1731142501.1575756,783.5392509111571,802.705726047719,794.4811449478145,811.472036481457
1731142501.1587837,785.4084541266235,802.9583624105635,794.6873958922814,808.9971042937001
1731142501.1614847,807.4566671108971,803.2120203316676,794.894891568726,808.1342393747577
1731142501.1615589,835.8300366036387,803.4666999746858,795.1021965405572,808.5793137303764
1731142501.1645958,850.8301098969749,803.7223712857598,795.3081904164583,809.3226896394444
1731142501.1653938,842.2879010694927,803.9789956293928,795.5125822996225,809.7103600803058
1731142501.1693032,817.548797306972,804.2365770758022,795.7156142938704,809.6707134910333
1731142501.1732123,795.7024441296415,804.4952143485754,795.9176013541311,809.4339930580466
1731142501.1743612,792.4709309324919,804.7550842867453,796.1186876339775,809.2185185383483
1731142501.1771214,807.7646066622776,805.016291754623,796.318847699997,809.101776340376
1731142501.1810305,826.0750849303337,805.278626059414,796.5179930231885,809.052523835189
1731142501.1834614,829.550302906242,805.5414524235097,796.7160596761328,809.0123688072209
1731142501.1849396,813.0557678632608,805.8040746142825,796.9130360179176,808.9477474288911
1731142501.188849,788.7361798806267,806.0666665779332,797.1089468609887,808.8567358781837
1731142501.1899388,776.2362931294361,806.3311739023935,797.3038213890067,808.7522034276202
1731142501.192758,786.5570335145974,806.6008348637006,797.4976612132882,808.6453265686683
1731142501.1964622,812.6889219150607,806.877186046887,797.6904215628584,808.5395603996632
1731142501.1966672,834.6572166303272,807.1555680723586,797.8820270582772,808.4328723156336
1731142501.2005763,835.1015763116474,807.4236733707941,798.0724407127734,808.3221320288171
1731142501.202327,813.096121337956,807.6692774724937,798.2617630328863,808.2056859016473
1731142501.2044854,785.0820124369912,807.8980818448379,798.4502642355361,808.0835419466652
1731142501.2055163,771.8249830313792,808.1490965370747,798.6382169676239,807.9564104838395
1731142501.2083948,781.680817703065,808.4817926687607,798.8255073681978,807.8248500195075
1731142501.212304,803.9465201348628,808.9158073526662,799.0112940184629,807.6889917820887
1731142501.216213,818.1168867482604,809.3465402848601,799.194272930455,807.5486901111948
1731142501.220122,811.4721455392895,809.5231420321375,799.3739671428642,807.403771937419
1731142501.221094,790.0693498855735,809.1906869235817,799.5525257821594,807.2541801044619
1731142501.2211926,773.6918779092495,808.3677512159659,799.7350934113101,807.0999716057403
1731142501.2240312,779.0185764916531,807.4824371147712,799.9263160222382,806.9412194555072
1731142501.2279406,805.217367646762,807.0630612936876,800.1229370236044,806.7778917881486
1731142501.2313657,833.9548876857126,807.150451012064,800.3080566198703,806.6097985220201
1731142501.2318497,843.7483364688837,807.0780984896184,800.4575971874327,806.4367030834973
1731142501.2357588,826.9417349463398,805.9880510930153,800.5657399865655,806.2586234274146
1731142501.2366714,795.6970647421708,803.6440396587707,800.6774370849209,806.0761398466943
1731142501.239668,772.3933111649695,800.7589927807458,800.8898598636031,805.8902882455383
1731142501.2400582,772.2785290563933,798.534687083333,801.278666362828,805.7016562482073
1731142501.243577,792.2023803044821,797.8266006997934,801.7540641201688,805.5089410932758
1731142501.2474864,814.1447270021998,798.6022237023345,801.9551583215282,805.3083485223322
1731142501.2513957,820.2919042296845,800.0425192104344,801.3635098354873,805.0958185058485
1731142501.252249,807.2988614873927,801.1322697389913,799.7000485867292,804.8725906849576
1731142501.2553046,788.395919756253,801.2972959854338,797.3232156116202,804.6504496519377
1731142501.2589238,782.0414700823844,800.6920901170059,795.1226108903638,804.4486010829627
1731142501.2592137,796.5098397980954,800.0075718436335,793.7990121804817,804.2756178136573
1731142501.2631228,822.7002508261605,799.9660814359819,793.2153318265109,804.10289329702
1731142501.2662692,840.7592596231192,800.829540531677,792.6641044761785,803.8569198719733
1731142501.267032,835.3696600080291,802.2005783324106,791.9421044106075,803.4665662662203
1731142501.2678266,807.8922636254368,803.2197467481875,792.0297349816873,802.9695173109707
1731142501.2709413,775.833799691817,803.0713346691618,794.3394825875372,802.6014155706526
1731142501.2748504,759.7988040927542,801.5484365437928,799.0002217641023,802.714526706166
1731142501.2777894,768.0331817337304,799.3229547491721,803.9383148182947,803.4160306554431
1731142501.2787597,790.9393668428282,797.6450345968872,806.0390612456954,804.0737013797242
1731142501.2826688,810.0665537165703,797.5555863931439,803.6700888327429,803.2128090648789
1731142501.283404,814.0038705945921,799.1324659306059,798.3167800690275,799.415121777379
1731142501.286578,807.57822458062,801.3727077536339,793.687572280066,793.064133168118
1731142501.2904873,806.4341689970254,802.8583973169328,792.9047872111139,787.3034224777233
1731142501.2943962,821.8150444147733,802.7266088430455,796.1360218433205,786.2531528747727
1731142501.2966547,848.9608459418714,801.2319080897421,800.6197454101181,791.0926158378134
1731142501.2983053,869.430314484799,799.5338969215077,802.9562033341082,797.7874158750634
1731142501.2989817,865.7483833672004,798.916734792041,801.6957596349472,799.5457796017135
1731142501.3011725,836.3636985371796,799.984211572212,798.1753110052001,792.5180174607027
1731142501.3022146,798.4495626758173,802.3052199168304,795.1145162821773,779.707358136696
1731142501.3061235,775.7372844735676,804.6728539459876,794.286764571303,769.2404709710576
1731142501.3100328,780.6804721068374,805.8165906811041,795.2082005935101,768.0277672628439
1731142501.313942,805.1989040603863,805.1841678207415,795.8494004434914,776.1155340753788
1731142501.3145592,827.6688614401808,803.3338228049246,794.6757381272449,786.7412980462344
1731142501.3155203,830.5900143057323,801.6274366697271,792.222782478996,792.1794783488568
1731142501.3178513,814.3971620367741,801.3229999883948,790.8048190439324,790.237202370692
1731142501.3217604,796.0562018060433,802.6351898227305,792.5463404213722,785.6643212070003
1731142501.3256695,793.9384475823647,804.4745329312655,797.4024548698204,785.4356533262528
1731142501.3295786,811.9968809731636,805.1545586445814,802.9031147257226,792.38513115069
1731142501.3301368,836.5213210669608,803.622310885791,805.9104772732084,802.8396059051556
1731142501.3334875,847.7511610701581,800.3158830177917,804.9737105446432,809.9556528642897
1731142501.334386,836.2062722935377,796.9875228860463,801.3899397787934,809.4773909577232
1731142501.336076,810.2290617213748,795.5886069324272,798.1795895717917,803.0374088332384
1731142501.3373969,788.9637615652941,797.0095132258984,797.8447781525012,796.6255270170765
1731142501.3413062,786.827305976489,800.5692610774531,800.654208860534,795.7621645566735
1731142501.345215,802.0714779215165,804.5679297623517,804.7017441783748,801.2182824137826
1731142501.3457143,818.5882408281329,807.3998394824031,807.5776436421116,808.5310748277171
1731142501.3491244,819.4656897381312,808.3586013810807,808.2462938202711,811.6649186055272
1731142501.3530335,801.2249529902797,807.6591246404831,807.6003860475464,807.9470300733371
1731142501.3532517,776.9670366088648,805.945328941215,807.2975773404386,800.3056461250105
1731142501.356943,765.7412474290624,803.8973620248407,807.9824230289914,794.9504695913865
1731142501.360852,776.9033733231762,802.211851418732,808.5483617080957,796.3722722428583
1731142501.361292,802.3584497128002,801.6686179512913,807.1449972167237,803.7188043911211
1731142501.364761,822.9385574186621,802.8774665073161,803.0139605985073,811.3910555912429
1731142501.3686702,823.5580284842474,805.7409562374747,797.4719602547561,813.2970034654817
1731142501.3709795,804.9142720392676,809.1585891111104,793.1735957083467,807.4789102892196
1731142501.3721173,782.6021022934929,811.4540108904607,792.3329935037114,797.6889006528795
1731142501.372579,774.5877118022585,811.3886051937174,795.3569528994299,790.6872943404227
1731142501.3764884,786.9907531334321,808.9979610671671,800.7626859674707,791.0314278886399
1731142501.3768694,809.3357183867088,805.5099397271618,806.123881158775,797.1508251589255
1731142501.3803978,823.0732071867393,802.3665603860329,809.229651715903,802.0971587721726
1731142501.384307,816.7219336028767,800.2065797748882,808.8908333252708,799.1091097349523
1731142501.388216,795.4659043625023,798.7148197391423,805.267793948889,787.9085720913941
1731142501.3909829,777.1618766610345,797.3784866418321,799.7170221507872,776.1585456458149
1731142501.3921251,777.6723445681903,796.2686972421803,794.1383604242825,774.0161417944986
1731142501.392447,797.4399283014297,795.9795475314811,790.036973339266,785.7993853983196
1731142501.3960342,820.5445365513908,796.8140558195041,787.8651669762789,805.821269313543
1731142501.3999436,827.3589271935741,798.1657922311724,787.1431068068741,822.1624044176475
1731142501.4038527,810.6591520709994,798.8601719401297,787.2254107778134,825.345911387723
1731142501.4058828,782.0497255599147,798.18707066066,787.968433753436,814.7935837163055
1731142501.4077618,763.3064544957082,796.5885962584142,789.6505780723455,798.1420467698914
1731142501.4080243,769.3411757440407,795.2761668098731,792.2663989348421,784.6730894747374
1731142501.4098485,796.2498118779845,795.1134088667965,794.985329003431,778.7097739542754
1731142501.4116707,824.0826213676195,795.834520183674,796.4517070193249,778.2090703748322
1731142501.4155805,832.4768115360695,796.3505210563889,795.7958667875233,778.9327754550619
1731142501.4194894,816.8438709254374,795.8518275000062,793.4861477785172,779.768619287777
1731142501.4233985,791.835765081453,794.6573732870817,791.1930352569639,784.0078449928394
1731142501.423602,778.9087531497122,794.0019581343963,790.6762334276024,795.2946995641007
1731142501.4273076,788.2287685341336,794.9420990881458,792.6056956072442,812.1372446554161
1731142501.428714,810.3097147759593,797.355220391412,796.322569595145,826.5612576142678
1731142501.4312167,824.5795078567235,799.8992889757245,800.6779438748323,828.9495149706584
1731142501.435126,817.4328644711018,800.9473180802993,805.0566465871333,815.4582537427223
1731142501.4390352,794.1804875782918,799.7099773060246,809.542115239533,791.8079759594538
1731142501.4391797,774.7151133982107,796.6818720338902,814.1090709075784,770.0554692844535
1731142501.4407864,776.6990024962175,793.1801881063105,817.8061787086713,760.6423741094358
1731142501.4429443,800.5208530556328,790.4734024954057,818.9680146809682,765.7287675049935
1731142501.4468534,828.6405318102135,789.1984338771356,816.4629749923904,778.6948012212313
1731142501.4475796,839.9685112895776,789.3596154099328,810.9003534511614,789.9066061410634
1731142501.4507625,827.4889297620982,790.6667408893675,804.6679344269155,794.1852734654866
1731142501.454672,804.4602242705485,792.8023203619712,800.6476094849983,794.2885119491505
1731142501.4547572,793.7208441242261,795.4515656761481,800.5092534893911,797.8526449983844
1731142501.458581,808.6463793019853,798.2248203708756,803.757899440402,810.3132901453819
1731142501.46249,841.5009420277339,800.6521943301312,808.1410809080189,829.5034088515381
1731142501.4663992,868.9734345963898,802.2791827619772,811.1308918138286,846.3916542433077
1731142501.4664452,870.504341610393,802.774758004391,811.5366213003094,851.6185153200693
1731142501.4703083,844.6592710406779,801.994494283726,810.2089561528094,842.8439600896854
1731142501.4703348,810.7231683753278,800.0241921965825,809.3362818944545,827.1234521708036
1731142501.4742177,794.5899634231064,797.223021624346,810.7588876522823,816.2431019004231
1731142501.47569,809.8880128072988,794.197935270766,814.4711575668921,818.3205178363504
1731142501.4781268,848.2961705018295,791.6267510053736,818.455645918415,831.9178951465308
1731142501.482036,885.8032553317211,789.9899282142942,820.0758971353016,847.148884528773
1731142501.485311,900.0070078373141,789.4203076129454,818.045596746447,853.0258376094396
1731142501.4859123,885.6829146916043,789.804355177805,813.4566575195413,845.5120243671632
1731142501.485945,857.2370296876866,790.9937316131211,809.0221946227974,830.1580304303102
1731142501.489854,836.5041427788783,792.8477000593028,807.1064269451955,817.4076475183639
1731142501.4937634,835.6498089160266,795.0575137516913,808.0995643827347,814.4199255494118
1731142501.4976726,848.7991003536845,797.0531303302718,810.3844632594778,819.9370939359821
1731142501.50149,858.6987553266129,798.2736037640518,811.7951000758919,826.095865164178
1731142501.5015817,851.913657463745,798.6321139456828,811.2732121435083,825.2865647073738
1731142501.5041766,829.0830535683068,798.6641928656305,809.4085763965184,816.0727803203017
1731142501.5054908,802.2248366140649,799.1040012645827,807.6243921605342,803.36025423343
1731142501.5094,783.5735431456712,800.2549572507531,806.9105143246511,793.4951887598593
1731142501.5105932,777.1538662944118,801.7736116509482,807.218543801406,789.428848493031
1731142501.5133092,779.0934240917261,803.0418066905529,807.8360408441977,789.9229568010662
1731142501.5170674,783.2744890429115,803.692026313551,808.1348073165741,792.029031538323
1731142501.5172184,785.9174354313033,803.7909255636067,807.9590807977211,793.6163833365072
1731142501.5211277,786.4404363570063,803.6408843425745,807.504882188167,794.1431281426931
1731142501.5230422,785.944843462896,803.502282339158,807.02048992561,794.0583674096787
1731142501.5250366,785.5495033067664,803.471282822623,806.6291569636098,793.9466774129131
1731142501.528946,785.67591554404,803.5187550986702,806.3258653332872,794.0824515469716
1731142501.532645,786.1806151580103,803.5816665071064,806.0543996190804,794.4343384122146
1731142501.532855,786.7663535471506,803.6223696002243,805.7719184768623,794.8588962064814
1731142501.536764,787.2553362160197,803.6378408474477,805.4681744703025,795.2540966379562
1731142501.5406733,787.6321623108299,803.6418932405471,805.1533512326921,795.5995014109545
1731142501.5419078,787.9608557875811,803.6469706118664,804.8400502654482,795.9225737152311
1731142501.5445824,788.2995902825749,803.6571649657776,804.5340310000418,796.2542739743437
1731142501.5454967,788.6676958024309,803.6704295917763,804.2345032538186,796.6077895502053
1731142501.5482223,789.055749661726,803.683364792344,803.9383441479471,796.980496582284
1731142501.5484917,789.4478800003718,803.6941200296684,803.6433674362776,797.3646811475493
1731142501.5524008,789.8353822535367,803.7026734014449,803.3491429122647,797.7553262496563
1731142501.55631,790.2180933905247,803.7098092917898,803.0562508503313,798.1517719753876
1731142501.560219,790.5996451403472,803.7161752835948,802.7653296673535,798.5557048168023
1731142501.5607734,790.9830521522601,803.7219624066987,802.4766297783729,798.9688254882989
1731142501.5638,791.3692014599994,803.7270530859907,802.1900638111734,799.3918357790774
1731142501.5641282,791.7575342160688,803.7312776550692,801.9054388109654,799.8246254280544
1731142501.5680375,792.1472447816176,803.7345572425337,801.6226215980435,800.2668580222197
1731142501.5719466,792.5379516847706,803.7369085445339,801.3415720886029,800.7183622044687
1731142501.5758555,792.9297175636498,803.7383862761986,801.0622990573779,801.1791945288444
1731142501.5793777,793.3227708597266,803.739034811118,800.7848102198194,801.6495216938783
1731142501.579639,793.7172731573264,803.738873943104,800.5090910841749,802.1294988167068
1731142501.5797648,794.1132653042033,803.7379080726894,800.2351094152103,802.6192226897392
1731142501.5804002,794.5107499926823,803.7361395501277,799.9628279544104,803.1187473869585
1731142501.583674,794.9097979194731,803.7335754523998,799.6922127637523,803.6281171273685
1731142501.5875833,795.3105683163895,803.7302276601007,799.4232344585467,804.1473842422897
1731142501.5914924,795.7131862759053,803.7261106959619,799.1558655572652,804.6766056482684
1731142501.5949552,796.1175283938899,803.7212403999537,798.8900777783097,805.2158291405374
1731142501.5954015,796.5231206428042,803.7156330136364,798.6258410862507,805.7650869327427
1731142501.5985043,796.9294298595507,803.7093024999144,798.363124361788,806.3244093438373
1731142501.5993106,797.3366284100907,803.7022558715416,798.1018967007892,806.8938557736133
1731142501.6032195,797.7463397917643,803.694490971429,797.8421282119302,807.4735356513293
1731142501.607129,798.1612573747642,803.6860041750649,797.583789387539,808.0635755205708
1731142501.6105328,798.5827003505395,803.6768106411208,797.3268488521046,808.6640107900463
1731142501.6110382,799.0069265509834,803.6669644135768,797.0712708780713,809.2746612881219
1731142501.6149473,799.423913594558,803.6565487394927,796.8170158762025,809.8951504590699
1731142501.6153035,799.823653509592,803.6456109426933,796.5640469255035,810.5252304010936
1731142501.61737,800.2107761623679,803.6340628820692,796.3123407910792,811.1653453765014
1731142501.6188564,800.6172913093,803.6216460551525,796.0618934047747,811.8169306532907
1731142501.6227655,801.0924299769665,803.6080978723661,795.8127045792002,812.481661120804
1731142501.6261103,801.6539725209882,803.5935442726961,795.5647367003648,813.1593488651885
1731142501.626675,802.2207226598704,803.5788481820048,795.317872971233,813.8457538165117
1731142501.630584,802.5992616504644,803.5653486688655,795.0719353341701,814.533374759044
1731142501.634493,802.6161890596094,803.5535617172635,794.8268152030379,815.2180242653894
1731142501.6362357,802.3964416517745,803.5413538696673,794.5826766289644,815.909302007215
1731142501.6384022,802.5763738202796,803.5235445599207,794.3400326717291,816.6349123962299
1731142501.641688,804.0537550263101,803.495410787565,794.0994157876268,817.4243832342547
1731142501.6423116,807.0190479848899,803.4601771162189,793.8605828676845,818.2685249224634
1731142501.6462207,809.7081188825691,803.4348929427845,793.6217932937286,819.0813731091941
1731142501.6501298,808.2749049785544,803.44402453884,793.3803064333719,819.723202090094
1731142501.650207,799.315996255734,803.4938128792863,793.1349931903742,820.1320723771803
1731142501.654039,784.4680045277819,803.53925851381,792.890070148849,820.5163659493994
1731142501.6551013,772.6758576250068,803.482255260964,792.656018879672,821.4084292017513
1731142501.6572654,775.1708031323379,803.2458544501695,792.4426252753901,823.3143444294528
1731142501.657948,795.1599873937311,802.9206106005403,792.2438206161329,825.9247350698719
1731142501.6618574,822.2685209689489,802.8748636560814,792.0255349810941,827.4254907165373
1731142501.6657665,839.2492066967837,803.6484220554244,791.7383685396447,824.9627927468201
1731142501.6696756,836.2976520893282,805.5552447553302,791.3700503500577,816.8710565292647
1731142501.672843,820.044677604062,808.2210133514845,791.0156449755822,805.363507205693
1731142501.6735847,808.6745662553218,810.4934521822554,790.8914204750656,796.6496551657294
1731142501.673967,816.8791605855237,810.9572712287459,791.2165711842508,796.8869660101158
1731142501.6774938,843.1086610781672,808.7690041444936,792.0084153972266,806.7246647201238
1731142501.6814032,869.6584316126698,804.2140292529384,792.997716658088,819.6289183525378
1731142501.6851106,875.7962692882132,798.602230901045,793.8122518341013,826.3355892894316
1731142501.6853125,853.9310686819749,793.6337912252155,794.2691471847278,822.2369786153506
1731142501.6884203,816.3868812383054,790.6944010098557,794.468053844475,811.5917262363206
1731142501.6892214,787.233237185273,790.4422399754485,794.6270048632983,804.793212565216
1731142501.6928325,784.8170161330544,792.7240111703442,794.885036090756,810.5495671599822
1731142501.6931305,808.0336515809623,796.6677619924409,795.2495811957455,829.0534312210578
1731142501.6970396,837.1577072632841,800.8817217436018,795.660521129932,851.5595988453297
1731142501.700949,849.1712149610705,803.8397005239443,796.064192931351,866.7258125603357
1731142501.703998,835.9169764637255,804.4826748632482,796.4425545230047,868.6824530405039
1731142501.704858,810.5514549776501,802.8005747661672,796.8039146417627,860.4925303719821
1731142501.7087672,796.7907688883053,799.9647698056732,797.1626302728514,850.5555106887642
1731142501.711698,809.4818914905946,797.7560029203297,797.5266487676378,845.341758743766
1731142501.7126763,842.3736055438245,797.5397741750877,797.896173717785,844.6603462357799
1731142501.7165854,873.1436117605168,799.4674726112137,798.2679352550616,843.1443633811143
1731142501.7195756,881.4717540241885,802.4879494614703,798.6391976539201,836.1726762159943
1731142501.720014,865.1851450977382,805.1457598739999,799.0091487907852,824.8546938790516
1731142501.7204947,841.2017597690502,806.5366550485854,799.3782956184084,815.8474101943117
1731142501.724404,830.6982850382972,806.7265526942707,799.7473800903514,816.2867554963476
1731142501.728313,841.0959396417372,806.434981512786,800.1167663492536,828.0514958666503
1731142501.7305636,860.1246034215009,806.3558955950459,800.4864136983849,845.9235729386228
1731142501.732222,866.9767381810628,806.6719858442202,800.8561187176026,861.0373570176582
1731142501.7351532,850.8794822806377,807.0605520352228,801.2257218968891,866.9430799649734
1731142501.7361312,820.9363774914066,807.0777803441046,801.5951690084688,863.6461353911243
1731142501.7400403,798.6663361509329,806.5588687805216,801.9644697346598,856.5196129294084
1731142501.7439497,799.7409994153309,805.7191006987869,802.3336363966488,850.9999724010102
1731142501.7478588,820.64908572283,804.9119767828764,802.7026539934986,847.5302704773159
1731142501.7494292,841.4711486975644,804.2809581586237,803.0714890637188,841.3055873068331
1731142501.7507308,842.1742263186021,803.6180386782428,803.4401184590674,827.4336529502162
1731142501.751768,818.9436654398764,802.5617612100506,803.8085496443085,807.136002273421
1731142501.7549174,787.5502841907365,800.9785988717899,804.1768060499838,789.0760690741716
1731142501.7556772,771.2315925443093,799.206155372976,804.5448694756672,783.7551066521047
1731142501.7595863,782.5425391266336,797.9311073418525,804.9126138910389,795.1870261287822
1731142501.7634954,813.3198281555774,797.7650185232033,805.2798142300891,817.001651596246
1731142501.7663083,840.8410902727633,798.8341801521462,805.646312619949,836.6194714571109
1731142501.7674046,845.64229502063,800.693124607345,806.0123063392331,844.1659808156007
1731142501.7682948,826.8812041614339,802.6039943545926,806.3784998717025,838.7911593004666
1731142501.7713137,802.6687360510199,803.9395259397218,806.7457205692175,827.5783816771426
1731142501.775223,794.8767891776813,804.4221082226918,807.1138459826269,818.6469656946382
1731142501.779132,810.860617082301,804.111918984821,807.480689455492,814.5587112971994
1731142501.781886,837.2523882396301,803.2685532207909,807.8424085287797,811.2191775549833
1731142501.7830412,850.9249622581167,802.2291371154574,808.1968623018738,802.5193859423819
1731142501.7869503,837.948716605783,801.3182550252864,808.5489489478998,786.4300153682932
1731142501.7871604,804.9928980260108,800.7378810638528,808.912791061528,767.6075318619049
1731142501.789821,774.1405859490951,800.4685547375074,809.3034107814959,754.706713331627
1731142501.7908597,765.5804616940195,800.3054759636133,809.7160549021326,754.5989007472058
1731142501.7947688,782.0965638586905,800.0772267037693,810.1068438046726,767.6657697311603
1731142501.7974634,807.5794756332973,799.8885710569593,810.4046356401651,787.3737322499211
1731142501.798678,820.5474863647502,800.1308030689474,810.5782817853287,804.4023017080594
1731142501.802587,811.6332140934334,801.1726848996119,810.7350287272072,812.5122247567812
1731142501.806026,790.7008598485866,802.9526555317676,811.1484771002755,812.0072911434567
1731142501.806496,777.7370991866378,804.8362254703883,812.0824400304103,808.2334663288526
1731142501.8104053,785.2732149877373,805.9192672593472,813.3973355527635,806.3236555400482
1731142501.813041,807.3356550502116,805.5946527008851,814.2268989637362,806.5350675991825
1731142501.8143146,824.3255096291381,803.9708283008854,813.250517576803,804.2097856425263
1731142501.8182237,819.572839372148,801.8296018083267,809.7510741289809,794.5287179545784
1731142501.8221328,793.5316557647996,800.1476731995897,804.7087166723941,777.9927690175301
1731142501.8247242,763.9024742778844,799.5074580953526,800.6998459241887,761.6740733366127
1731142501.8248916,751.8147315555275,799.7695803551596,800.2713078332906,754.6279051066635
1731142501.826042,765.319730327521,800.1751446306255,803.9560039383543,760.7463692366609
1731142501.8286183,793.1920769195419,799.7738289258874,809.5944815774449,774.8097175689187
1731142501.829951,813.7520726214849,797.9229710636037,813.6480767612413,785.4185922830598
1731142501.8338604,811.7436233973729,794.6278349355774,813.6111666468356,783.1638052875714
1731142501.8377695,789.9890798099957,790.6096934273993,809.7214424123845,767.8566035860056
1731142501.8416786,766.5500729185305,787.0826917968146,804.6601109067607,748.8788024535108
1731142501.8437574,759.7111894879182,785.2749338813535,801.478929610167,738.0836972786359
1731142501.844196,773.0968111422426,785.8287007236448,801.3621047661461,740.8920809731488
1731142501.8455875,793.1776991764814,788.3815175552402,802.9256923029313,752.7722928009547
1731142501.8494968,801.1219156448407,791.6802377476037,803.526006955352,763.6375836234776
1731142501.8534062,788.9816589573327,794.2958067600598,801.4890171315761,765.967443146633
1731142501.8573153,766.6480380270733,795.5073267902823,797.4915134099837,759.7126100584827
1731142501.8596275,753.788020033334,795.6905078549254,794.0256717007237,750.5896659563399
1731142501.8597736,763.4724740477118,795.8943154371613,793.4001855219134,744.5194723062009
1731142501.8612244,790.9919356489461,796.9431625868917,795.8746904863111,743.6247288380986
1731142501.862623,817.0658415324905,798.7606688756803,799.3980524567731,746.3658566734017
1731142501.8651335,823.0092578517131,800.3914125972727,801.1473638303429,750.1027605606517
1731142501.8690426,805.7118165023895,800.6548809406424,799.6581855869076,753.1722689874421
1731142501.872952,780.1555213692474,798.9518122203339,795.9001200566754,755.3053699206414
1731142501.8753512,767.0870026897533,795.6988826470158,792.5176593135777,756.979225666393
1731142501.876861,775.7917808123625,792.1414050581251,791.9024236673672,758.6866563890165
1731142501.8807702,796.3920698587386,789.6852240628186,794.5947111818596,760.6169923111773
1731142501.8814886,808.3623331940705,789.1775830066205,799.1077476392278,762.7100327850081
1731142501.8846793,798.2306912499853,790.5757953021125,803.0969599831625,764.8356451162706
1731142501.888589,771.5191319204117,793.145576307517,804.8798270144059,766.9148172571116
1731142501.8909287,748.7647853128776,795.9456944797957,804.2657764269983,768.9398010269025
1731142501.8924978,748.8148328020868,798.2105915439057,802.3182865402368,770.9382609116589
1731142501.8945312,773.1849532185574,799.4472578401648,800.4489601891745,772.9357447238668
1731142501.896407,804.4392731250249,799.3743977729117,799.6022380904149,774.9408790117535
1731142501.900316,820.1456039560455,797.9321599451831,800.040619054068,776.9495817831423
1731142501.900354,811.1928472214707,795.4296639559136,801.63540950705,778.954817134438
1731142501.904225,789.3441184942628,792.6827687340907,804.148646759311,780.952636476951
1731142501.9065063,777.3087473698956,790.9169973336695,807.139533553526,782.9428472259838
1731142501.9081345,789.1005523276881,791.3114318415246,809.6716987363793,784.9269520594535
1731142501.9120436,817.2106049302283,794.3043735013783,810.3549666940384,786.9062019802941
1731142501.9159527,838.1160040348474,799.0717197705277,808.0251559242076,788.8809190532114
1731142501.9192195,832.1988993162471,803.6836721125029,802.7234861106037,790.8507974496852
1731142501.9198618,801.3392420971056,806.099155624311,796.1650104169553,792.8154445512359
1731142501.922084,768.8848380585174,805.4820063296829,791.0691474828229,794.7746795707759
1731142501.923771,761.5492602885048,802.8811483497994,789.550525966548,796.7285093120364
1731142501.9276805,788.1093377337958,800.6381926035742,791.6442848191065,798.6769378205464
1731142501.9294343,832.3500083980911,800.8450412803892,795.1649961489521,800.6198185128862
1731142501.9315894,865.7407791529365,803.9716315583455,797.1696435666464,802.5569062473265
1731142501.9354985,869.312310714747,808.6700486345954,795.9761345264026,804.4881417261863
1731142501.9376614,847.2521052417488,812.8038237371197,792.1649374747349,806.4139853536485
1731142501.9380853,821.8800096556348,814.8122318554732,787.8321295320164,808.3353857987978
1731142501.9394076,814.6787741757341,814.4100059083969,784.8531147686059,810.2529816858914
1731142501.9433167,828.9984579339414,812.3264260781417,783.6788401797525,812.1657074374261
1731142501.947226,848.381860492568,809.5680544088451,783.5314085928932,814.0700458119833
1731142501.9511352,851.4970797862002,806.8839357442231,783.4979104475942,815.961864595376
1731142501.9532387,830.9401626464999,804.7073994899544,783.3206242771143,817.8415870066076
1731142501.9550445,800.1486717749364,803.3402200132721,783.2636308466671,819.7195979961687
1731142501.956951,782.840613406225,802.9998371692272,783.5316099628408,821.6143404161767
1731142501.9589534,793.9092538189811,803.6270913972296,784.0888115517168,823.5361725576017
1731142501.9628625,827.3420969506026,804.7169091529573,785.059243804435,825.4615637649954
1731142501.964338,860.5696813849008,805.4914309570797,787.0505274806153,827.3223146276006
1731142501.9667718,871.4567172114621,805.4053228803899,790.7269788135401,829.0453764420397
1731142501.9688165,854.5976640999332,804.5887271288053,795.8092274937708,830.6524259740818
1731142501.970681,824.5974266293592,803.8112528428212,800.5058838476805,832.3534659911919
1731142501.97459,804.2395861814254,803.9478566557958,802.2639422408015,834.4897046594925
1731142501.9758165,806.9607765391208,805.3637292558737,799.6023093688027,837.2064891218316
1731142501.9784992,827.2499612961516,807.6857728885507,793.6243433543121,839.9665063419363
1731142501.9824083,846.2528681329429,810.0679628851449,787.771007637365,841.3770248844143
1731142501.9843938,847.7493404685728,811.6671217183176,785.7164003821664,839.931246864772
1731142501.9863176,831.3694999122995,811.981155093182,788.9147918580737,835.5905448958205
1731142501.9902267,812.32434115326,810.93370181434,795.6925160286046,830.7415246796363
1731142501.994136,808.1802002248257,808.8078293720553,802.5414799036705,828.7285204368559
1731142501.994682,823.862732949101,806.1410240870382,806.5202912264081,830.5540205032189
1731142501.998045,847.2598928802939,803.5883315022176,806.915664442688,833.1880219100882
1731142501.9992416,858.8852732802604,801.7289633930217,805.0978518750156,832.0089938330669
1731142501.9999714,847.7264975801736,800.8720434345447,803.0443565818322,825.6068129403451
1731142502.0019543,820.611928180686,800.9869223710944,801.9409557813062,818.3632826997748
1731142502.0058634,797.5188203801114,801.8247523397168,801.8374341621546,817.8658401500031
1731142502.0097723,796.1813303000603,803.1350248766788,802.1847247075361,828.7019363487442
1731142502.0135477,817.9354174113942,804.7751370078104,802.4823843895463,847.6050808308619
1731142502.0136817,846.1958644010749,806.6052123329473,802.5515319137611,864.310679107082
1731142502.0155487,859.1650912672588,808.2960369304916,802.45937399532,868.1111041936799
1731142502.0175908,846.806010399815,809.313075890232,802.3356454544052,855.4461918643148
1731142502.0215,818.4137257072756,809.2024114854247,802.2555011122953,832.7867349349236
1731142502.0254092,794.7666658606521,807.9992599371786,802.2235631396368,812.5178049082076
1731142502.0293183,791.5311789526199,806.3910592634293,802.2112266088352,804.7645634260193
1731142502.0311265,807.5142775140956,805.3887108077517,802.1934856838899,811.0333037446435
1731142502.0324132,826.8484048307714,805.6360407457025,802.1625236423392,824.02863252398
1731142502.0332274,832.5895165692208,806.8493830121266,802.1228174600901,833.3843432379717
1731142502.0341449,820.3632379834271,807.9000113593133,802.0813536024785,832.8343273597939
1731142502.0371366,801.2845387804041,807.6031523177244,802.0418552804465,823.5755149848322
1731142502.041046,792.2478451316201,805.6519411706904,802.0043406858983,811.7350417043649
1731142502.044955,801.7059264354452,802.9152852439355,801.9672485483568,802.5878057272688
1731142502.046704,822.5687908372942,800.8105393850781,801.9293390308761,796.7198644172244
1731142502.048864,838.0772391406346,800.264677804802,801.8903102958292,791.3749014218745
1731142502.0512788,835.855100506107,801.1176825628462,801.8504777653361,785.2610211628283
1731142502.0527732,818.4457474347994,802.377499470184,801.8102508962073,781.6915891100545
1731142502.0566823,801.4153144088623,802.9872497616217,801.7698498326984,786.5070636389847
1731142502.0605917,800.4864405526773,802.445145822234,801.7293021923874,802.4007800942434
1731142502.0622816,818.4399800977925,800.9287255382048,801.6885622519161,824.9869493026843
1731142502.0645008,842.7125975521416,799.0650904204109,801.6476082558701,844.5425694562368
1731142502.06841,855.568405737954,797.6425906819532,801.606469504731,852.2657701750139
1731142502.0690484,848.2677676285349,797.3627088037456,801.5652063188935,846.014965202405
1731142502.0701444,827.5887642756343,798.5720316920421,801.523882251073,831.1683091808441
1731142502.072319,809.6009395260943,801.0238760939369,801.4825503138568,816.3599195598911
1731142502.076228,806.0855620398141,803.8876921669264,801.4412538212844,807.620092195565
1731142502.0778592,814.9594433080961,806.1298554765642,801.4000329706774,805.1447544989172
1731142502.0801375,822.7456816025148,807.0645408449351,801.3589297639818,804.6207496682938
1731142502.0840466,817.0484339146926,806.6823653067544,801.3179891252411,801.6868323882009
1731142502.0879557,798.2945919574879,805.5379886179264,801.2772576698169,795.9250397016506
1731142502.08901,780.2914217669604,804.3349079551868,801.2367822183783,791.1772908438008
1731142502.0918648,778.6578281670833,803.5374395008022,801.1966091148684,791.8619157482867
1731142502.0934367,796.8700793360248,803.2401420731076,801.1567843014599,798.3576862395647
1731142502.095774,822.0695953613492,803.2870701842477,801.1173536573871,805.6264158262221
1731142502.0996833,834.6505097570014,803.4638542022759,801.0783632248932,806.7479526472638
1731142502.1035924,823.9509442260542,803.581524421939,801.0398592309645,798.7521266692693
1731142502.103952,797.1043915880748,803.4147888271259,801.0018879932945,785.8151552379092
1731142502.1075015,773.6683403857579,802.6378967850162,800.9644958209584,776.8335097497404
1731142502.1078756,770.2874173982492,800.9471795476525,800.9277289606878,779.0340894181135
1731142502.1090145,787.7115826599853,798.3785202242765,800.8916335821274,792.5731414170475
1731142502.1114106,810.5242334275525,795.5583661257405,800.8562557747232,810.2816807952462
1731142502.11532,819.7061530789072,793.5633007704274,800.8216415370325,822.706980584077
1731142502.1192293,807.8960519599349,793.3449299543065,800.7878367550109,824.6785319655254
1731142502.1231382,785.0763804584539,795.07933292868,800.7548871753291,818.6369137363093
1731142502.1245918,770.1735650481432,797.933487359133,800.7228383805318,812.4029380764498
1731142502.1267412,775.4773847858374,800.4626093531846,800.6917357684351,813.0895217609836
1731142502.1270473,796.5159951941456,801.4033951138402,800.6616245328041,821.637073754046
1731142502.1309564,815.4547456004541,800.3629461279857,800.6325496393197,832.0032934956441
1731142502.1348658,815.1729570169053,797.9845141705739,800.6045557930457,835.621393348509
1731142502.1387749,792.85806165931,795.5159004052292,800.5776874024386,827.849601841408
1731142502.1388552,762.657235371566,794.0836819196069,800.551988556485,811.7373486224004
1731142502.1401694,745.6035499340121,794.1362416970176,800.5275030337228,796.539035339445
1731142502.142684,754.5923281954318,795.3566629684557,800.5042743399259,792.1685896696151
1731142502.1456068,785.4776478919524,797.0035882799976,800.4823457252279,803.2612333561166
1731142502.146593,820.4548599883718,798.3805395088067,800.4617600962436,826.2710445444337
1731142502.1505022,840.778712455993,799.1264753355667,800.4425597795631,850.9351701781368
1731142502.1544116,839.1990181287428,799.2250755083973,800.4247862512659,865.1621985023753
1731142502.1557467,823.0866796975015,798.8644127294854,800.4084801485786,860.9230040389508
1731142502.158321,806.6029561367192,798.3411420193254,800.3936818889662,838.2258295485236
1731142502.1622298,798.716200486718,798.0480186439595,800.3804327704028,804.9657186153529
1731142502.1644723,796.7626896094521,798.4080753085262,800.368775559606,772.5932672121896
1731142502.166139,790.4456243693663,799.6648362942697,800.3587530018261,750.2734030377006
1731142502.170048,772.6251292275871,801.6651403845602,800.350403629318,741.2917942614242
1731142502.1713245,747.6715878860779,803.8741107185508,800.3437573462421,743.5155297988846
1731142502.1737587,729.9036998696674,805.6714256921829,800.3388368795491,752.3363278430628
1731142502.173957,732.6128914333844,806.6960769354869,800.3356707360513,763.0830571705003
1731142502.1778665,756.3505623932998,806.952028930941,800.3343140613299,771.656341686486
1731142502.1817756,786.6816168443422,806.6207682465445,800.3348575279783,774.7176350482126
1731142502.183338,804.4018624256234,805.8099681715775,800.3373954207942,771.0101336610535
1731142502.1856847,800.5965873385312,804.5170075747296,800.341945154507,763.1509378794865
1731142502.186902,783.9814218304064,802.8384141701268,800.3483707620657,757.4164300154282
1731142502.1895938,773.7320350698867,801.1531865456429,800.3564268130542,760.16799361781
1731142502.1935031,783.2405072100267,799.9987286293749,800.3660186410707,772.9000694103985
1731142502.1974125,808.4063702905996,799.7023795711044,800.3775874990075,790.0707777825047
1731142502.2013214,830.6135958781593,800.1434459875384,800.392226435549,802.2715071449048
1731142502.2022038,832.1082733357975,800.8933378800431,800.4110012103489,802.8718281820506
1731142502.2024796,810.8968794776617,801.5453495358186,800.433408871714,792.994551338749
1731142502.2052305,782.6944534516878,801.8542382328774,800.4560708558595,780.7227609228373
1731142502.2086625,768.2837581430491,801.6061573878142,800.473871681842,775.0676283336938
1731142502.2091396,776.6782116340904,800.5248616619167,800.4851325941241,779.4439120174379
1731142502.2130487,797.973886122474,798.4734453216182,800.4986533610322,789.6856399761627
1731142502.216958,811.9791691194406,795.791114159641,800.534868780694,797.9008519207997
1731142502.2180572,805.7001025581819,793.3494894867714,800.611647076392,798.8630510873446
1731142502.2208672,785.027788123187,792.1409870096584,800.7150494268279,793.8332022821154
1731142502.221069,770.3312074760662,792.6638979092054,800.7777540086757,788.995265927398
1731142502.2247765,779.0784270639992,794.5746753949982,800.7071266576934,790.0886152466743
1731142502.2286856,809.9337704199567,796.8779250283246,800.4893745029166,797.7390385408621
1731142502.2325947,842.0569625820453,798.5353685089409,800.3235611799394,807.1498319260215
1731142502.2336347,850.8226216434497,799.0933829397454,800.6433822548146,812.0987702819602
1731142502.2365038,827.4524299190447,798.9130820881388,801.8864658352031,809.7962605288229
1731142502.2399347,786.7041250546276,798.8391160114492,804.0892985569043,802.7738278244086
1731142502.240413,756.3534562615146,799.5276170998213,806.6792549991015,796.5637385493818
1731142502.2435656,756.6026997373885,800.9185135022401,808.7755654866799,795.1982749985408
1731142502.244322,785.3006150962801,802.2554338671315,809.792301894553,798.0862509221087
1731142502.2482314,820.2533327133393,802.6439640510607,809.7735116293042,800.704191898077
1731142502.2492125,836.6809922013998,801.7119703132647,809.1989865929717,798.6065708828552
1731142502.2521403,826.108940436085,799.8620916996765,808.5542967451454,791.5621127075582
1731142502.2560496,801.8463737673125,797.95687041883,808.0709980436776,784.3065442205557
1731142502.2588005,786.9656509546942,796.7385671831557,807.7420295845038,783.0369240987532
1731142502.2599587,794.970877581343,796.4538599765878,807.467137109069,790.4051210303177
1731142502.263868,819.2503622562788,796.9094494917745,807.1702643827512,803.2328702645225
1731142502.2647898,839.7181028405137,797.785689302868,806.8338032581888,814.9652295369127
1731142502.2677772,840.3428055204754,798.8591561949938,806.4764408797938,820.7913144123255
1731142502.2716863,822.3773148775341,799.9784343060192,806.1208438838474,821.0246965736983
1731142502.2755954,802.5037598997231,800.9595573446188,805.7772437660478,819.9161949293086
1731142502.277666,798.3044489876017,801.6192924865463,805.444138546072,821.1701208389483
1731142502.278469,813.709005904295,801.9064083337166,805.1159212244295,824.3118186659507
1731142502.2795043,836.2224735099481,801.9349752277105,804.7887217325681,825.1496055136697
1731142502.2803674,847.5999509904042,801.8778251614875,804.4618316093,819.8596798702389
1731142502.2834136,838.931000025449,801.8503316654786,804.136339997194,809.0747746278824
1731142502.287323,817.9103837667226,801.8792976639281,803.8134231500333,798.3741912323105
1731142502.291232,802.4192727654264,801.9393790865313,803.4935536979789,794.5512728116763
1731142502.2951412,805.5455077317425,801.999521259462,803.1765996015012,800.4923828005415
1731142502.2959447,824.3099122913611,802.0459007759791,802.8622444439078,812.7298516211354
1731142502.2965317,841.6274154229359,802.0808295466546,802.5502840106417,823.7684453870215
1731142502.2990503,840.2276891353242,802.1121401668611,802.2406840729419,827.6124275672262
1731142502.3029594,817.2327622997644,802.1451540767182,801.9334970265454,824.361178045968
1731142502.3068688,787.3562546770377,802.1807919931667,801.6287661650135,820.2848085688098
1731142502.310778,771.932323426946,802.2175095028156,801.3264829385383,823.0622507799574
1731142502.3115225,782.4304270710668,802.2536688088916,801.026599658147,835.4671786848819
1731142502.3133726,811.3978583582522,802.2886164844717,800.7290727773874,852.1486317676857
1731142502.314687,837.8308276312829,802.3225318087938,800.4339058893339,862.2896994762958
1731142502.3153973,842.8916960415422,802.355841513999,800.1411570678691,856.9133568344274
1731142502.318596,824.0700641905892,802.3888138332964,799.8508783789829,835.9158390953992
1731142502.3225052,796.8803207105025,802.42148313977,799.5629944504012,809.2858442323007
1731142502.3264146,782.470401184872,802.4537635901278,799.2772118800115,790.7058560242984
1731142502.3271,790.6588136614332,802.4855729695413,798.9931250979444,787.814162102624
1731142502.3303237,812.1807268597275,802.5168838989209,798.7106214412162,796.8544460693596
1731142502.3342328,826.8911227893531,802.5477125647789,798.4303933183969,806.400571306016
1731142502.3342628,821.3024786427293,802.5780881815585,798.1539565398801,807.1639147999417
1731142502.338142,800.5534983377137,802.6080325487992,797.882494404738,799.4563395599989
1731142502.3420513,784.4434598098667,802.6375541306255,797.6146506313487,792.0378686765013
1731142502.3426776,790.8043129572899,802.6666488618182,797.3450849675056,793.8720275023929
1731142502.3459604,820.1911597461211,802.6953033437003,797.0669027864965,806.3117810170863
1731142502.348276,854.5217691193913,802.7235045513194,796.7795663809953,822.1543044501567
1731142502.3498695,870.6308784340664,802.7512602772632,796.498061563215,831.618362330124
1731142502.3531284,857.821932420035,802.7786202355654,796.2516672764939,829.7834275827462
1731142502.3537786,825.6760047547161,802.80566819905,796.0603490682993,819.6335312365123
1731142502.3576877,796.2038135970569,802.8324559943626,795.8934846551,808.8954022419987
1731142502.3582551,786.6497140549172,802.8588963456795,795.6477133764514,803.6536649958764
1731142502.3615973,796.6323323837178,802.8847152122646,795.2021811721136,803.8734436474815
1731142502.3655062,809.9754919818223,802.9096121803411,794.5757025116075,804.2523461928373
1731142502.3694153,809.6658468551526,802.9336722549195,794.0992241145913,799.5769148217588
1731142502.371994,793.2717777780986,802.9577641842856,794.393648529619,790.0786706934133
1731142502.3733244,775.4614264592249,802.9833283942388,795.9874362056229,782.1157493393924
1731142502.3738327,775.1569180815918,803.0110529651568,798.7508004269483,783.2473574078913
1731142502.3772335,798.2450027505814,803.0388871664543,801.691671795467,795.5519117013752
1731142502.3811429,830.8968570139323,803.0614012772954,803.4885168687766,812.855874203279
1731142502.3831794,849.6551475137297,803.0732085932892,803.424901943257,824.6435145984528
1731142502.385052,840.1802386330133,803.0768617503745,801.9407832546998,823.9717733724211
1731142502.3889613,809.1473255186509,803.089673794021,800.361033746929,813.1380530975105
1731142502.3894105,779.3861483979954,803.1381031563747,800.0833792842685,802.2224775636124
1731142502.3908596,772.0567481034726,803.2313105202451,801.8744843339314,801.1301287391693
1731142502.3928702,790.1505197309524,803.3245212563525,805.6863145855264,811.1954109392974
1731142502.3967793,816.5779746343526,803.3113844709211,810.8852861467583,823.3463322723798
1731142502.4006886,828.4710793460295,803.0932231711803,816.5011527545192,825.0278491284402
1731142502.4045978,816.2391998941697,802.7232320521944,821.3101161803797,810.8763194654645
1731142502.4049878,791.8476249711016,802.5191099693715,823.9960992360803,788.3936878823669
1731142502.4085069,779.3465567313195,802.975115061496,823.6970755531997,773.3185571516747
1731142502.4097252,795.168786636729,804.4107830283788,820.7184626487123,777.7781099489357
1731142502.412416,834.1837603245021,806.5475150945383,816.6648560518721,800.6048492701079
1731142502.416325,872.8426689607652,808.380209284749,813.5190011030834,827.7383540036449
1731142502.418083,886.8721692409623,808.5855574910076,812.2287612842931,842.4527446211858
1731142502.4202344,869.3456398474146,806.3140950981086,812.0570546921697,837.2310282144261
1731142502.4205654,834.9419153483059,801.8538561545536,811.3894704819386,818.093282538804
1731142502.4241436,807.5232427530851,796.6556205699662,809.3130634637316,798.6369390811325
1731142502.428053,801.4712538162335,792.6224983643389,806.4908441820075,789.2942460932265
1731142502.4285908,811.8084120345535,791.0902631121193,804.5161068150835,790.5802970422835
1731142502.4319618,820.5324618473431,792.1505501303776,804.397574494649,795.1178137366285
1731142502.435871,813.218200694015,794.7232929818106,805.6343207736621,795.7071014723925
1731142502.4361427,791.7774800030581,797.2693050976518,806.7127601464954,792.0057601738736
1731142502.4397802,772.8689633735207,798.6413111289639,806.4706122573995,790.1824472686715
1731142502.443689,773.6052704302201,798.5575908861963,805.0109000962908,796.3395550123661
1731142502.4474564,796.7177711637314,797.4942615115123,803.3947938605447,809.9044163661675
1731142502.4475985,827.5866046441072,796.1746959335071,802.5546076017056,823.0278719179859
1731142502.4515076,845.5799449268869,795.0515878885516,802.5297323575336,826.6612513924571
1731142502.4517205,840.3830544140083,794.1321430765291,802.6772593409823,818.1492497740046
1731142502.4529862,820.0208624457767,793.2266280163645,802.497630811198,803.8391890771449
1731142502.455417,804.1009735663569,792.3616622415988,802.1646006612534,794.4018582221071
1731142502.459326,807.7705812324475,791.9440245060327,802.2490287100165,796.6534046154128
1731142502.4632351,829.3852954132799,792.4678368329338,803.0199727619273,808.5051319064704
1731142502.466322,851.9251228136653,793.9969209133953,804.1619590722743,820.9448580456063
1731142502.4671445,857.0647414479494,795.9157272031598,805.2742401738797,825.139220823665
1731142502.467298,840.444403133854,797.2423498277218,806.5901249502487,818.8266358155873
1731142502.4710534,815.6094368077313,797.3071539828185,808.9781506177414,807.2193333587988
1731142502.4749627,803.3267112214929,796.2734585239986,812.9532297270159,798.3271131952846
1731142502.4788718,814.975826437897,795.0853900348097,817.5258598619899,796.8350796715462
1731142502.4827807,843.4844189926715,794.8561729157997,820.1194739236922,801.2510186267845
1731142502.4828756,868.9708682269421,796.1214109474961,818.0037649226033,806.0771502390684
1731142502.4851875,874.3437700481844,798.4844644464453,810.3758994724183,806.8797018823238
1731142502.48669,858.3806024555171,800.9006511890592,799.5056596864023,804.1309767546109
1731142502.4878898,836.0971031166439,802.3839876762084,789.860821836807,802.7724757674349
1731142502.4905992,826.3016766585241,802.6251676940501,785.535768123181,807.7768692332487
1731142502.4945085,836.2742370524054,802.1041986851455,787.6500509565847,819.2859129813651
1731142502.4984176,855.8782644071712,801.6719028484247,793.6219722625854,831.5964024438106
1731142502.4984531,866.0238172385598,801.9483723658786,798.9787789322511,837.3473407763234
1731142502.5023267,854.7255510406928,802.9753199063108,800.4454515611337,833.7222491132687
1731142502.504053,827.4996443546801,804.3268947097484,798.0156009894436,825.2881674401739
1731142502.5062358,803.2607411708902,805.5240110315983,794.5077169647496,820.6300378847956
1731142502.5101447,798.8788722816716,806.3865919018331,793.1199076523658,825.2821573412997
1731142502.5140307,815.1417787603519,807.055008069671,795.0156934422037,836.8231776705495
1731142502.5140543,835.8593283570183,807.7242684709068,798.7654732225567,846.286273886303
1731142502.5179634,840.975264946257,808.3776950663683,801.8160940147678,844.7994877473894
1731142502.5218723,822.9426517338522,808.7613519845959,802.5375781965681,830.2178881404831
1731142502.5227933,792.9808517443427,808.5782874073475,801.1445061801038,808.748907774933
1731142502.5229187,772.1699479445008,807.6882885505235,798.9831924373857,790.5684616417777
1731142502.5257816,774.5793812102353,806.1529789193612,797.1309103098417,782.7938190566468
1731142502.5296082,795.9358728196929,804.1569219900779,795.666717391521,784.888623933285
1731142502.5296907,816.9451215195766,801.930458156838,794.1101010859734,789.7862610654523
1731142502.5336,818.7555815169828,799.7282691656387,792.3356605673664,789.9478363949756
1731142502.5375092,798.1726661720825,797.8166458109794,790.9091823376483,783.7662715395253
1731142502.5414183,770.1674217319879,796.4285677579304,790.5141115169927,777.072169003482
1731142502.5417843,755.5739176604767,795.7216484194531,791.1405333422096,778.1587979419083
1731142502.5451858,764.2715709718287,795.7857305940084,791.9566163110029,790.2582682689864
1731142502.5453274,787.8515067776746,796.6658913599949,792.0516499684245,807.9247023255435
1731142502.5492363,807.4080084701084,798.3151651333858,791.3270059336077,820.6064707148246
1731142502.553146,809.1081174391337,800.4697620642759,790.6733763218622,820.4350715356208
1731142502.557055,794.0888181263009,802.574181716969,791.2955442194227,807.6854337861993
1731142502.5576966,775.1365748104952,803.9066838011623,793.8023213948929,789.7206584410769
1731142502.56065,764.7328222577842,803.9113664372082,797.7322648427173,775.0661466762436
1731142502.5607634,765.9899437299528,802.5515714614049,801.6961629704621,767.9823289954172
1731142502.560964,773.4109699973361,800.4238561582952,803.9526697857073,767.4106382444702
1731142502.5648732,779.9732991637118,798.4850420881936,803.2124213860377,769.6992976521568
1731142502.5687823,782.50071787259,797.504552761164,799.4188308585252,771.8106949531218
1731142502.5726917,781.8526237313732,797.6070310350251,794.0162503211179,772.6557526469641
1731142502.576341,780.2875346983564,798.2829191780168,789.2596773545956,772.5940990592078
1731142502.5766008,779.3196855665587,798.8977481028603,786.8404227956702,772.3608854896789
1731142502.5795157,779.2185985092405,799.2648840449963,786.9061807943584,772.3860988192748
1731142502.58051,779.5573575152214,799.7484089326455,788.319606951208,772.6976140672074
1731142502.584419,779.8787580587142,800.8209138901733,789.7693927027847,773.132386779183
1731142502.5883284,779.9990427322164,802.5657282326645,790.6178272555385,773.5470453217962
1731142502.5919185,779.9671035203662,804.63978173384,790.9378862516721,773.8962873369333
1731142502.5922377,779.9014202056875,806.6545679194243,791.0800908378046,774.2053558630865
1731142502.5926,779.8764412376563,808.455308406101,791.3009749846809,774.5141488500283
1731142502.5961466,779.9012442380935,809.967722077295,791.6582377540392,774.8440460569277
1731142502.5983813,779.9512055477975,810.8972939795773,792.0886549760602,775.1952240849589
1731142502.6000557,780.0026698955696,810.8058034708927,792.5167151301144,775.5587522887746
1731142502.6039648,780.0472480698886,809.5909541425615,792.9088588570038,775.9274835037137
1731142502.607496,780.0884249519223,807.7779663173685,793.2705370149832,776.2996217110119
1731142502.6078742,780.1326836380827,806.186441676221,793.6205582597692,776.6769128063202
1731142502.6117833,780.1838184085741,805.316896176228,793.9717130921191,777.0616546707472
1731142502.6156924,780.2421717886173,805.1086303449206,794.32620549785,777.455067918904
1731142502.6172469,780.3064648122036,805.1923417418241,794.6803047157205,777.8572694622516
1731142502.6196015,780.3755982669753,805.249960831953,795.0300537964717,778.2679514425264
1731142502.6230736,780.4493158963796,805.1689424164217,795.3738656172028,778.6869390189809
1731142502.6235106,780.5279639079615,804.9904495651367,795.7121590153376,779.114347452914
1731142502.62742,780.612012213472,804.7943827374881,796.0459500634254,779.5504687847248
1731142502.6275036,780.7017724828979,804.6268446013834,796.3758744581969,779.9956132082518
1731142502.6313293,780.7973772993276,804.490433578826,796.7020060557289,780.4500302697334
1731142502.6352382,780.8988849329644,804.3673691616356,797.0241309973886,780.9139135847405
1731142502.6361125,781.0063724703894,804.2422021629509,797.3420463861115,781.3874379206425
1731142502.6386511,781.1199644879929,804.1101312735752,797.6556829036491,781.8707858839468
1731142502.6391473,781.2398140566418,803.9739282191666,797.9650751371793,782.3641525825459
1731142502.6430564,781.3660741278411,803.8378852174002,798.2702849587906,782.867738779426
1731142502.6469655,781.49888545862,803.7042635081393,798.571352544501,783.3817469360084
1731142502.6508749,781.6383866383502,803.5730357039746,798.8682898380912,783.9063854763272
1731142502.6542287,781.7847346861572,803.4432048098802,799.1610963937964,784.4418739462544
1731142502.654784,781.9381136129595,803.3139767369372,799.4497751223414,784.988434757867
1731142502.654978,782.0987083227056,803.1851371864831,799.7343383749472,785.5462643144473
1731142502.6586933,782.2666432148858,803.0568510185469,800.0148060474999,786.1155002924975
1731142502.6624067,782.4419312508228,802.9293387277213,800.2912008764074,786.6962297313503
1731142502.6626022,782.6245207670686,802.8027023039482,800.5635444629271,787.2885809806166
1731142502.6665115,782.8144995528627,802.6769242759663,800.8318555156364,787.8928765265938
1731142502.6698062,783.0123665761179,802.5519419664055,801.096151385762,788.5097043892844
1731142502.6704206,783.2190655710901,802.4277076249865,801.356453720754,789.1396956244004
1731142502.6738436,783.4354158537423,802.3042044145121,801.6127963162012,789.7829411992103
1731142502.6743298,783.6609683125394,802.1814326154685,801.8652278937413,790.4384173975908
1731142502.6782389,783.8931869756337,802.0593912964592,802.1137996528876,791.1042661921008
1731142502.682148,784.1285774674218,801.938070733516,802.3585354538202,791.7796569025128
1731142502.6853838,784.3667041426628,801.8174573446076,802.5994046267803,792.4676201784425
1731142502.686057,784.6150877827904,801.6975439446618,802.8363401773586,793.1760240643501
1731142502.6899664,784.8890319063903,801.5783342015735,803.0693360694057,793.9128083762646
1731142502.6927092,785.1999026064967,801.4598316417812,803.2985871001345,794.674788425436
1731142502.6938756,785.5335826138743,801.342013741468,803.5245245807988,795.4377736744395
1731142502.6973104,785.8373870735911,801.2248111107234,803.7475577507935,796.1641110568487
1731142502.697785,786.0456885358587,801.1081283358462,803.9675064551908,796.8398053701028
1731142502.7009614,786.1583571841758,800.9919301712359,804.1831402163398,797.526502027307
1731142502.701694,786.328074247076,800.8763536496521,804.3926348534789,798.3725180614861
1731142502.7056031,786.8414391866021,800.7617174089687,804.5954999961908,799.5126776528431
1731142502.7095122,787.880686246715,800.6482786040607,804.7951266227393,800.8554130876356
1731142502.7115748,789.1221033408672,800.5357562174781,804.9990736470558,801.9181739820989
1731142502.713421,789.5405590092882,800.4230039657361,805.2136773599772,802.0178739786625
1731142502.716539,787.9846269160685,800.3085067399757,805.4332879408743,801.0208984244437
1731142502.7173305,784.7297730908466,800.1920713707788,805.6326491902408,800.3366792290755
1731142502.7212398,783.1146953211015,800.0768383747858,805.7776585208318,803.1320590983044
1731142502.725149,789.1939242848275,799.9691167304198,805.8632165223994,812.7241163018028
1731142502.729058,807.8201378439555,799.873396251775,805.9589843429668,829.5906319999999
1731142502.7304404,836.8774826058458,799.7833977045524,806.2067283810197,849.392161904101
1731142502.7321165,865.1161634577594,799.6769356769335,806.7079889335922,864.2904143923871
1731142502.732214,877.9549386775907,799.5271834030743,807.3171034339964,867.2984369033964
1731142502.7329671,868.6161337138781,799.3359174501758,807.50637578556,856.9899952982935
1731142502.7368762,845.5372036318831,799.1701739411544,806.5688303490998,839.4167511412087
1731142502.7407856,828.364620801411,799.1554075025172,804.2308171625663,825.3845116561065
1731142502.7446947,833.852918016767,799.3830961845161,801.2059500583055,823.9896370672617
1731142502.747694,862.2510030276165,799.7660312188559,798.9243931901824,836.4286993153803
1731142502.7486038,895.8288302070614,799.9853946415141,798.3736010597586,854.8883996585919
1731142502.749306,911.9865835296805,799.6718644416528,799.1445601647008,868.0114105344253
1731142502.7525127,901.0194077946541,798.7462246065915,799.7978683275262,869.0780272441029
1731142502.756422,873.9509002383423,797.5991282533339,799.2606307069641,860.4486572884675
1731142502.7603314,853.623780755355,796.8509796827278,797.783102802486,850.7970177740765
1731142502.7632716,856.1666214485439,796.82175035475,796.43401995955,847.7823504419999
1731142502.7642405,878.0466958194132,797.1685535139558,795.6971384950681,852.4587719657361
1731142502.7671173,899.2347972046764,797.0664792433707,794.7312669384825,859.7011498278755
1731142502.7681496,899.7303058853884,795.870873712419,792.2089079718162,863.4904733127212
1731142502.7681715,875.9812161638965,793.7737386491089,787.9990693338011,862.1257673769849
1731142502.7720587,844.021374421576,791.904353748758,783.9643855683701,859.1941783314061
1731142502.7759678,826.8346066425537,791.7056679776605,782.8414380905242,860.0478483023073
1731142502.7788491,836.067385413631,793.9823554625051,785.9916006920613,867.0455710586905
1731142502.7798772,862.8742505402286,798.3131239405411,792.0436051021884,877.4084694646127
1731142502.7837863,885.4321558728333,803.264660502734,797.8193319808878,885.2346511355328
