timestamps,eeg_1,eeg_2,eeg_3,eeg_4
1731106064.3364272,796.4520681797925,807.603013577954,809.0593231254219,787.1016847977907
1731106064.355333,792.8429170355229,806.6126495614419,806.8656951446211,786.8714648028985
1731106064.361364,790.5350203646015,805.5902247257472,804.0889178401844,786.2689303387
1731106064.365272,790.3794247587431,804.4629374351055,800.7217629081151,785.1273657242821
1731106064.36918,792.3185285050214,803.0788947439672,797.4229864343013,783.5660428070375
1731106064.373088,795.313155803385,801.2823967039728,795.1157379622242,781.9972072127771
1731106064.3742392,798.0299508085949,799.1684983396921,794.4911805669076,781.1549946330755
1731106064.3769965,799.8700314292312,797.3168775625979,795.7249893533956,782.0256186183478
1731106064.3809042,801.284373512482,796.6445550367335,798.4090805337372,785.410916925531
1731106064.3848124,802.91642635165,797.7884082887921,801.6275951268372,791.1737746186242
1731106064.3887205,804.5127842989335,800.4597630949492,804.250174825623,797.7896235215125
1731106064.3926284,805.0170803752046,803.4191993256024,805.4837864355359,802.8949593508921
1731106064.393145,803.9517128985021,805.2567422419097,805.4002877164227,804.7035532858986
1731106064.3965366,802.501958298699,805.4024898026086,804.9549794622884,803.1837091131379
1731106064.4004447,802.7857240468899,804.5045271102368,805.3339835750951,799.9183588051226
1731106064.404353,805.7683235260258,803.8444082479036,807.0939312985229,796.7567167771922
1731106064.4074705,809.9630466692633,804.3248387661051,809.8161318688598,794.5003443902727
1731106064.4082608,812.4596905292551,805.9072417650858,812.555862197978,792.7262256355674
1731106064.412051,811.4932403117027,807.8816502828349,814.645236362685,790.6474270644361
1731106064.412169,808.1379673791602,809.5630007705133,816.1219799514787,788.0074555136757
1731106064.4160771,805.457821504749,810.7187192060674,817.4598955074322,785.2614654554416
1731106064.4199853,805.8232354676308,811.4401128524428,818.9440612757472,783.1768855028687
1731106064.423059,808.831948533666,811.7561897486879,820.3296337417361,782.41279823754
1731106064.4238932,811.7390609544633,811.4618457629344,821.1052236569136,783.3417617778089
1731106064.4278014,812.0128944117108,810.3248110159233,821.082752416358,785.9802563480768
1731106064.4309573,809.6842843346343,808.4429424540328,820.7249808256125,789.9021078732419
1731106064.4317093,807.3291812670531,806.4099497591247,820.874735408282,794.2466705132668
1731106064.4356174,807.6786424561569,805.1290090451644,822.1022909750687,797.9800644102417
1731106064.4386475,811.0343093833333,805.3689980835858,824.2154439445551,800.3465977744148
1731106064.4395256,814.8737442654267,807.3077159309977,826.3174796474407,801.2233231250043
1731106064.4434335,816.0451141888718,810.3169352410054,827.3586394753959,801.1143783792064
1731106064.4473417,813.5839398941856,813.1443458291469,826.7972317149297,800.7940800000645
1731106064.449863,809.6113615036743,814.4637167593172,824.9571487665235,800.8832102577925
1731106064.4512498,807.5142445345444,813.5555274322905,822.8716773871381,801.6456417955792
1731106064.4542365,809.0518610835622,810.7578356937246,821.698035881004,803.0192513333709
1731106064.4551578,812.953569231666,807.3910511078791,822.0468348523468,804.6651074149822
1731106064.459066,816.173683554538,805.1166177338189,823.6454438380349,805.9072114843884
1731106064.462974,816.5786705378838,805.0263126233383,825.5381142082801,805.7173080442893
1731106064.4668822,814.6408047776389,806.981136719497,826.6391363632715,803.0041520725686
1731106064.4687688,812.7327417885348,809.6441143143716,826.2302205383955,797.2310891518756
1731106064.4698248,812.8284022171526,811.2526128778527,824.1397288233757,789.0159343814771
1731106064.47079,814.7558790792673,810.6730193187435,820.6765313941683,780.2052018826247
1731106064.4746983,816.4847795681973,808.0453415541385,816.5342965088239,773.169642573111
1731106064.4786065,816.0228428663269,804.5924350375427,812.7119502103844,769.6479710234337
1731106064.4825144,813.1310061910577,801.7744537777945,810.2872739572667,769.9183312976738
1731106064.4854133,809.3763468055806,800.4242614408305,809.9499630209494,772.8939887034284
1731106064.4864223,806.6158579926777,800.4287220440873,811.5176627328482,776.9734849529738
1731106064.4876747,805.3897534810836,801.0398962066088,813.8684922819166,780.8675601254371
1731106064.4903307,804.7015747488836,801.4723413604754,815.5225411649232,783.8107316943963
1731106064.4942386,803.3104384649293,801.3723650567784,815.575445003698,785.2873095617895
1731106064.4981468,801.1871995188668,800.9362062535647,814.2837363026189,784.8274955463631
1731106064.501002,799.5830524106144,800.6694506144838,812.7685548658766,782.1667534883107
1731106064.5020547,799.525209158443,800.9441653633503,812.0157884164101,777.5470404985017
1731106064.5059628,800.2686286169775,801.6400777946243,812.0177020135112,771.7980482738603
1731106064.5065808,799.5342690579037,802.1573950035804,811.8535361196227,766.1300753581245
1731106064.509871,795.6952710773761,801.8493095475179,810.6806159963429,761.8325967862601
1731106064.5137792,789.9151153940078,800.5722056460145,808.7259641865403,759.9925658967078
1731106064.5165906,785.8841555435239,798.9189027033035,807.3075442705118,761.1587258544264
1731106064.517687,786.9387246976194,797.9393795171047,807.80486923356,764.9736276294233
1731106064.5215952,793.0389085272213,798.5464156918157,810.5065406632838,770.1018043698318
1731106064.5254867,800.5240044946021,801.0043362573587,814.3841994194378,774.7966466900016
1731106064.5255034,805.0733720392218,804.7908541568011,817.9505071434764,777.9273204342595
1731106064.5294116,805.231239360018,808.8617635953932,820.3553169131441,779.6979631396972
1731106064.532179,803.2735479327853,812.1362158914997,821.7463262502868,781.36258037203
1731106064.5333197,802.7086454247496,813.9401068352739,822.721322451383,784.0746818327558
1731106064.5372276,804.8382991879419,814.1961081848049,823.5543567787387,787.8352882089031
1731106064.5411358,807.5526792702186,813.3006143136193,823.9518003465186,791.4428358976259
1731106064.5443926,807.3196700203014,811.80399386798,823.4291929613129,793.4242982172728
1731106064.5450437,802.4026688848558,810.1046183332285,821.775623803088,793.0739580445438
1731106064.5477676,794.4094209443953,808.3266371258647,819.117641157962,790.7682996811337
1731106064.548952,786.9714470880435,806.4170760228743,815.647083549611,787.5083711487894
1731106064.55286,782.9233752598653,804.3550901405918,811.4501560601177,784.3028181178768
1731106064.556768,782.4802746884293,802.2959954635987,806.670694909364,781.9437403180974
1731106064.560676,783.772491214543,800.5291092005301,801.7680216832933,781.1399360543616
1731106064.5632987,784.9017513801394,799.288798522582,797.483001641248,782.5332772972246
1731106064.5633564,785.4687001403662,798.5916792157576,794.4651614903017,786.2950950456304
1731106064.5645845,786.2979369762811,798.2437381301872,792.9118429805965,791.6059047439074
1731106064.5684922,787.9528795368958,797.9927088873724,792.559686024481,796.7034289301048
1731106064.5724003,789.72550564481,797.6710221553743,792.9832842421259,799.8191950282164
1731106064.5763085,790.1285195694329,797.2144522527365,793.8472759606722,800.4357406066067
1731106064.5789447,788.3191647783738,796.5934657357578,794.8608039970591,799.7770545930301
1731106064.5802164,785.001754866697,795.7903045725938,795.5646201378539,799.9684172748167
1731106064.5822046,781.9672175421375,794.8928299472502,795.3112613058614,802.4815410156419
1731106064.5841246,780.7552659469352,794.2117441037565,793.6120566083903,807.1451372100845
1731106064.5880327,781.6250172790075,794.2327984558744,790.5985634054167,812.4487654078941
1731106064.5910869,783.5912863525525,795.3254766380388,787.1281684167285,816.6767174101402
1731106064.5919409,785.3474971497732,797.3793667454015,784.3194986122996,818.7984785401385
1731106064.5945334,786.3077078538763,799.6820494242648,782.8294134811035,818.5336847714271
1731106064.5958488,787.0384407243091,801.2090986886569,782.4760220002801,815.9373251478734
1731106064.599757,788.7867744694404,801.1710092814358,782.5454119678649,811.2019928064605
1731106064.6011105,792.3793949938795,799.4472024633948,782.4924547615916,804.8894148572869
1731106064.603665,797.2624624867283,796.6232821463021,782.353005517757,798.1418954533534
1731106064.607573,801.5363147958858,793.6485691571926,782.4625025364402,792.3583231461605
1731106064.610122,803.2110853062511,791.3848808975974,782.804900295082,788.4173321705571
1731106064.6114812,801.8456248204739,790.3279425729191,782.7465980242614,786.1259241331348
1731106064.615389,799.1668565007066,790.5822480398261,781.5287324279723,784.4824395582356
1731106064.6192973,797.9436915194864,791.9715704872709,779.0495349332347,782.6021133468477
1731106064.6200166,799.8974368032993,794.1446875659192,776.0773842448908,780.5029725511455
1731106064.6232054,804.3831342145212,796.6539205627371,773.5650071627775,779.0590222688007
1731106064.6257107,808.9776240165513,799.0655499343379,771.6652450152974,779.1859855051545
1731106064.6258264,811.4487218174696,801.106097488662,769.4193963091789,780.9930761218973
1731106064.6271136,811.395282114274,802.7407010239775,765.5109299457137,783.6241081867902
1731106064.6310215,810.2253882139039,804.0773762719263,759.4988616349763,785.8964981552084
1731106064.6349297,809.6887905575913,805.1432389273375,752.4819795801793,787.1829078710726
1731106064.6388378,810.4237900814646,805.7488884628546,746.6096415744552,787.7917132059426
1731106064.6389225,811.7558562581736,805.6299065897845,743.8023137774305,788.5219688901623
1731106064.6412992,812.6233040572148,804.779695469463,744.6311067795871,789.7796007113405
1731106064.6427455,812.516081670916,803.6218189662965,748.0901174839171,791.0753514769301
1731106064.646654,811.6432407107677,802.7571753156236,752.2812879643835,791.4523853793183
1731106064.650562,810.5047490347449,802.4605556748508,755.4550369736727,790.5406230123615
1731106064.6544702,809.4591115449354,802.4373324754254,756.7721856108781,789.2427918771834
1731106064.6568878,808.5949187833473,802.151986030824,756.4751296953665,789.2691813132026
1731106064.6578283,807.8342115954948,801.4506939814651,755.5522313580886,791.7806757648336
1731106064.658378,807.0777007063203,800.8500337253522,755.1832674922813,796.2980440762284
1731106064.6605656,806.2794492524577,801.1656875530401,756.2186560779967,800.8729991602431
1731106064.6622863,805.4452913346895,802.8152354609804,758.8274761936174,803.4233092886902
1731106064.6661944,804.5996921967402,805.4551626853872,762.4091494689743,803.1554362824935
1731106064.6701024,803.7598266007589,808.2656253904911,765.8626600603963,801.0068696966694
1731106064.6724763,802.9289811147569,810.557675443181,768.1808095097915,798.9114525223562
1731106064.6740105,802.1023928293297,812.125383406603,769.0810554611481,798.5499487672487
1731106064.6767344,801.2747880385841,813.122725658853,769.2463138146609,800.4108051011748
1731106064.677919,800.4439420929008,813.7463123366446,769.9486993034898,803.5532883130383
1731106064.6818266,799.6103048953972,814.0846422748693,772.2596030880416,806.0175263297401
1731106064.6857347,798.7751690744518,814.1774837408043,776.353157402249,805.6958296775863
1731106064.6880653,797.939356058707,814.097614228455,781.3438939133283,801.473547711038
1731106064.689643,797.1029459495982,813.9440946888063,785.7545127557615,794.2511492000039
1731106064.6935508,796.2656259604062,813.7921808384865,788.3589824632907,787.1518948434934
1731106064.695305,795.4270886863633,813.6693576061177,788.9588623349573,784.2873803689695
1731106064.6956403,794.5872034602509,813.5684957412467,788.6417414487544,788.2661099472963
1731106064.697459,793.7459802067058,813.4730571935138,789.2629894720519,797.858460103468
1731106064.7013671,792.9034600729706,813.3731323439289,792.3272255673227,807.799368619491
1731106064.7036536,792.0596372895773,813.267971736336,797.9488901889112,811.6195733718098
1731106064.7052753,791.2144481434486,813.1612790510346,804.6894772373032,805.9798221451401
1731106064.7091832,790.3678179231018,813.0563819258023,810.5033710325024,793.2329020102744
1731106064.7130914,789.5197337886541,812.9543833336702,814.1283872963188,779.8888180360616
1731106064.7145462,788.6702883570165,812.8547542280248,815.8528457190444,771.9873347483095
1731106064.7169995,787.8196224503243,812.7566068430856,817.1159813542106,771.1214426811166
1731106064.719242,786.9677341389074,812.6594654809475,819.3676705673714,774.242472405883
1731106064.7209074,786.1142553630209,812.5633398384667,823.1159234472065,776.9304897210317
1731106064.7248156,785.2584711122972,812.468452739271,827.7568303904671,776.921260524155
1731106064.7287238,784.3998691717891,812.37498941399,832.0793371323423,775.0144571149932
1731106064.7300446,783.5391232607376,812.2830127108849,834.9482559768131,773.3196432720138
1731106064.7326317,782.6786563496297,812.1925027057788,835.7858705172964,773.0920910564871
1731106064.7334523,781.8214100028663,812.103425184989,834.7712335140244,774.1480071693682
1731106064.7348306,780.9672298760346,812.0157697891227,832.8082478060159,775.8303246158122
1731106064.7365398,780.1089596067321,811.9295509891588,831.2595825898259,778.0284397066251
1731106064.740448,779.2335345726817,811.8447918176519,831.4169997795999,781.1004959282066
1731106064.744356,778.3331189623242,811.7615097885891,833.8229278367412,784.9552721512738
1731106064.748264,777.4234228491604,811.6797130215641,837.7869360357867,788.4555912741379
1731106064.7504194,776.5521083732688,811.5994053493727,841.5125560506893,789.9492686553679
1731106064.7521722,775.7719547230928,811.5205950779083,842.9722457615555,788.6078376386745
1731106064.7523582,775.0711563321674,811.4433003594796,841.1176642327648,785.4035649543056
1731106064.7560802,774.3055632277791,811.3675437773512,836.6040277086853,782.7147115302719
1731106064.7599883,773.2350127297765,811.293333278326,831.4127629119608,782.6485899692557
1731106064.7638965,771.7523133667869,811.220639831228,827.5746215415872,785.3459238636852
1731106064.764784,770.2377058954153,811.1493990270272,825.957614749134,788.7230004153826
1731106064.766008,769.7211598113623,811.0795649838793,826.0296858580069,790.0218557026552
1731106064.7678044,771.4576021585228,811.0112071151481,826.6308642605887,788.0305060990802
1731106064.771264,775.9498175670669,810.9445660374108,826.9436151705941,784.2056800296158
1731106064.7717123,782.2078477090146,810.8799334187719,826.8489216866698,781.7466313637533
1731106064.7756207,788.1780362214578,810.8172970712852,826.6008015094721,783.2742809121129
1731106064.7795289,792.2386713692921,810.7559558430941,826.3865244052238,788.8642205528944
1731106064.7815964,794.4156341992931,810.6946240357116,826.2380033053709,795.8927660867549
1731106064.7834368,796.0694924112005,810.6325228826702,826.1877027432624,800.7444480344475
1731106064.7873447,798.3137514677718,810.5711817665525,826.275102391156,801.0633495629677
1731106064.79017,800.736977818061,810.5152722320674,826.317801996463,796.9704962326756
1731106064.791253,801.7182187192141,810.4699792691631,825.8005842295116,790.5930642128615
1731106064.795161,800.0694827055263,810.4341374048341,824.198411514715,784.5133290257148
1731106064.7971847,796.4792051426565,810.3934902523096,821.5471342251251,780.3815335958806
1731106064.7990692,793.4002305205684,810.3240319567998,818.7020882518498,778.5770197483514
1731106064.7995234,793.3596178043747,810.2139351000691,816.9306222226909,778.8288634704326
1731106064.802977,796.9899236387888,810.0968072837798,817.0785595743976,780.9409287578832
1731106064.8068852,802.3735301448124,810.0628458086187,818.9511566532149,784.8551304759475
1731106064.809076,806.3365542304512,810.2020065236773,821.3993763205191,790.118255467629
1731106064.8107934,806.784039083838,810.4705410906371,823.0611885480203,795.5317537466705
1731106064.8127737,804.2166789673773,810.5699541155968,823.2264724959924,799.5851817748322
1731106064.8147016,801.1263862460664,810.0083183621397,822.2218641079581,801.3856888141092
1731106064.8186097,799.762313439576,808.4172647087894,821.0789104734247,801.1908282374313
1731106064.8225176,800.2576816261725,805.9119944379191,820.7784406854225,800.013967687265
1731106064.8264258,800.8160594175888,803.132751169373,821.6462529161117,798.6852104461742
1731106064.827982,799.7191128077397,800.8705384035288,823.2782765944957,797.2159446145265
1731106064.8283622,797.1772154072431,799.5909152833491,824.897391139675,794.9231468857232
1731106064.8303337,795.2171468151345,799.243730285487,825.7630783701202,791.0706759991352
1731106064.834242,795.7032930322598,799.441173214851,825.3984056815287,785.4947055482662
1731106064.8342628,798.3582329042752,799.7772819009452,823.6944875094656,778.8757120980056
1731106064.83815,800.6478545360968,800.0304973935118,821.0030762567192,772.5912517429794
1731106064.8420582,799.723508896658,800.1716041431257,818.1278902154635,768.2035201690319
1731106064.8439507,794.8308445349078,800.2632930277134,816.0321977460616,766.7399329776957
1731106064.845966,788.2045491956541,800.3655740940685,815.3085302316501,768.1114993651091
1731106064.8468878,783.686257307973,800.4988211337358,815.7767516439566,771.0784931227727
1731106064.8498745,784.0724766506229,800.6533114860829,816.5876744729759,773.892380955959
1731106064.8537824,789.1530465735829,800.8123453957161,816.8243843887714,775.2613699167886
1731106064.8576903,795.8671859262182,800.9666120142141,816.160288435221,775.026644186906
1731106064.8595393,800.4232298095632,801.1157697157131,815.0668735129652,774.1348130420955
1731106064.8615985,800.8081633150169,801.2635281383276,814.4240630247883,773.966967756071
1731106064.8655066,797.9218748023462,801.4130050648204,814.844387824402,775.4738003079019
1731106064.865794,794.6804527980922,801.5651010086934,816.2070667974967,778.6574205798474
1731106064.8690023,793.8961822258578,801.71918598355,817.710171373991,782.7199375833484
1731106064.8694146,796.46458159119,801.8743508321052,818.3754373110421,786.7589951403274
1731106064.8733227,801.000895652877,802.030119304605,817.6510690291454,790.4583016900268
1731106064.875128,805.0101586941138,802.1864834225581,815.7200307657052,794.1570057322862
1731106064.877231,806.6827978848107,802.3436258891792,813.3355810715327,798.180133668197
1731106064.8811388,806.050925617965,802.5016814457275,811.3290909121417,802.0393457278631
1731106064.8846998,804.7207742633825,802.6606640880661,810.1506628392091,804.3590097217922
1731106064.885047,804.4436467770466,802.8205110492153,809.7477976783405,803.7838465555404
1731106064.888955,805.6881063580838,802.9811494825797,809.7973229681472,800.1715600216828
1731106064.8907166,807.384929028837,803.1425312460455,810.0301579252774,794.995852541571
1731106064.892863,808.0274439857856,803.3046322894846,810.376861565109,790.4979382534605
1731106064.8967712,807.1228763470098,803.4674372953989,810.8984692067016,788.2001267335407
1731106064.900679,805.6801571401944,803.6309276384943,811.6750783177844,787.9736653513309
1731106064.9036057,805.2917612163827,803.79507822553,812.7836355040474,788.4123597368198
1731106064.9037416,806.6206764504572,803.959859869628,814.3015550439197,788.1576754227796
1731106064.9045875,808.6212176539417,804.1252422535488,816.2059820962135,786.9972287847327
1731106064.9063053,809.2109562826757,804.2911953317765,818.206219093203,785.7749061121596
1731106064.9084954,806.9319126811123,804.4576899803226,819.7323123090434,785.2665019793599
1731106064.9124036,802.3189807711134,804.6246993312252,820.2214341271193,785.1700399924642
1731106064.9163115,797.8382024214022,804.7922003783411,819.515437574151,784.2508457001027
1731106064.9202197,796.2966876842909,804.960172936459,817.9720598243308,781.5452933005892
1731106064.9218936,798.8286399870091,805.1285929417803,816.1071860171138,777.4882746658255
1731106064.9225118,803.9854502374324,805.2974219264345,814.0681493896393,773.892764698663
1731106064.9241278,808.6901280239975,805.46660301713,811.4721363109741,772.7444526990337
1731106064.928036,810.3995297416757,805.6360782118301,807.8295174656569,774.7747431983252
1731106064.931944,808.8627002668076,805.8058302298264,803.197167663303,778.920397626246
1731106064.935852,806.1440697921323,805.975920732618,798.4491945777804,783.0546441244697
1731106064.9374824,804.8978350590696,806.1464645007248,794.8608746362693,785.4015734931512
1731106064.938481,806.2221922822689,806.3174921113944,793.2749437251895,785.5634975297057
1731106064.9397602,808.7599776679614,806.4887528310994,793.4673375363603,784.4670285890626
1731106064.9414177,809.7759461338633,806.6596649728643,794.217922115248,783.456816502748
1731106064.943668,807.4009293498464,806.82968153007,794.1236912870908,783.4260203093964
1731106064.9475763,802.242494663983,806.9990904662625,792.6430511618012,784.6604946527152
1731106064.9514844,796.9739860040468,807.1696628748175,790.5776885348184,787.2193709713163
1731106064.9530709,794.1622534140131,807.3440049491023,789.495371041191,791.1079607395006
1731106064.9553924,794.1804967766689,807.5228362446578,790.4282720414734,795.8943528815967
1731106064.9593005,795.0892262123833,807.7013995769646,792.9109169352789,800.3412372725529
1731106064.9603236,794.6344600664978,807.8690683322473,795.2590532695016,802.8686189352419
1731106064.963209,792.5186245290787,808.0169597428334,795.90799819732,802.7175264335409
1731106064.9671168,790.7700191701765,808.1530952899678,794.6282062504367,800.631081448302
1731106064.9686594,791.7817873203251,808.3130452842805,792.5616128584287,798.2290207863517
1731106064.9710248,795.8082035394896,808.5444828040111,791.1619070905172,796.7352420349537
1731106064.9732206,800.2992272438665,808.8531508051312,791.0946338690077,796.33903119325
1731106064.974933,801.8423026448198,809.1365572387231,792.0245701003703,796.530783003071
1731106064.9788413,799.1145267909311,809.1822890762573,793.2563995979885,796.7550293089457
1731106064.9792297,794.2510023096268,808.8062770192162,794.439795348694,796.7629000402534
1731106064.982749,791.3172440669641,808.0855156123662,795.6693913334336,796.5860627816494
1731106064.984248,793.062309964586,807.4674638855504,797.0376766428152,796.3547883186301
1731106064.9866571,798.6760300238378,807.5502641126988,798.2517210010983,796.1596212070363
1731106064.9905653,804.483852712812,808.6242870116168,798.7946095169681,796.0172258830081
1731106064.9944732,807.0084411598131,810.3560930858285,798.4855184383176,795.902025410885
1731106064.9981356,805.7882126993077,811.9181079670824,797.8196609934511,795.7862449368678
1731106064.9983814,803.5847049843263,812.47690901919,797.6405624642242,795.6585129029655
1731106064.9998367,803.901915552174,811.6602621672065,798.3687290908063,795.5216120645111
1731106065.0022895,808.0115977270788,809.6975954687878,799.5247631808187,795.3826701916564
1731106065.0061977,813.9546840060469,807.229021466193,800.0918611279332,795.2462291412592
1731106065.0079598,818.1667867199442,804.9758891602098,799.4790567489267,795.1128813951018
1731106065.0101056,818.1859974753177,803.4451852756961,798.2063273911361,794.9811514302814
1731106065.0140138,814.235094262286,802.7641350744897,797.6118920174421,794.8495962078517
1731106065.0154252,808.7011690272811,802.7117592001805,798.7846539844847,794.7176873716807
1731106065.0170414,804.3424951536396,802.9265535638796,801.6819345726111,794.5856185615684
1731106065.0179217,802.8022132161093,803.1330367091283,805.2157562739474,794.4537711060437
1731106065.0218298,804.2852128546436,803.232931583908,808.1437027782586,794.3223667270471
1731106065.025738,808.0468343847763,803.2551560048759,809.8712723134587,794.1914176254311
1731106065.0296462,812.862761736942,803.2618478565249,810.5004712280074,794.0608355743689
1731106065.0310135,817.143899151202,803.289489745245,810.3190196899441,793.930541192317
1731106065.033554,819.0589435114516,803.3403725971701,809.4312393380517,793.8005050159494
1731106065.0359476,817.0950523748454,803.4005310382952,807.8853943667389,793.6707335962543
1731106065.0374622,810.8987433124562,803.457688201876,805.9644345444601,793.5412406535187
1731106065.0413704,801.72995574487,803.5079393810338,804.1251253466419,793.4120298359561
1731106065.042699,792.053655492769,803.5534020780323,802.5662243842123,793.2830932419658
1731106065.0452783,784.4777622012343,803.5974459683332,800.9318296126175,793.154417645182
1731106065.0466022,780.6775530549603,803.6418613469193,798.5627561199462,793.0259901453209
1731106065.0491865,780.7817518360301,803.686629466393,795.1066734527788,792.8978000466374
1731106065.0530946,783.3412675103015,803.7309545324391,790.8898840145863,792.7698379471034
1731106065.0548534,785.9110275174077,803.7741930377674,786.7015184536633,792.6420942043375
1731106065.0570023,786.2545602853861,803.8161581770037,783.2513640421789,792.5145580993423
1731106065.0609107,783.7813836608716,803.8569654301164,780.8550146545506,792.3872178304529
1731106065.062191,780.255823845222,803.8967776223286,779.582508990442,792.2600608762482
1731106065.0648189,778.9135997999067,803.9356665041188,779.5679635490422,792.1330742991996
1731106065.0687268,782.2420595615719,803.9736112354917,781.0184295604417,792.0062448435679
1731106065.0726347,789.9550554116269,804.0105562861744,783.8368857777715,791.8795588936506
1731106065.0737593,798.81871471043,804.0464572299202,787.2650109066053,791.7530024085019
1731106065.076543,804.656652312726,804.0812908594421,790.0282274432318,791.6265608981644
1731106065.0774388,805.1611735189092,804.115043578515,791.03365202698,791.5002194438845
1731106065.0777795,801.4656720523957,804.1477019262053,790.1332668561643,791.3739627364494
1731106065.080451,797.2989334419563,804.1792579983677,788.3121552673888,791.2477751108435
1731106065.0843592,796.2887564562108,804.2097231790354,787.0516903052987,791.1216405706843
1731106065.088267,799.3684872919557,804.2391280345732,787.272531185042,790.995542806124
1731106065.0921755,804.2299053485739,804.2674874806584,788.6733484718525,790.8694652104209
1731106065.0926652,807.2396752773457,804.2947393122566,790.0543633947265,790.7433908976765
1731106065.093368,806.2820444808631,804.3207141160091,790.4213878249883,790.6173027225824
1731106065.0960834,802.2326521146947,804.3452236424472,789.9307887247473,790.4911833040477
1731106065.0999916,797.946580001663,804.368295977281,789.7876313240838,790.3650150555432
1731106065.1038997,795.7735426039746,804.3904093795021,791.1290732553051,790.2387802215276
1731106065.1078076,795.7918897718135,804.4123824348268,793.8942824957165,790.1124609102923
1731106065.1089566,796.159913486702,804.4346242094654,796.7237271368913,789.9860391057539
1731106065.1115713,795.0518021048882,804.4559856944204,797.9715991095567,789.8594966480466
1731106065.1117158,792.3828407025103,804.4733535446044,796.9147823736671,789.7328152049586
1731106065.112178,789.9264552316262,804.4835615935299,794.157190727533,789.6059762993792
1731106065.115624,789.8798423356593,804.4879163997645,791.0309878505853,789.4789614635104
1731106065.119532,793.1090190594642,804.4962269261711,788.6351117701317,789.3517525006081
1731106065.12344,798.4144366269447,804.5238266351658,787.3032612672165,789.2243316534788
1731106065.124545,803.3441300411307,804.5766335103493,786.7779651032228,789.0966813483674
1731106065.1273482,805.9611719806512,804.6301360555012,786.749494388575,788.9687833607294
1731106065.1304772,806.228386431035,804.6249126655276,787.2112024300769,788.8406178862869
1731106065.131256,805.8549238180663,804.5074894436923,788.3600042975434,788.7121637798141
1731106065.1351645,806.6153921372461,804.3183907479457,790.2210295766932,788.5834012013191
1731106065.1390724,808.5132513023802,804.2653892082806,792.4141453927833,788.4543160541386
1731106065.140134,809.4721658818901,804.6663057772505,794.3265724774934,788.3249021780732
1731106065.1429803,807.002926724557,805.6965182478991,795.550421559995,788.1951551690296
1731106065.1468885,800.5059818317109,807.0743625471118,796.1637090840459,788.0650557392725
1731106065.1469176,792.2040850323816,808.0093019540509,796.5800479401877,787.9345529699403
1731106065.1493833,785.8232769426276,807.6367108201788,797.1476989689622,787.8035716956704
1731106065.150797,784.0362112618498,805.7191698234616,797.9511695312742,787.6720653352024
1731106065.1547048,786.6843956638115,803.0119988468999,799.0196969794841,787.5400976905563
1731106065.1557224,791.12245271957,800.8567415490018,800.6335606302254,787.4078732677348
1731106065.1586127,794.3181904033436,800.2409389951109,803.2513899777205,787.275603789622
1731106065.162521,794.9956664960811,801.1046343716465,807.0042080870776,787.1431876888281
1731106065.166429,794.1676912281413,802.4883881150727,811.2583002117539,787.009920445523
1731106065.1682892,793.7851407706324,803.3468070917074,814.7877919589107,786.8746978006207
1731106065.170337,794.7817604757483,803.2736184987546,816.5381735902341,786.737070282435
1731106065.171311,796.2174541461056,802.5650127887377,816.3810241408409,786.5987454126757
1731106065.174245,796.1892575550527,801.7357729104674,815.2284028141463,786.4639477237105
1731106065.1781533,793.6280720786933,801.0629334154044,814.3865760746964,786.3365980640765
1731106065.1816573,789.3933216539609,800.5623334498711,814.6151335375816,786.2141931787971
1731106065.1820612,785.7659994064392,800.2822057439463,815.5750562745862,786.0829051603247
1731106065.1859694,784.817194660415,800.4880682811007,816.0739186240131,785.9226415148556
1731106065.1868997,786.9751104085555,801.4780874218411,814.9477879479897,785.7279189427644
1731106065.1871953,790.8231329091334,803.1886179090924,811.9480885368492,785.5351711725547
1731106065.1898775,794.146504991959,805.0036289900403,807.9829330010698,785.4252885206269
1731106065.1937854,795.382104457742,806.0360303402653,804.543999756542,785.4647180402106
1731106065.1976936,794.476568890728,805.7306077771113,802.7735963872391,785.5888653184205
1731106065.2016015,792.6756305931438,804.3091033701533,802.8787541984474,785.5195887311249
1731106065.2024882,791.5083319712704,802.6438363384522,804.2623201522032,784.8783546791336
1731106065.2055097,791.7114817490806,801.5995296278701,806.1230831495299,783.5790544769835
1731106065.2061007,792.8079477301553,801.3626375257587,807.9405801576718,782.2664126700655
1731106065.2094178,793.5790284684482,801.3372304411861,809.4823751774113,782.2037116025863
1731106065.213326,793.0695149230027,800.7161136867079,810.4946729930241,784.2345138215928
1731106065.2163963,791.398304829189,799.2350434403891,810.5493614913997,787.5160042281206
1731106065.217234,789.7524802207982,797.4546574502674,809.3347164696673,789.5063766529015
1731106065.2180767,789.4981067404631,796.3495998029837,807.16570822918,787.7691580168481
1731106065.221142,791.0250019772037,796.5915938459207,805.1409437622319,782.1848152246436
1731106065.2250073,793.2587735873474,798.1262944409394,804.5819668262089,775.4020913748903
1731106065.2250502,794.3805932572042,800.3225365291213,806.058152346618,770.8660791227579
1731106065.2289584,793.3539613463951,802.4771615502519,808.8180304670027,770.1014791974526
1731106065.2328663,791.0594595831107,804.2309635744704,811.230276552351,771.7292465181464
1731106065.2336652,789.9412414020393,805.6167408742705,811.9763894517611,773.0667187386191
1731106065.2367744,792.1937077090201,806.8044398814521,811.0264138096095,772.7008419411161
1731106065.2406826,797.8392401982719,807.8302198821387,809.5900855357715,771.6120174096263
1731106065.2439127,804.3641222597162,808.5510303620583,809.1350000677364,771.9987339474121
1731106065.2445903,808.4190481825168,808.833447584765,810.3334534007863,775.1700628250401
1731106065.248499,808.3235478991638,808.7746133015563,812.7457134664337,780.5052580175618
1731106065.249254,805.3040290981528,808.7353362201435,815.3218421274704,786.1624525431358
1731106065.2511358,802.3729480445139,809.1412754734778,817.1573702101231,790.5563309541553
1731106065.2524068,801.7656559139815,810.2106842584832,817.9125861892634,793.2324427758209
1731106065.2563148,803.1398767546517,811.8143468223208,817.7610283364228,794.6662786542482
1731106065.260223,804.1114572468257,813.5416815977524,817.1270165325159,795.5157838867526
1731106065.2628188,802.6327449708767,814.8878502006452,816.4793533818872,796.0615949452152
1731106065.2641313,799.0410309651107,815.4425295301245,816.2210007196762,796.1340750464201
1731106065.2648425,795.8688476414999,815.0345227212806,816.5852683201318,795.3836154502576
1731106065.268039,795.534470158749,813.8262862772754,817.5239027987559,793.6164543253797
1731106065.2719471,797.9963425327151,812.3027065144727,818.6857942832933,791.0091417897443
1731106065.2758553,800.5491166757033,811.0756485275069,819.5667029010921,788.1685891135439
1731106065.2797637,800.0497557167816,810.5472295530636,819.7782771338268,786.0877811123637
1731106065.280431,795.6851182980442,810.6550635112566,819.2759571125678,785.9649090187264
1731106065.2817247,789.8636530212718,810.9358294113348,818.3914699658598,788.7274484455287
1731106065.2836714,786.3795517746756,810.9017815037951,817.6246957056536,794.2600874010335
1731106065.285875,787.3066593973739,810.4294152507334,817.2969064357625,800.82618413401
1731106065.2875795,791.2057778030107,809.8168467492067,817.2783196514897,805.4417132192129
1731106065.2914877,794.2220319434099,809.4571324172724,817.0004087037481,805.4053944995749
1731106065.2953956,793.2602420729152,809.4383923195377,815.8059866922093,800.082297718171
1731106065.2960198,788.6059081513764,809.4597733346916,813.4481945068095,791.5118286715833
1731106065.2993038,783.743422347706,809.1521992010372,810.4020290860533,783.2258123842257
1731106065.3006308,782.5079193741143,808.4938937044691,807.7389010236232,778.1736234041417
1731106065.303212,786.0137226780845,807.8975091614703,806.5910262977809,777.3615366906528
1731106065.3071198,791.9346765723997,807.8394974315528,807.5039688457015,780.0167051223015
1731106065.311028,796.5907361513515,808.3458391859604,810.067789708866,784.6681690516624
1731106065.3116083,797.9100306604233,808.831783081996,813.0832687300422,789.9571529366682
1731106065.3149362,796.7755297284341,808.5171551040121,815.224897373681,794.6726217760693
1731106065.318844,795.8286649577972,807.1149511665849,815.8403887535345,797.522792976733
1731106065.3195367,796.962682082475,805.191350757378,815.3612076014371,797.377849006278
1731106065.3206148,799.6881620904007,803.8299363420642,814.9642572801694,794.0230461409711
1731106065.3227522,801.682083656305,803.8299500794704,815.6261446670063,788.6787672231393
1731106065.3266604,800.9868633773937,805.0981304755943,817.2437537211398,783.5348445301629
1731106065.3271968,797.9840084282434,806.7532809717873,818.5753502331679,780.3930278630527
1731106065.3305683,795.4398323269198,807.8611034806402,818.1698074891457,779.4579404323009
1731106065.3344765,796.469795650219,808.1831055054149,815.5988691661144,779.4049672750268
1731106065.3383846,801.9866134191349,808.323322566096,811.9581093287163,778.8130562778787
1731106065.3384428,809.6880363332951,809.1755092371894,809.1556445731599,777.71931137589
1731106065.3422928,815.460552503576,811.1490649717811,808.5250514844381,777.7496052357104
1731106065.3427854,816.1728356193554,813.8001596392985,809.874859489614,780.4996076199182
1731106065.3462007,811.7623314129161,816.1219633552982,811.7134461538898,785.5662994797415
1731106065.3501089,805.1088949424915,817.20296751323,812.4192593723138,790.1700262052998
1731106065.354017,799.892130778163,816.7130817541139,811.4039311902386,790.9826452533671
1731106065.355354,798.0705843480009,814.9038287811264,809.3944830742,786.7296858720218
1731106065.357349,798.7633674263132,812.2616361602846,807.6929076337557,779.3057431623163
1731106065.3579247,799.1963032885241,809.2025940061903,807.0450218155403,772.3787987873902
1731106065.358374,796.9090476528388,806.0459370734145,807.018779051469,768.6592662353464
1731106065.361833,791.6127410798412,803.157571165185,806.4009030282161,768.1649208742103
1731106065.3657413,785.4031094973678,800.9869102367319,804.3282719165019,768.8765624392171
1731106065.3696492,781.2251365211838,799.8809591682893,801.2232753032362,769.007754859339
1731106065.373557,780.7556599125727,799.8423811402654,798.6602546517005,768.6951022000017
1731106065.3739626,783.2985220520225,800.4874789582798,798.1499889448111,769.571393713623
1731106065.3762546,786.4924099990911,801.272927773913,799.8340311806517,772.7870313398927
1731106065.3774655,788.198429352945,801.8068209306304,802.2713569736129,777.550022373373
1731106065.3813734,788.0212706804473,801.9990660767977,803.5815733051987,781.6768399393125
1731106065.3852816,787.2759056029771,801.9803569998917,802.9809879152282,783.5801829343628
1731106065.3891895,787.5376239915462,801.9218192384596,801.3803263893569,783.6745083560961
1731106065.3895512,789.10821193598,801.9164782361872,800.5628976771451,783.820153619917
1731106065.3900936,790.7914146142331,801.9693911986087,801.7025058895739,785.4427472249457
1731106065.3930976,791.2033576147155,802.0458614119125,804.4603180157653,788.246649558692
1731106065.3951604,790.4049094928223,802.1161856200993,807.2903484219813,790.7369825550679
1731106065.3970058,790.2248683958074,802.1715021915462,808.5738156621068,791.9189261348077
1731106065.400914,792.7544230079058,802.2174942440654,807.6724586144122,792.4462280823864
1731106065.404822,798.256962928927,802.2625669739142,805.2094150213883,794.1078319535188
1731106065.4051397,804.4959914055997,802.3110559661246,802.5078637248275,798.1411694288327
1731106065.40873,808.3187926728916,802.3628477564632,800.6632458052842,803.9267915702728
1731106065.4126382,808.1582464289354,802.415995616844,799.9029388320045,809.256326485686
1731106065.4140666,805.1100098087462,802.4689889865066,799.6340247518267,811.959089517692
1731106065.4165463,801.6819697223664,802.5214562426971,799.0604159566522,811.4736247468685
1731106065.4204545,799.7018806629981,802.5737550597825,797.8351351737084,809.0396914782765
1731106065.4207284,799.3890941127084,802.6263406223804,796.2440443783794,806.5095203095686
1731106065.4243624,799.9331215968151,802.6794331078517,794.8671618092951,805.0122299126814
1731106065.4248333,800.4949597666696,802.733021511234,794.1031222978821,804.5678083156976
1731106065.4282706,800.7175954181203,802.7870095741549,793.960803726735,804.5997580233435
1731106065.4321785,800.6645195211509,802.8413316167647,794.1696252728577,804.5867080209607
1731106065.4329724,800.5371369294224,802.8959832423997,794.3712049632827,804.3409219272493
1731106065.436087,800.4692688698087,802.9509966051899,794.2252738294598,803.930227863506
1731106065.436317,800.4817489971164,803.0064075078433,793.5085422390491,803.4882504554843
1731106065.4399948,800.5337318875111,803.0622391441398,792.3123547134178,803.0928609394094
1731106065.4439027,800.5833590752061,803.1185019245817,791.1907969137259,802.7491351479377
1731106065.447811,800.6144914965033,803.1751989563674,790.9568614139753,802.4276321116978
1731106065.451719,800.6321369912109,803.2323308274083,792.0938319062735,802.1024525320619
1731106065.4518783,800.647273854023,803.2899008394897,794.2215112330914,801.7653962850015
1731106065.4519055,800.6665974398126,803.347923469307,796.1675301833311,801.4209921271574
1731106065.455627,800.6907889489225,803.4064320395374,796.7174398527173,801.0764086336619
1731106065.4595351,800.7175291732559,803.4654724090785,795.4826709933775,800.7354680231439
1731106065.4595723,800.74466921459,803.5250707873655,793.1709702566018,800.3981635535818
1731106065.4634433,800.7714877331402,803.5851865275235,791.0426462629264,800.062843932956
1731106065.4673514,800.7983391714964,803.6456983808547,790.0282493191396,799.7281791588816
1731106065.467494,800.8258277331057,803.7064890940713,790.2386618009278,799.3938040823565
1731106065.4707844,800.8542913590072,803.7676363246994,791.2067292343869,799.0599914885687
1731106065.4712594,800.8837427803138,803.82957355163,792.5384542092543,798.727112273362
1731106065.4751675,800.9140517947642,803.892947182116,794.3199299643325,798.3953413692518
1731106065.4790757,800.9451289098347,803.9579744206475,796.9036596863544,798.0646530588364
1731106065.4829836,800.9769980459712,804.0235730005103,800.3118133497774,797.7349437126077
1731106065.4830828,801.0097552172421,804.0872251915224,803.874590603353,797.4061327893409
1731106065.4868915,801.0434573601948,804.1467477125686,806.5157070412308,797.0781914761486
1731106065.4896903,801.0780118570599,804.2039225274866,807.4854685680552,796.7511220836493
1731106065.4908,801.113171372272,804.2671778376175,806.8850920485688,796.4249284831042
1731106065.4943118,801.1487347117494,804.3481584502075,805.4712467993695,796.0996005052294
1731106065.4947078,801.1849220348405,804.4490543706197,803.8982397203536,795.7751144156214
1731106065.498616,801.222619794706,804.5468151517105,802.1497345029735,795.4514421670323
1731106065.4986713,801.2629797792404,804.5929640261376,799.8034071344192,795.128561951097
1731106065.502524,801.306104882446,804.5496609356529,796.9406163101986,794.8064638960063
1731106065.506432,801.3495201991516,804.4567071176394,794.7256686198816,794.4851446529724
1731106065.5085962,801.3883640807129,804.4701538493622,794.8261103597303,794.1645876307883
1731106065.5103402,801.4193006671073,804.7799104150512,797.9504819350506,793.8447378800385
1731106065.5142484,801.4474024784387,805.3924658661034,802.7993216071992,793.5254989477473
1731106065.5142598,801.4899386112189,805.9494373606685,806.5541105156899,793.2067840595244
1731106065.5181563,801.5674583404804,805.8288959576047,806.7111334822987,792.8886191259902
1731106065.5220644,801.6782815212638,804.5665586927164,802.8360009763197,792.5712170593287
1731106065.5259726,801.7714749496776,802.3118952273961,796.8572787284404,792.2548777960388
1731106065.5275023,801.7556132955874,799.9432331195505,791.7737315003661,791.939628373204
1731106065.5290513,801.5781293770136,798.6986413503478,789.902199085771,791.6247814461177
1731106065.5298483,801.353760809354,799.5213712335767,791.927064425838,791.3089457711353
1731106065.5298808,801.4211722559234,802.5111274948284,797.0913676274597,790.9910729353641
1731106065.5337887,802.1522353562758,806.8116217754905,803.9263942103815,790.6723933391781
1731106065.5376968,803.4694775908298,811.0079959064627,810.7953822811418,790.3576067010931
1731106065.541605,804.4056560306113,813.8052072056392,816.1011804368877,790.0526072914397
1731106065.545437,803.3823242447286,814.5947145848163,818.5059445986258,789.7574529150586
1731106065.545513,799.5070335370986,813.6077298821143,817.4100749660495,789.4584860562361
1731106065.5464082,793.9558352644651,811.6324394179115,813.4371559683708,789.1299259765257
1731106065.5494213,789.807393068789,809.527776072567,808.3879984431679,788.755150131751
1731106065.5533292,789.9064150969288,807.8322140857351,804.4299539360525,788.3627520871588
1731106065.5572371,794.4338359830435,806.6502109901509,802.9378814086501,788.044268790879
1731106065.5610256,800.442638065335,805.814340440003,803.788223727364,787.9025940223607
1731106065.5611453,803.9586018480124,805.1667412663124,805.6285710684598,787.9113624667613
1731106065.5637906,802.9806959677453,804.7448775591469,806.9055527142025,787.7631273778036
1731106065.5650537,798.925731764396,804.7405330374014,806.867886649721,786.8860544639246
1731106065.565314,795.3655028370274,805.2940192066762,805.8487310077213,784.7663606212027
1731106065.5689614,795.1228639948334,806.3318787039256,804.7574398429061,781.4436051061135
1731106065.5728695,798.0851292721027,807.6042213601048,804.3013508699597,777.7544004225284
1731106065.576614,801.456512056565,808.8701605465309,804.5428864578477,774.9722118314769
1731106065.5767777,802.1674398112285,810.038829833818,805.0169631738709,773.9934605602626
1731106065.5806856,799.426642155956,811.149740561194,805.2022106487408,774.7056163278971
1731106065.5842202,795.3436558329433,812.2644628182477,804.9792628479271,776.1291714001225
1731106065.5845938,793.1781938900405,813.4089406912263,804.8050476709959,777.3011287205261
1731106065.588502,794.704969213671,814.5852364008914,805.5048661390033,778.163703124806
1731106065.592203,798.8297703639751,815.7483673464882,807.7555256385981,779.6186656467574
1731106065.59241,802.5002063233217,816.7093234554403,811.5171727006352,782.6196591145426
1731106065.596318,803.100414392736,817.1034629448056,815.7932084729256,787.0932910145078
1731106065.59853,800.4055729024388,816.584741121502,818.9839712170437,791.6819969865621
1731106065.6002262,796.606369468054,815.1691975182748,819.7164502630958,794.5518608791399
1731106065.603126,794.4722113119233,813.4067703137683,817.6398980377849,794.5705515961911
1731106065.6041343,795.1719500205752,812.1371721809003,813.6383407660761,791.9451840381715
1731106065.6077914,797.5031836173641,811.9666974977226,809.3123269695109,787.9798976737949
1731106065.6080422,799.1097355361283,812.8958154745682,806.1035352861253,784.2705843457946
1731106065.6119504,798.6078713752609,814.3965093960602,804.6427838436816,781.8711902626592
1731106065.6158586,796.7750731475275,815.8034406934153,804.6586999256291,780.8449637999447
1731106065.6197665,795.7803276747097,816.610247503305,805.3509427499214,780.4201001583842
1731106065.622032,797.157455355425,816.4483055190922,805.8780524892248,779.6800944917208
1731106065.62338,800.3086352414887,814.9499018976104,805.6761702193388,778.3192499010481
1731106065.6236746,802.8300116670206,811.8587916020814,804.5554858404615,776.8430129796062
1731106065.6275828,802.379615029516,807.4387514529716,802.6733706942966,776.0303307579862
1731106065.6314907,798.5515780584631,802.781236096936,800.4654681421873,776.1840753234907
1731106065.6332695,793.2726622986329,799.5416593381123,798.5325755453377,776.9124293248325
1731106065.6353989,789.4435099251765,799.0742346278323,797.4693911808484,777.618306632472
1731106065.6389685,788.8905187065313,801.5056761283411,797.6853083248744,778.1207002429646
1731106065.639307,791.163523976068,805.4686995399668,799.2989752194071,778.7140409176618
1731106065.640938,794.0245147727136,808.8099828934185,802.1299102871247,779.6110241302275
1731106065.6432147,795.1872461023743,809.8713082788432,805.7384787177061,780.4153671343428
1731106065.647123,793.9504849394092,808.466450006536,809.4814696368012,780.29161355287
1731106065.6510313,791.5003705383394,805.8573174186096,812.6283348824427,778.8113110342331
1731106065.654557,789.7364400888539,803.7830506928553,814.5870732468222,776.7240846968576
1731106065.6549392,789.6470307135282,803.3096385054661,815.1614793449745,775.8241227205559
1731106065.658847,790.5748681707897,804.3280839545405,814.6428979528688,777.7816278899988
1731106065.659844,790.9360933556189,805.919284419091,813.6202989197149,782.74932617526
1731106065.6627555,789.7582692655218,807.1266825290735,812.6432006300347,788.928432998853
1731106065.6666636,787.7515848351474,807.5114455269922,812.0162259375759,793.6342366349458
1731106065.6680088,786.989085565847,807.2083938466909,811.8416215160892,795.1417150648452
1731106065.6701458,789.3454346645483,806.6197467727485,812.1267233677132,793.8152898553287
1731106065.6705716,794.8574732342025,806.0505253379787,812.7186331889654,791.5646322640057
1731106065.6744795,801.3646498090607,805.5227520509179,813.1320708986585,790.1391671385643
1731106065.678388,805.8911624642132,804.8588138357787,812.6358252409603,789.800960816443
1731106065.6787498,806.7995567517652,803.9586535619442,810.8067151661229,789.4907615653253
1731106065.6822958,804.958233918419,803.039493472158,808.1929745915298,788.1649645336411
1731106065.6857345,802.8704400483686,802.5896349310648,806.364410978549,785.9628000536006
1731106065.686204,802.4580018591266,803.0187087400715,807.0071670954654,784.1757428895945
1731106065.690112,803.4313911982218,804.3059044320268,810.6250096825394,784.1697094299627
1731106065.69402,803.6990065617636,805.9960192696454,815.9458948982185,786.2685541416273
1731106065.6976557,801.4491887687096,807.5505640810835,820.6537207594322,789.4882654052188
1731106065.6979282,797.038089754977,808.6831825505362,822.9288104244288,792.2320772172874
1731106065.7013228,792.9899605439595,809.3432891334531,822.5570513149229,793.3467732724249
1731106065.7018363,792.0636006673456,809.4323765998827,820.7542950404868,792.7631487289578
1731106065.7027483,794.9885198826481,808.6493895844006,818.9767267305396,791.316558820412
1731106065.7057445,799.7578120581038,806.7009122885217,817.806220626485,789.9751468385111
1731106065.7096524,803.1036093653522,803.6771630094776,816.8106016111802,789.1456989545312
1731106065.7135606,803.005001622407,800.1914289050357,815.3305096706251,788.6104174571927
1731106065.7165618,800.1965915762948,797.1213775362993,813.3367028745314,788.0299175020184
1731106065.7169113,797.4065851554086,795.1771115769129,811.5353571105535,787.3994642845864
1731106065.7174685,796.9229609862301,794.6326285830015,810.6728201611566,786.9500592931108
1731106065.721377,798.549329354275,795.3391940096943,810.7537344221738,786.65909671798
1731106065.7252848,799.7588275031052,796.8932765606035,810.9454820454079,786.0227912748587
1731106065.729193,797.9869598966587,798.7971354032841,810.2732139678762,784.4600791923017
1731106065.7325,793.102389414145,800.5619342050016,808.4552272590173,781.9743501119377
1731106065.733101,787.8663393218833,801.7825839848516,806.1030416711413,779.3603038306924
1731106065.7354677,785.8800870058903,802.214658976427,804.129424253954,777.7018421972697
1731106065.737009,788.6580293976205,801.8588204583825,802.9648967791865,777.6362762835644
1731106065.7374878,794.225836602761,801.0168868001826,802.3373156136079,779.0574053322631
1731106065.7409172,798.4309923698876,800.2283200611815,801.7748789403234,781.4201869628324
1731106065.7448251,797.991409560901,800.0154889710205,801.2473096823471,784.1848833760137
1731106065.7480886,792.9271425633787,800.5315030916523,801.2161585518954,786.8820678023253
1731106065.7487333,786.5009290379186,801.3820874826633,801.9854074728556,788.8399365168539
1731106065.7526414,782.7479559687202,801.8325927631828,803.0159410836551,789.1424993387229
1731106065.7543736,783.541580156797,801.2880477599875,802.9943783790557,787.2102140157793
1731106065.7565494,787.4324180068554,799.6666309837511,800.7561113914221,783.6029597679518
1731106065.7604575,791.0303946377538,797.383750890704,796.3127039592514,780.1190226594152
1731106065.7636771,791.7188772848635,795.029626355588,791.06338699215,778.7538269572888
1731106065.7643657,789.5766114394663,793.0625590668737,786.952298562335,780.2512039795109
1731106065.7682736,787.1478516150542,791.7321336715529,785.2223131492623,783.5898079064034
1731106065.7721815,787.4000980197121,791.1716626788505,785.7158905644269,786.9873930394092
1731106065.7722273,791.4837768531889,791.4704123405779,787.1796114771234,789.5188370021556
1731106065.7732797,797.8972005726516,792.6365782750948,788.2293867061694,791.7657346184939
1731106065.77609,803.5427658528977,794.5222262195578,788.1930153461283,794.8357840926128
1731106065.7792656,805.831486338491,796.8270141039675,787.2605954490547,798.7452210991743
1731106065.7799978,804.3364676116544,799.2150963793725,786.0035015787981,801.8754274830218
1731106065.783906,800.8777986509051,801.4704993210988,784.8269405075139,802.2209364254259
1731106065.787814,798.0651623187244,803.5775318625963,783.873549616133,799.3677243172422
1731106065.7917223,797.450028288336,805.6703203317085,783.3508250556059,795.3127531311667
1731106065.7921855,798.6967537910875,807.8962144447937,783.7549356701409,793.1991505824285
1731106065.7948544,800.3186835431901,810.294341299623,785.556142983235,794.9206708900767
1731106065.7956302,801.2241892081105,812.7614278923194,788.5555215728621,799.6092051702913
1731106065.7995384,801.6850975216655,815.1020467469974,791.6351083501911,804.3028751704676
1731106065.8034463,802.9140368399522,817.107672073102,793.3643579906177,806.2458986635762
1731106065.8069663,805.6935798904497,818.6075318443742,793.0622054253057,804.9097041863762
1731106065.8073545,809.3371731919085,819.4712794497591,791.348578237206,802.1161196277899
1731106065.8104427,811.9737779241656,819.5912016482912,789.6257029906787,800.3081588909383
1731106065.8110914,812.0002290345047,818.8946625777811,788.9486557041289,800.5640643842446
1731106065.8112626,809.5088550383434,817.4069599250594,789.3267821004334,802.0277897685278
1731106065.8151708,806.441857320968,815.3181371472572,790.0442193540242,803.049009301177
1731106065.8190787,805.2240434022336,812.9718641181977,790.5814506229968,802.810847375154
1731106065.8229868,806.884137614387,810.7395571880269,791.1747159538348,801.9199628940094
1731106065.8260314,810.1415588000682,808.8387793594318,792.4629108511049,801.510409959415
1731106065.826895,812.205710650134,807.2207524407404,794.590695292465,801.8275713007363
1731106065.8299975,810.722792681264,805.6304911546713,796.6801126869839,801.7447590406907
1731106065.830803,805.4713032541481,803.8376199281568,797.2733030316696,799.7783239218033
1731106065.8347113,798.6284890457649,801.9030187821916,795.4770721224061,795.6478465221585
1731106065.8386192,793.4425067367771,800.2780422235772,791.864243210986,790.7513639524288
1731106065.84162,792.2132255680659,799.6067835772277,788.3054292944854,787.0192444109233
1731106065.841706,794.9366465252048,800.3031819043027,786.7650020831558,785.3950306097805
1731106065.8425272,799.5200457508265,802.1742080961928,787.9883437211931,785.4436244436332
1731106065.8464353,803.3709082612395,804.3943695761831,791.1350419044339,786.1179122306227
1731106065.8489034,805.1332572663334,805.9319959778345,794.6135068240487,786.6368368428056
1731106065.8503437,805.2223932712388,806.1870300169563,797.3396269642337,786.7810504455662
1731106065.8542516,804.8341601403374,805.3846691920296,799.328517295217,786.6964794562517
1731106065.8572087,804.4874224016424,804.4121047408026,801.227103515074,786.5905832222959
1731106065.8581595,803.5890230565348,804.2226183934633,803.4083897503691,786.5662524456613
1731106065.8620677,801.4526205189057,805.2740520723514,805.5731517195552,786.6166956227187
1731106065.865976,798.6377902121717,807.3821964371166,807.1750109703673,786.6920804898739
1731106065.8678093,797.0285429841571,809.9637887365951,808.1193524972965,786.7551708473352
1731106065.8698838,798.2842095409795,812.3561133407492,808.9688786253326,786.7974024170837
1731106065.8727973,801.9960485730422,813.9870512336779,810.4468869532752,786.8278879001062
1731106065.873792,805.3763666635954,814.4456209364068,812.7251372876198,786.8576492471689
1731106065.8764455,805.0674067368345,813.6133636492384,815.1607867792917,786.8916483084156
1731106065.8777,799.7762019839423,811.8517706947678,816.7236312639869,786.9291481016862
1731106065.881608,791.5867450830623,810.0249670054211,816.7605864265446,786.9674287803897
1731106065.8855162,784.76383858296,809.1593903338314,815.480401671624,787.0046237209189
1731106065.8867154,782.8832050726903,809.8423204537423,813.7961312028561,787.0404056153465
1731106065.8883858,786.4995968926054,811.7697640254354,812.6936410367384,787.0753200357478
1731106065.8894243,793.1127174256021,813.8450670251902,812.6375385092641,787.1099539123462
1731106065.8933322,799.2977391508679,814.8443663205389,813.4082224506082,787.1445516774082
1731106065.8972404,803.1586146688256,814.200800219046,814.3540681207603,787.1790622670435
1731106065.9011486,805.1603756104806,812.3231298527699,814.7607077232772,787.2133415088659
1731106065.9039743,806.8983477756354,810.2043927443611,814.1100999751601,787.247297298491
1731106065.9050565,809.1059454359479,808.6291691316153,812.2430948260109,787.2809251115054
1731106065.9056213,810.7131192191423,807.6004045386469,809.5092353408531,787.3142790385293
1731106065.9089646,809.7246427761988,806.4280017812126,806.810256381318,787.347429181026
1731106065.9111848,805.0830382805782,804.3993574765295,805.3102320595771,787.3804209991896
1731106065.9128728,797.8615779893607,801.4907837022733,805.7876877073982,787.4132350503991
1731106065.9167807,790.7248705362199,798.5327109723393,808.0189289758071,787.4457674027966
1731106065.9195633,786.1058382200581,796.6646905471424,810.7390676623886,787.4778826142191
1731106065.9206889,784.6861331946488,796.4973644180625,812.3546901168302,787.5095719641267
1731106065.9245272,785.4020745986841,797.6617098255434,811.9668334971276,787.5411390919267
1731106065.924597,786.6613561159033,799.1205672235652,809.9730188450944,787.5731838710495
1731106065.9285052,787.4712434364271,799.9800709603538,807.8135182068236,787.6061384168265
1731106065.932413,787.6880563276736,800.121772179657,807.0485825048206,787.6394322411426
1731106065.9351516,787.6209353379982,800.1491338972683,808.4162516262863,787.6710063266405
1731106065.9363213,787.5798803415552,800.7404968115094,811.5065902153951,787.6983453366854
1731106065.9402294,787.6813680326146,801.9880157452492,815.2159029877382,787.7215422094887
1731106065.9434333,787.8858573712663,803.2739392657418,818.5530768372075,787.7466372640104
1731106065.944137,788.1114397311659,803.757635193962,821.133305249797,787.7847434463482
1731106065.9459243,788.3091758095267,803.0442172831044,823.0373402509471,787.8426434384434
1731106065.9480455,788.4748819962545,801.484875896561,824.3298210684586,787.9072269382403
1731106065.95074,788.62623356173,799.9004896494415,824.8146932088987,787.9382584565832
1731106065.9519536,788.7792658344276,799.023637783185,824.2828957253957,787.891157379186
1731106065.9558616,788.9392991161768,799.1621942314944,822.9396215993709,787.7768492508459
1731106065.9597695,789.1037335701474,800.2906064491287,821.4950279401202,787.7219722797405
1731106065.9623392,789.2681997438715,802.2814909118334,820.761735969522,787.9458128143075
1731106065.963678,789.4303083743454,804.8766799048382,821.1172884474078,788.5875709193685
1731106065.9663286,789.5900253076385,807.4375407797764,822.3089238084572,789.4689232813919
1731106065.9675858,789.7483615498206,808.9652813643072,823.7071000854122,790.0858494395583
1731106065.971494,789.9061576203798,808.6802867224973,824.6933069502592,790.0426944303239
1731106065.975402,790.0636680193995,806.7181409212411,824.8501738675361,789.6010559429441
1731106065.9793105,790.2207492502699,804.1576219538455,823.9605011660528,789.6521022377918
1731106065.9806638,790.3771897880191,802.2326315753488,822.0592477118042,790.9417187742597
1731106065.981245,790.5328948724781,801.4924271392043,819.6187591019716,793.2629859994565
1731106065.9819174,790.6878933986796,801.6697000946317,817.5998697212564,795.4439978227608
1731106065.9832182,790.8422639867559,802.1682060003133,817.0484916139845,796.179588218207
1731106065.9871264,790.9960724996974,802.5607149235994,818.3351269458183,794.9947149109315
1731106065.9910345,791.1493536132167,802.7393919227598,820.6421805853398,792.5907296261943
1731106065.9949424,791.302123013692,802.7945041423718,822.3030086117035,790.3840765691873
1731106065.997506,791.4543952501087,802.8429390394133,821.9204004963563,789.6212295595781
1731106065.9988506,791.6061926436985,802.9393053766453,819.4061196830346,790.6450651574853
1731106066.000151,791.7575441063466,803.0771045664892,816.010628198196,792.7017654823464
1731106066.0027587,791.9084795770559,803.227568336452,813.2574491641336,794.333915904689
1731106066.006667,792.0590261517033,803.370316480599,811.7129127527229,794.1049152671802
1731106066.0105748,792.209209349933,803.5013093285189,810.697090450405,791.2645288832452
1731106066.0130944,792.3590592740481,803.6260611188386,809.1512984000094,786.0503341349179
1731106066.014483,792.5086168781761,803.7507551244948,806.7735089665474,779.5576409167625
1731106066.015403,792.6579317351673,803.8780073035344,804.3045406162953,773.3141407335545
1731106066.018391,792.8070445272024,804.0072746266322,802.7129385391697,768.7409384691409
1731106066.019057,792.9559602846191,804.1370045356399,802.1184945175168,766.6523288412513
1731106066.0222993,793.1046391087142,804.2661896868183,801.5458545575649,766.9766887182427
1731106066.0262072,793.2530407568753,804.3946955991523,799.7870946924795,768.8975191149639
1731106066.0286827,793.4012294111735,804.5228561314834,796.5759530549423,771.4186933324521
1731106066.0301151,793.5494660101813,804.6510070043397,792.9644386531095,773.9984355407048
1731106066.0340233,793.6981374054283,804.7792841546428,790.5289263271242,776.7537647929096
1731106066.0379314,793.8474088895571,804.9076619124651,790.112520399044,780.075804527588
1731106066.037963,793.9967382484467,805.0360704057639,791.2174400373387,784.0363108431005
1731106066.0418396,794.1447740143012,805.1644736617852,792.5311420463418,788.1387132981969
1731106066.0442717,794.2902954127735,805.2928820046363,793.0323370351375,791.5979262450405
1731106066.0457475,794.4342093760566,805.4213284346861,792.6725141997595,793.8427287182241
1731106066.0496557,794.5811037312181,805.5498442412235,792.1331253008365,794.8101054132604
1731106066.0501423,794.7375098434665,805.6784495020148,792.0380974992778,794.8687855342775
1731106066.0535638,794.9050350500953,805.8071559699175,792.4000932656318,794.5243291900292
1731106066.0568688,795.0715422346173,805.9359736174321,792.7340813121277,794.1529689175236
1731106066.0574718,795.2106065123496,806.0649147897478,792.634044703281,793.9042466614894
1731106066.0598602,795.3010136487518,806.1939946399185,792.2545593951794,793.758954868469
1731106066.06138,795.3645260954171,806.3232292138305,792.2671710693315,793.6427000833127
1731106066.065288,795.4912016716798,806.4526330326848,793.3000013759513,793.5051020687201
1731106066.069196,795.7988018963296,806.5822177868844,795.3039678889351,793.3379929049188
1731106066.073104,796.2974178195341,806.7119935731683,797.4061428925123,793.1565913426082
1731106066.0754488,796.7289966513266,806.8419732079054,798.4536050384949,792.9767098456753
1731106066.075775,796.5775173670366,806.9721774122395,797.8449123517593,792.8045579410225
1731106066.0770123,795.44836391457,807.102634914388,795.9405310128462,792.6383503769034
1731106066.0809202,793.7150701868469,807.2333709176297,793.6957595739331,792.4739907447943
1731106066.0848284,792.8203501714577,807.3643853450764,791.8763687956475,792.3089575691058
1731106066.084882,794.5509345483878,807.4956388330015,790.5857345347739,792.1429902867119
1731106066.0887363,799.5199727380456,807.6270769896387,789.4775562193144,791.9769713327531
1731106066.0910373,806.1809394249153,807.7587083294815,788.3353344278936,791.8117314243954
1731106066.0926445,811.506454363198,807.8906937146699,787.39184181665,791.6475682991087
1731106066.0946808,812.9996660120619,808.0233323467023,787.1116051253797,791.4843727653725
1731106066.0965526,810.4720316668854,808.1568267930653,787.737416543065,791.3219370235688
1731106066.1004608,806.1593539826468,808.2908734846833,789.1024071501834,791.1601487945326
1731106066.1043687,803.072582738432,808.4244362310912,790.88652767814,790.9990152818311
1731106066.106626,802.8807742372572,808.5562556510318,793.0229653929329,790.8385991453379
1731106066.1082768,804.9578802548517,808.6862713911818,795.788615269417,790.6789563827505
1731106066.112185,807.2253904233087,808.816919681974,799.3906717647496,790.5201130180795
1731106066.113587,807.959191852839,808.9516983521285,803.3685969911504,790.3620721209471
1731106066.1160932,807.042944760473,809.0877493011801,806.4357708585246,790.2048296729075
1731106066.1196213,805.7426736627588,809.2000409579031,807.1354345174382,790.0483868057321
1731106066.1200013,805.3466903495657,809.218277022607,804.9635848499098,789.8927570151867
1731106066.1222146,805.8991892555877,809.0108286556865,801.0307294089655,789.7379687503037
1731106066.1239092,806.1173011736363,808.4098337905726,797.5524781693589,789.5840584814508
1731106066.1278174,804.584428115288,807.3036994860717,796.4302455705772,789.4310481645772
1731106066.1317253,801.2227920297091,805.762214317793,798.0277531458454,789.2789141603706
1731106066.1324928,797.7251479396951,804.0905605145473,801.1006724742394,789.1275789340547
1731106066.1356337,796.4192446914337,802.7169515027531,803.8177587165418,788.9769679310134
1731106066.1378033,798.398807406713,801.9353024934842,804.9404946647945,788.8271365679412
1731106066.1395416,802.5188622916816,801.6715217994533,804.3006491077034,788.6783766213948
1731106066.1434495,806.227991662212,801.4767702406864,802.4901520902644,788.5311202249017
1731106066.1473577,807.6260111177068,800.8060295135266,800.2877365576709,788.3855123283894
1731106066.151266,806.9968718620039,799.4241468302173,798.3083152118234,788.240833067966
1731106066.151399,806.4576877928289,797.6779913246422,796.9503606162668,788.0954105400132
1731106066.1533918,807.9787113562435,796.4448364979429,796.4502629918716,787.9478014171322
1731106066.1543608,811.4518027574262,796.731854036151,796.8933312381329,787.7992053441001
1731106066.1551738,814.5032695612373,799.0830932338599,798.1839907421538,787.6552409500449
1731106066.159082,814.3450131250289,803.1156417613638,800.0487806538937,787.5236577688931
1731106066.16299,810.241743611073,807.5465966283916,802.1141947198907,787.4059280157795
1731106066.1668985,804.5187065232144,810.8315768149288,804.0280389489891,787.2868501742845
1731106066.1689804,801.0782292475751,812.0778276566647,805.5388485857183,787.1347250355669
1731106066.1703043,802.4288994254107,811.5986928408977,806.4778419554295,786.9261340732717
1731106066.1708062,807.6003584099482,810.6803087478582,806.7105043931939,786.6927390155627
1731106066.1747143,812.7456111276076,810.716986231915,806.2038995371192,786.5537531226037
1731106066.1786225,814.0555660596667,812.3363965114027,805.2272181534297,786.6754750842796
1731106066.1825304,810.6495763176562,815.0987986826115,804.4526352959825,787.143340481974
1731106066.184569,805.110101720149,817.9010604567894,804.6888797518249,787.8487243142392
1731106066.1864386,801.3224524973919,819.7396619316037,806.3221929165387,788.5357562350137
1731106066.1891005,801.484899909395,820.3027479124818,808.9315504815523,788.9906488955397
1731106066.189211,804.678264198335,820.0215063270706,811.4992339433699,789.1789143574499
1731106066.1903467,807.9345296791926,819.5837001901986,813.1147137872869,789.2109268533491
1731106066.1942546,808.6915399740135,819.289080185032,813.5783365906176,789.217373773078
1731106066.1981628,806.556789648683,818.7625359982744,813.3661069258205,789.2661686574689
1731106066.2001574,803.1150077389063,817.2784942566789,812.9953736198119,789.3591094994638
1731106066.202071,800.3129684972869,814.4415692916141,812.397429234565,789.4695259839593
1731106066.2059789,799.0496555567942,810.6599958103953,810.9211500785271,789.5755248091458
1731106066.2081163,799.0080841701167,807.0457339042503,808.0216176675303,789.6710588684913
1731106066.209887,799.3882582529887,804.8621126675391,804.0299949596453,789.7607070598899
1731106066.2137952,799.6155794884372,804.9212577941465,800.2623699424696,789.8507659086861
1731106066.2157462,799.54961664387,807.2325188729363,798.2684864646665,789.9443389441839
1731106066.217703,799.3172226034975,810.9856622137999,798.7847723890268,790.0412181776301
1731106066.2216113,799.0785628923626,814.8557084873511,801.2441192310133,790.1399011683242
1731106066.2238398,798.9072833657345,817.5509982641279,804.2250540684805,790.239266259378
1731106066.2255194,798.7935668431173,818.3687456153511,806.4235472154736,790.3390543229041
1731106066.2270224,798.6977605060495,817.4270787821554,807.3504659788933,790.4395365585859
1731106066.2294276,798.5921212063051,815.4244602102044,807.3166803836664,790.5410400369458
1731106066.2313347,798.4713338569668,813.1275098239331,806.9307849797283,790.6437085903904
1731106066.2333355,798.3430238642609,810.9574459388065,806.6294859118389,790.7475143029952
1731106066.2372437,798.2155948838944,808.8903638154383,806.5332252793256,790.8523695303569
1731106066.2411518,798.0925150876576,806.6296841476293,806.561169724844,790.9582120439837
1731106066.2450595,797.9729449005881,803.9073060085824,806.5997129305478,791.0650252610842
1731106066.2459283,797.8546981169734,800.7955041217841,806.5932062834062,791.1728178438857
1731106066.2469232,797.7363557396145,797.8878162744501,806.5460367223576,791.2815987940039
1731106066.248968,797.6176948549055,796.153050734154,806.4857779839406,791.3913667762081
1731106066.252876,797.4991253147167,796.3977853697911,806.4327895444301,791.5021128686034
1731106066.256784,797.3810519518665,798.6271097636544,806.3916328736497,791.6138271601362
1731106066.258579,797.2636033201366,801.8366662160299,806.3572450412973,791.7265010100531
1731106066.260692,797.1466874913323,804.5369515211036,806.3236031783289,791.840123010755
1731106066.2625115,797.030153589682,805.7023637474547,806.2880473907278,791.9546734634031
1731106066.2646005,796.9138978669992,805.4093819844736,806.251037034204,792.0701262562465
1731106066.2648344,796.7978796851531,804.6329334413216,806.2140967530022,792.1864643852318
1731106066.2685082,796.6820888123099,804.3639386674969,806.1782681429677,792.3037027559759
1731106066.2724164,796.5665122510787,804.7770551304618,806.1437463609075,792.4218936247898
1731106066.2763245,796.4511216162574,805.1165378745692,806.1102527559509,792.5410836321538
1731106066.2781005,796.3358772559188,804.3542194412786,806.0774899982288,792.6612210923339
1731106066.2802324,796.22073701791,802.0559208919087,806.0453471791283,792.782082715789
1731106066.2837403,796.1056615590231,798.7786060211972,806.0138696005667,792.9033522105858
1731106066.2841406,795.9906148741657,795.7479381948929,805.9831494468344,793.0249379321715
1731106066.2880487,795.8755624635194,794.126720726236,805.9532559224041,793.147384838533
1731106066.291957,795.7604696526541,794.4183830540321,805.92422833321,793.2719069580615
1731106066.2933185,795.6453010507927,796.3319374991362,805.8960928859866,793.3994897950458
1731106066.293689,795.5300208592868,799.0426270650092,805.8688594119782,793.5291338086557
1731106066.2958648,795.4145933750156,801.586808842458,805.8424922846352,793.656653127083
1731106066.299773,795.2989832849383,803.2143720435386,805.8168984050991,793.7765125862286
1731106066.3026462,795.183155708419,803.6521548434561,805.7919934518158,793.8880637397813
1731106066.3036811,795.0670761259846,803.210248823734,805.7678559034836,794.0029520745762
1731106066.3075893,794.9507103248367,802.5989346216321,805.7448538987072,794.1444876534861
1731106066.3092775,794.8340244064157,802.4459366370971,805.7235176039139,794.3292529169386
1731106066.3114972,794.7169848363111,802.7914189176649,805.7040026970417,794.5341815541781
1731106066.3154054,794.5995585008625,802.9865024412693,805.6853835628604,794.6778780103147
1731106066.3193133,794.4817127499783,802.1833788767199,805.6655796339851,794.6627945016522
1731106066.3215525,794.3634154252632,800.1024841465116,805.6428628589309,794.4994375512268
1731106066.3232214,794.2446348825258,797.4310827516246,805.6188523064429,794.4462593205469
1731106066.324866,794.1253400176469,795.4244073444976,805.6006148703011,794.999288504419
1731106066.3271296,794.0055002991567,794.9633282329607,805.5976318205473,796.5983381990951
1731106066.328058,793.885085803414,795.8844962223565,805.6112291727161,799.1828930626084
1731106066.3310375,793.7640672420059,797.232992920437,805.6218368922016,801.9970625249837
1731106066.3349457,793.6424159710874,798.2364548451473,805.5897087607725,803.8950834471965
1731106066.3388538,793.5201039849886,799.0632919250393,805.4858837595287,803.9399788645662
1731106066.3404548,793.3971039204499,800.5969062667982,805.348408570081,801.889319631339
1731106066.3404582,793.273389114978,803.4185914196004,805.315328568439,798.3467737946418
1731106066.3427618,793.1489337398575,806.9787476958927,805.5548341727781,794.5348999693857
1731106066.34667,793.0237129455999,809.7586893623799,806.0551066841215,791.7011204310905
1731106066.350578,792.8977028557355,810.2978181529767,806.385329308777,790.3603938196455
1731106066.3544862,792.770880246282,808.2156543309845,805.7126635026557,789.8905955327057
1731106066.356043,792.643221987837,804.4474129267114,803.3151011693593,788.966649567856
1731106066.358394,792.5147047727075,800.6249092015507,799.378026873692,786.6768366303963
1731106066.359364,792.3853059263874,798.1550766778964,795.3474910714767,783.4210904561684
1731106066.3623023,792.2550055849366,797.6154946813446,793.2779573654983,780.7176961813271
1731106066.3627973,792.1237889059172,798.7199656449197,794.5065545613961,779.9985893434709
1731106066.3662105,791.9916451625447,800.705733132108,798.6726748794113,781.4478708239833
1731106066.3701184,791.8585609206499,802.8118745553974,803.8656110085543,783.9057159679026
1731106066.371632,791.7245093830674,804.5666621077498,807.7928812310258,785.8340499398787
1731106066.3740263,791.5894463207846,805.7851020298785,809.0978231252329,786.3737406064414
1731106066.3779347,791.4533272546241,806.3855633261297,807.9178176966312,785.5601304508733
1731106066.37827,791.3161491093928,806.2451911550778,805.450338940303,783.681801970657
1731106066.3818426,791.1779882588517,805.2485267252,803.0560489329822,780.607022416662
1731106066.3857508,791.0389748730587,803.4930878929883,801.6259200318075,775.8832863516047
1731106066.3872204,790.8991563648465,801.4586601074615,801.5135035537033,769.6139472475709
1731106066.3896587,790.7583013290555,799.949190836613,802.7851839035104,763.2758606664413
1731106066.3935668,790.6158500465166,799.7683642187708,805.3680749049563,759.503614773337
1731106066.397176,790.4712779238631,801.2827703333681,808.9328846052787,760.6129743069469
1731106066.397475,790.3248913065181,804.1395490252063,812.7165148625915,766.7536917317776
1731106066.3975368,790.1784723472689,807.3593572441707,815.619856560827,775.16829517245
1731106066.4013832,790.0346352501331,809.8155825152809,816.6985917450249,781.4536558939224
1731106066.4028091,789.8941203110561,810.8431075333782,815.7717250695932,782.2258043340076
1731106066.4052913,789.7522238411574,810.5867459816137,813.6503903421602,777.3243062867238
1731106066.4091992,789.5984076243553,809.8384154296401,811.702315006253,769.849455142931
1731106066.4131074,789.4238738580025,809.4555188280342,811.0055052750016,763.9683352947932
1731106066.416082,789.2366618779192,809.7501748305102,811.7238546744052,762.2052838802092
1731106066.4170156,789.0723030944142,810.2659939945,813.1551782385826,764.2489037600739
1731106066.4183977,788.9786669362383,810.1028083196828,814.319067538422,767.9073906023935
1731106066.4209237,788.9628337392065,808.5898469441911,814.5562881715222,771.086869363949
1731106066.4248316,788.9269851918076,805.8691573625903,813.7530039004491,773.1122366332685
1731106066.4287398,788.6723475054619,802.9827594300658,812.2245182037972,774.6148061723796
1731106066.4322762,788.0569850259332,801.3613745408333,810.509632376767,776.5208859971945
1731106066.4326477,787.2860114009599,802.0089665388778,809.2052278019904,779.2260631462744
1731106066.4339862,787.0998798479175,804.8888945670402,808.78434899659,782.5626540103955
1731106066.434988,788.4883910135705,808.8897251704179,809.3554014015534,786.2904808302106
1731106066.436556,791.8294701499079,812.3854623290018,810.4967818975455,790.3945408707998
1731106066.440464,796.1096647729407,814.0590246128733,811.3938261037027,794.8019999571139
1731106066.444372,799.3029871500422,813.5228294722397,811.3379802542331,798.8657240282836
1731106066.44828,800.0166925075221,811.3950757250801,810.3043765192951,801.3497550727463
1731106066.4495747,798.8913852244328,808.8083935872594,809.1163843768664,801.2362328253772
1731106066.4521885,798.1293886006083,806.6805392783394,808.9223947185606,798.7892736154075
1731106066.453894,799.3817921755114,805.2433669347322,810.2854141592962,795.8547419490845
1731106066.4560962,802.008497233897,804.148754751497,812.6325641846109,794.9079461915665
1731106066.4600043,803.5063316920703,803.0281148160553,814.6202908274054,797.4532972918913
1731106066.4639125,801.8805506137785,802.0089919270755,815.1856301867489,802.9860230453725
1731106066.4651637,797.8288390839527,801.7232627061799,814.3752261481911,809.2717788321183
1731106066.4670155,794.6247963737227,802.7830532704098,813.1905091499912,813.6645032270216
1731106066.4678204,795.5885486452395,805.1759555020358,812.5972129490652,814.5247546599027
1731106066.4717286,801.2311280678163,808.1125704353702,812.6438364829748,811.945399959976
1731106066.4727998,808.5502015049491,810.4732976236857,812.5066225708767,807.5609749994481
1731106066.4756367,813.1568821545716,811.4981448585206,811.3528424242135,803.6615021316916
1731106066.4795449,812.5118995846274,811.1863032419274,809.1326098918527,802.0238449746408
1731106066.480752,807.6394121873726,810.1498995775707,806.5440364111661,802.9770473046235
1731106066.4834528,802.0103915229383,809.116786480016,804.2817573968539,805.2202604502821
1731106066.487361,798.6507185982681,808.5004946746046,802.3737291325874,806.5969599306713
1731106066.491269,797.918598087162,808.3055496108136,800.2715874192461,805.4190193517611
1731106066.491706,797.7063055435418,808.3149536093999,797.5841181684264,801.486686980643
1731106066.495177,795.715680894112,808.3242370020082,794.7118443807974,796.1218151493838
1731106066.4963405,791.7391821255318,808.2509515469997,792.7314705827788,791.2350731370495
1731106066.4990852,787.9678568132184,808.1129989712066,792.5751758649566,788.1139011167081
1731106066.501755,787.1101356600193,807.9590549328558,794.2076221368865,786.7521099116433
1731106066.502993,789.9979196074919,807.8202284254511,796.5359763039265,786.1098956444749
1731106066.5069013,794.7630838264032,807.7005179342846,798.1623100577706,785.0398585489894
1731106066.5106118,798.2831163223657,807.5897325887213,798.3541609314643,783.1759206724373
1731106066.5108094,798.6552219120998,807.4779391692531,797.42657822702,781.1408031870589
1731106066.511929,796.6304020257535,807.3615196169517,796.2645568512388,779.9547844087173
1731106066.5147176,794.8725439390297,807.241831633876,795.4760786625914,780.1561080072645
1731106066.5186255,795.7322662422533,807.1215248712368,794.9586203040332,781.3788284660671
1731106066.5225337,799.3819892475567,807.0021505542547,794.2364769309276,782.7479169501574
1731106066.5264418,803.7555463399752,806.8838204114438,793.1908959732889,783.7307872888243
1731106066.5275178,806.2240683408321,806.7659594682275,792.4337037919513,784.6489837181747
1731106066.5295177,805.6062448845682,806.648058631257,792.9016298684727,786.3210219606483
1731106066.5303495,802.9593102474646,806.5299570078906,794.9789924377228,789.0863164241598
1731106066.534258,800.6270501567701,806.41174579131,797.930298739972,792.0832191448776
1731106066.5364945,800.3722183672935,806.2935695635692,800.2017055670306,793.5398270777516
1731106066.538166,802.0754996154333,806.1755074651185,800.4169735184612,792.0011120196763
1731106066.5420742,803.9797999047398,806.0575625251762,798.3008771830661,787.5277992100449
1731106066.5431063,804.2137128080501,805.9397038176261,794.8281626652087,781.7838216107108
1731106066.545982,802.3377012484916,805.8219053307719,791.5352649028315,776.8196477100746
1731106066.5484238,799.7005582450615,805.7041605608297,789.5733368883438,773.5600367334816
1731106066.5498905,798.3832546524044,805.5864794069121,789.2047826192689,771.3818391510786
1731106066.5537984,799.59985080169,805.4688795607069,790.0087843838377,769.2205267570275
1731106066.5577064,802.7761373853277,805.3513768983803,791.4739115094558,767.1484552901533
1731106066.5586948,805.9473665740013,805.233973557787,793.4087802185704,766.7851918368107
1731106066.5616145,807.1223450014113,805.1166470280424,795.868853747657,769.9412516649177
1731106066.565523,805.6011845866072,804.999354653265,798.7967765512685,776.6584575488567
1731106066.5673296,802.3353323419187,804.8820698955802,801.8185357546628,784.5472437868739
1731106066.5694306,799.1401430004713,804.7648429440137,804.4077281034191,790.2151849614013
1731106066.5712335,797.3791025457892,804.6478313609892,806.205916196196,791.6507756265763
1731106066.5733387,797.0980290853241,804.5312163162314,807.1496078050044,789.5354496111302
1731106066.5742834,797.2584794627842,804.4149736378363,807.3388088197913,786.4419357663055
1731106066.577247,796.8813312561906,804.2986393640332,806.916080419714,784.7564114940602
1731106066.5811548,796.1298645985212,804.1814032202138,806.1732896841947,785.1628847781224
1731106066.585063,796.3068362385461,804.0628293431284,805.7121992516034,786.807530164836
1731106066.5862355,798.6193665366292,803.9439889567496,806.2640547189446,788.6287502522276
1731106066.5889711,802.7335791817244,803.8279055492192,808.0884670263918,790.3826442092943
1731106066.589872,806.5111556968849,803.7177551633677,810.4461363188534,792.4301604010367
1731106066.5928793,807.402338589561,803.6124655101759,811.7930254235409,794.7198539802487
1731106066.5967872,804.4797909415583,803.5026776212076,810.7701237346212,796.2094688746746
1731106066.6006954,799.3879646664777,803.3734730259963,807.2667179754441,795.483773483271
1731106066.6046035,795.2821064795753,803.2190352812077,802.6497390799376,792.1017218491174
1731106066.6051414,794.5119633854711,803.064251727142,798.925790987985,787.4480343172751
1731106066.6054606,796.9094714026887,802.9725605635846,797.498485629955,784.2344560125235
1731106066.6059732,800.0883682904939,803.0150074030511,798.4600616183219,784.8879867409115
1731106066.6085114,801.52115741234,803.2082413575,800.8321262717125,789.9399541832897
1731106066.6124196,800.6893223855157,803.4909649240382,803.4093848111887,797.5670973143215
1731106066.6163278,799.5146895601489,803.8047828722155,805.5134215993486,804.6593627664087
1731106066.6202357,800.6628111482152,804.2093644293969,807.1933614551643,808.7220316964405
1731106066.6210492,805.0654630820953,804.8517885193095,808.8982215252194,809.2894419257798
1731106066.6240475,810.7121876603308,805.7399115929102,810.9774440670376,807.8503073380169
1731106066.6241438,813.8075244395516,806.5334152677134,813.3632339966613,806.4070496273547
1731106066.628052,811.512731638402,806.633668622014,815.5656780314682,805.8564689377242
1731106066.63196,804.1794953468485,805.60088030846,816.8961097861436,805.4757880817222
1731106066.635868,795.3094059830051,803.5827259620819,816.7579198451763,803.8123244918172
1731106066.6366377,789.2218479939273,801.355072895512,814.8901446384085,800.0889101123632
1731106066.6397762,788.1984669327636,799.877541094572,811.5238426709127,794.9312948189541
1731106066.6407127,791.2388047107307,799.6906725636042,807.4275288926231,789.9834337351076
1731106066.6429534,795.2268028716431,800.6204262834149,803.7686524653913,786.9280059895121
1731106066.643684,797.4071693291131,801.9846905051137,801.7136219060694,786.6722095669486
1731106066.6475923,797.1554160735421,803.091565953469,801.8510301893065,789.0337042696183
1731106066.6515005,795.7712704446221,803.6462434201737,803.7742208894015,792.8630242548813
1731106066.6522264,794.7462752972247,803.8363886201429,806.2080808798142,796.5071672271308
1731106066.6554084,794.2046870109976,804.1365548548621,807.7286551699615,798.5418268763225
1731106066.6593163,792.9543895928238,805.0140474322011,807.6308260916309,798.4831555824164
1731106066.6618593,790.0528182135868,806.6825034748568,806.3164184499187,796.989672912129
1731106066.6632247,786.3472916708048,808.9651388051675,804.9147246632627,795.312067749534
1731106066.6671329,784.4010611698726,811.3099936160795,804.4334345994023,794.3626877381095
1731106066.667815,786.6443945713753,813.0056171632361,805.0798253550755,794.1527795341616
1731106066.6710408,793.2247362231828,813.5618561173804,806.2260624160914,794.0417817265069
1731106066.6749487,801.3939951406231,813.0463965428926,806.9740197686384,793.5010129990424
1731106066.6754522,807.0469666215097,812.0841361209727,806.8276018298484,792.614687431585
1731106066.678857,807.3172425698242,811.4126404936915,805.9557768365677,791.8073099611455
1731106066.6807654,802.3735986629121,811.2677617503688,804.922695412666,791.0963994716718
1731106066.682765,795.2149365800262,811.1097114550734,804.2071452084749,789.7572340177621
1731106066.6834035,789.6688509875258,809.9993375595208,803.9311951365839,786.975366435614
1731106066.6866732,787.9482776795345,807.390629576631,803.9309342743084,782.9977211516435
1731106066.690581,789.3743560496563,803.6887343772771,803.9848200330076,779.5209238321323
1731106066.6944892,791.1199820774738,800.0639866576237,803.9702502671114,778.5762418607319
1731106066.6983974,790.4665839611448,797.6463659002026,803.8790404465627,780.709132594215
1731106066.698992,786.9563929999563,796.7810840655493,803.7557687615404,784.2369734525388
1731106066.6996713,782.8271822833378,796.9640864835633,803.6393428350683,786.5419904298799
1731106066.7023056,781.3539119387598,797.4469493725205,803.5417635448954,786.3492466609663
1731106066.7062137,784.3203900110252,797.9117628253637,803.4559190063043,784.8205669912023
1731106066.7101216,790.5729756169821,798.617406524294,803.3709126604983,784.3563831030383
1731106066.7101915,796.8357015242036,799.9645174065018,803.2810282190768,786.2438936330847
1731106066.7140298,800.1963617657491,801.9645667842176,803.1863501864642,789.4235727642578
1731106066.7145808,800.2726854451008,804.1345107685942,803.089407494173,791.5161008019834
1731106066.7179377,799.2479931296559,805.8906383182913,802.992204130186,791.0502538254931
1731106066.7185771,799.7049810490394,807.0425674455348,802.8952712235392,788.7528073996971
1731106066.721846,802.0946051931863,807.9233699977873,802.7981802094703,786.740150453639
1731106066.725754,804.0999399140451,809.0524407909425,802.7003632905983,786.4320001753001
1731106066.7296622,802.614705286875,810.6477370983732,802.6015532208639,787.1589276425628
1731106066.7301693,796.7609858930618,812.4059905265265,802.5017845764654,786.7898156557546
1731106066.73357,789.297294140699,813.7059117988894,802.401205803531,783.8544807257065
1731106066.7374785,784.981276239801,814.0382869595667,802.2999276929688,779.2146693350614
1731106066.7374833,787.039286380746,813.327696969164,802.1979826613297,775.6720358193994
1731106066.7413864,794.6101249568143,811.9428387155559,802.0953572323845,775.7597330094252
1731106066.744931,803.2920459661178,810.4363222431427,801.9920348324458,779.6297470524373
1731106066.7452943,808.3476751650924,809.2246739544618,801.8880143702111,784.855879945086
1731106066.7457578,807.9800207034157,808.4284772680171,801.783305206778,788.2715559267549
1731106066.7492025,804.1812685796116,807.9558800402506,801.6779165740163,788.2845770198762
1731106066.7531106,800.7373428822905,807.7221709974399,801.5718576390683,785.8772901895975
1731106066.7563891,800.1896275128919,807.793758434668,801.4651507412004,783.6825987301983
1731106066.7570186,802.1657582059905,808.3214544019569,801.3578432499639,783.9858115394228
1731106066.7609267,804.2023595379587,809.3264106038657,801.2499936243561,787.1580354177977
1731106066.7613463,804.1548226673964,810.5389872286139,801.1416188918422,791.5748600832699
1731106066.764835,802.111792749135,811.4426823063395,801.0326319576773,794.9429685025589
1731106066.7687428,800.2568121554718,811.5076773195296,800.9228484789957,795.945197590988
1731106066.772651,800.8740129657521,810.4749060468861,800.8121458722779,794.9523906114964
1731106066.775295,804.2395432743722,808.5433458417891,800.7007444326746,793.3807058229695
1731106066.776559,808.2106357698656,806.3609242850792,800.5893632073454,792.4019688134954
1731106066.776935,809.8906984261124,804.7713862157353,800.4788576231053,792.1378717925742
1731106066.7796705,808.0265782910653,804.3747422256425,800.3691782534772,791.8567937844047
1731106066.780467,804.183815908868,805.1474735817845,800.2582640221074,790.7424404944142
1731106066.7843752,801.7078991216874,806.4566850748907,800.142392025793,788.4671449010609
1731106066.788283,803.2401833170325,807.5266346588936,800.0194080898278,785.2559582453341
1731106066.7921915,808.723313987676,807.9565180237355,799.893964404951,781.6904521569311
1731106066.7925236,815.4508286054906,807.8424379500204,799.779816608935,778.5400893144417
1731106066.7942011,820.077089583859,807.5133899221913,799.6919522131067,776.5766926756661
1731106066.7960994,820.9603329141603,807.2280805081932,799.6265408672349,776.2338303549637
1731106066.8000076,819.0326459651312,807.0647867833574,799.5418108635948,777.2853881590767
1731106066.8039155,816.6588886412598,806.979034853867,799.3692278836435,778.9360854040402
1731106066.8078237,815.5459125650744,806.9025811646027,799.0799919218961,780.4125604303659
1731106066.808112,815.3988105356618,806.7999934657895,798.7868577288809,781.6015696168272
1731106066.8117318,814.2904467938425,806.6722039736926,798.7902421474256,783.1510901803391
1731106066.813107,810.3248613559357,806.5352287281976,799.458823145806,785.9160481074597
1731106066.8144095,803.2445905900634,806.4015677870907,800.960895671783,790.2122856618162
1731106066.81564,794.7677307967984,806.2743983722011,803.0662389986501,795.4804054893294
1731106066.819548,787.4377990671684,806.150901185581,805.2488019610903,800.5796520890955
1731106066.823456,782.8951159282539,806.0274359920628,807.0252230880766,804.4143202602173
1731106066.823701,780.9342865486906,805.9022788559533,808.1912068854568,806.3816945751289
1731106066.8273642,780.0988805343646,805.7756012469858,808.7409756004608,806.3689174551627
1731106066.831272,779.2738427958686,805.6482767878146,808.6457932193534,804.4758120085093
1731106066.832013,778.8387431648084,805.520929686991,807.8373547287486,800.87262228407
1731106066.8351803,780.3087633090906,805.3936815511478,806.4619398938534,795.9844577876831
1731106066.8390884,784.7579458078739,805.2663564643929,805.0622710264885,790.7436044914995
1731106066.8392894,791.4412020964224,805.138754880261,804.3176857949123,786.4575947070005
1731106066.8429964,797.8685744835549,805.0107861884054,804.4357691037463,784.1790966702979
1731106066.8469045,801.3224575881462,804.8824582013402,804.7693425577517,784.0439327007006
1731106066.8491492,800.6183454057441,804.7538121053153,804.1658185123115,785.2167803876858
1731106066.850813,796.7897674316994,804.6248742048837,801.917569405104,786.543140845875
1731106066.850919,792.2966571755406,804.4956433588491,798.5648420559374,787.3039709030223
1731106066.8547206,789.4507072470075,804.3660994256234,795.8193567806157,787.4483677522531
1731106066.854878,789.1891707763333,804.236215287313,795.5456782314591,787.2999535844192
1731106066.8586287,790.927757302796,804.1059676549866,798.4908863026576,787.1675469613972
1731106066.862537,793.3969478517853,803.9753499185629,803.6794597245012,787.169233133651
1731106066.8664453,795.7006112425224,803.8443842424243,808.9304012198237,787.2701234913573
1731106066.869825,797.7516723920609,803.7131160801542,812.1638813011,787.3922837430035
1731106066.870353,799.8045405810012,803.5815715204609,812.6119958168254,787.4882673769231
1731106066.8704665,801.6233044432316,803.4496860009241,811.11581340775,787.5534732493519
1731106066.8742611,802.2023947776738,803.3172685118092,809.33635981921,787.6046213203722
1731106066.8781693,800.4727221827994,803.18410097187,808.487322323987,787.6571579064063
1731106066.8820772,796.4535233814877,803.0502087391037,808.5436322117611,787.7163329437938
1731106066.8838887,791.7631379579391,802.9161366890106,808.4996082376674,787.779733645795
1731106066.8859854,788.8408563154088,802.7828369606352,807.4039368339317,787.8431607905177
1731106066.886055,789.2970420670982,802.6508161646728,805.2697047376962,787.9042705491241
1731106066.8887308,792.5965353896523,802.5187991450973,803.0945605279325,787.9629805062468
1731106066.8898935,796.1626999466517,802.3832102607782,802.0199207947471,788.0202311847169
1731106066.8938017,797.0396474315187,802.2403103250294,802.4014040571893,788.0768145633341
1731106066.8977096,794.098505183826,802.0914043217608,803.594261505985,788.1329633991074
1731106066.9016178,789.2132768939595,801.9476189781927,804.5834735419775,788.188524259321
1731106066.9016438,786.3595797838807,801.8267221040047,804.8582275269843,788.2432734470711
1731106066.9055257,788.9950777719769,801.7360124845982,804.7915389319104,788.2970969519112
1731106066.9076366,797.4306002647213,801.6475582757253,805.2823863421361,788.349999258003
1731106066.9094338,808.1357632776408,801.4912697734553,807.0357460376773,788.4020325894987
1731106066.913342,815.6935078022318,801.19842730404,810.0701868159261,788.4532358362833
1731106066.9172325,816.1884452735511,800.7959123048365,813.7562073142109,788.5036163397644
1731106066.91725,809.6330640825502,800.4709396074936,817.2238606992388,788.553163260307
1731106066.918628,799.6523086327493,800.4718342286858,819.7529464573432,788.6018682456152
1731106066.921158,790.7300297360397,800.843594533329,820.9270615541174,788.6497360778358
1731106066.9250662,785.2292900254446,801.2766855062695,820.6521298022255,788.6967790644002
1731106066.9265428,782.4917741776108,801.3495303094306,819.2240729780813,788.7429985967519
1731106066.9289744,780.4663551239094,800.9938804641274,817.3931124047122,788.788367526792
1731106066.9328208,778.1365409062804,800.6796501872717,816.1618959163723,788.8328359384751
1731106066.9328823,776.4753621442188,801.1014990490538,816.2375606137606,788.8763779748585
1731106066.9367905,777.2042380940501,802.6805062959186,817.507598205586,788.9190638699685
1731106066.9406986,780.7414681408771,805.3204482766764,819.0747952674353,788.9610862456736
1731106066.9446063,785.389293698349,808.5261467280345,819.9489564589239,789.002643008904
1731106066.9454486,788.5159107945944,811.6601556533253,819.8342391933271,789.0436576988236
1731106066.9484096,788.6153416528394,814.1174577975196,819.2893453648975,789.0835283248408
1731106066.9485147,786.4220117762227,815.4241585325625,819.1047532856451,789.1213073277984
1731106066.9524229,784.1820117230824,815.3809610513557,819.483910150289,789.1566226034219
1731106066.9533677,783.7584812688671,814.2294181786293,819.7916291605904,789.1909833654553
1731106066.9563308,785.1552095191397,812.6255084473122,819.0901335755715,789.2280822116661
1731106066.9602387,786.6641808493165,811.2769214166158,816.9642494450028,789.2713201921758
1731106066.963998,786.528006915903,810.4527802592557,813.89604812551,789.3184609853716
1731106066.964147,784.741773731354,809.8247399114832,810.8580249553412,789.3573525992878
1731106066.9643545,783.4039693004946,808.8747189741727,808.4708128599168,789.3702768525138
1731106066.968055,785.1568511924244,807.5373827348444,806.4547540640114,789.3518176010675
1731106066.9719632,790.9140939157952,806.4233317795664,803.8869730968387,789.3314944653296
1731106066.975871,798.8182233395266,806.3143757111336,800.1161204203245,789.3723926861342
1731106066.9795866,805.4167244779246,807.3603186626206,795.6053689787475,789.5092065028932
1731106066.9797792,808.1562469504084,808.7783168259762,791.9645129897355,789.6146809178842
1731106066.9832606,807.1719341732652,809.4195708948221,791.039895255672,789.2683782096113
1731106066.9836874,804.9871274874898,808.7217011826727,793.6769762507291,787.8487929459468
1731106066.9875956,804.4878137752902,807.1681250384157,799.049225075368,785.0620091794804
1731106066.988107,806.8423897562802,805.8429797303163,805.0456685841757,781.6445518290149
1731106066.9915037,810.9146272277508,805.5240087472155,809.4585501158864,779.4187601480271
1731106066.9951751,814.4451963557669,806.138277240857,811.1775744487463,780.2130983683903
1731106066.9954116,815.9359333999968,806.9840452658636,810.635026089235,784.3634100910801
1731106066.9993198,815.7320155722894,807.3901157690112,809.2828980928942,790.1869348388336
1731106067.0021665,815.5019972919621,807.1730998534633,808.52089872133,795.0452166134802
1731106067.003228,816.5996427364528,806.5755455458532,808.8095660258307,797.1613556407461
1731106067.007136,818.6845576471924,805.8994095747792,809.5164770988206,796.7025054238768
1731106067.010764,819.7817882367473,805.2547917274135,809.5101606553254,795.324630068877
1731106067.011044,817.8005000421341,804.6054620697105,808.0145844553764,794.6648227892221
1731106067.0149522,812.3253688133132,803.9420260909285,805.1189936868642,795.0475963423708
1731106067.01886,805.2329733357502,803.331089460234,801.6643591863823,795.4126426752264
1731106067.0210724,799.5907674765701,802.811793238702,798.7054873124449,794.4504797142711
1731106067.0227685,797.6235569033145,802.3318284723945,796.983995366854,791.9448812257097
1731106067.0228462,799.2307858939378,801.8536160488687,796.7070376234592,789.1537382088053
1731106067.0263524,802.1205781500583,801.5000204949529,797.6201484720542,787.8865075900053
1731106067.0266764,803.4596390833311,801.496223782034,799.187908765346,789.0726061746718
1731106067.0305843,801.859302335032,801.8837920416357,800.7503083100105,792.0485759469992
1731106067.0344925,798.2685251481093,802.3002282519242,801.669106576158,795.1246924875562
1731106067.038401,795.139186159785,802.1348021266404,801.5323060573604,796.8573413420156
1731106067.0399785,794.5425771666285,801.010268768357,800.3908793472071,796.9203773411085
1731106067.0419407,796.7284057192098,799.169136673142,798.8659818574044,795.9818826081723
1731106067.0423086,800.2172178343798,797.3800771658393,797.9522586442646,794.941188366709
1731106067.0462167,803.2200713459965,796.4183920914156,798.5243794548671,794.297776616898
1731106067.050125,805.1086555807743,796.575030539289,800.8070838036493,794.0519224713239
1731106067.054033,806.7074486227459,797.6022494084199,804.1552862487813,793.9684735183034
1731106067.0575294,809.2299104929887,799.0653981098012,807.3003181852696,793.8488521696045
1731106067.0575857,812.8136066424436,800.6990692537821,808.9177128187929,793.6313022337176
1731106067.057941,815.9377696377499,802.4297411457948,808.2196353586043,793.3504980525368
1731106067.0588844,816.3153620050364,804.1158477567877,805.3203022519117,793.0605845316613
1731106067.061849,812.6578290591872,805.3420636769915,801.2206799166113,792.7901447514911
1731106067.0657573,805.90825393787,805.528524939115,797.3585553920622,792.5388850798618
1731106067.0696652,798.8255986116479,804.3099407221413,794.873276120386,792.2942760913868
1731106067.0731182,794.0861967946274,801.8991052590804,794.0007696960555,792.0463580333683
1731106067.0735734,792.3449539003428,799.1332195414227,794.0411798272612,791.792501516867
1731106067.0774815,791.8262935743265,797.0914632423597,793.9429585380253,791.5348745038552
1731106067.0777905,789.8200129097255,796.4668202407249,793.0318522371176,791.2763564978817
1731106067.0813894,784.9534885486056,797.1057112883736,791.3200079920108,791.0183381002894
1731106067.0852976,778.5247926988311,798.0905089607397,789.2739972100476,790.7607057798002
1731106067.0887067,773.8746359490881,798.3772659625903,787.4139582727836,790.502775333579
1731106067.0892055,774.1429490527495,797.5606507996511,786.1418423729516,790.2440497790269
1731106067.0923252,779.8843376758082,796.2020554397076,785.8043360164954,789.98442823779
1731106067.0931137,788.244481475064,795.4684420889007,786.6929411183162,789.7240485387052
1731106067.0966964,794.4998487374987,796.3367598943001,788.8100367262346,789.4630711102283
1731106067.0970218,795.1039297667236,798.9162889170761,791.5978205246608,789.2015728917884
1731106067.10093,790.0601462988717,802.333192949515,793.9918976489483,788.9395543672517
1731106067.1042953,782.7247587438304,805.2389722008469,794.9257454217316,788.6769894665647
1731106067.104838,777.1683457415686,806.6284583113304,793.9997377575392,788.4138612338573
1731106067.108746,775.341415240107,806.4850567448796,791.8240989891539,788.1501694947252
1731106067.1126542,776.4098097171202,805.8582597154468,789.7382906740825,787.8859259052427
1731106067.1156025,778.505393875707,806.2682327478034,789.054328767129,787.6211536230409
1731106067.1165624,780.8694641465474,808.7153520043894,790.323661869383,787.3558924114548
1731106067.1198838,784.2196622975894,812.8742601349165,793.1133180667591,787.090192795188
1731106067.1204703,789.1804299807667,817.0578719181577,796.4041625858512,786.8240827264239
1731106067.1243784,794.6382263726027,819.1298234435897,799.2788552245736,786.5575172491396
1731106067.1270647,797.9130862505756,817.8869934929749,801.3964711676161,786.2903650987199
1731106067.1282866,796.7850561648098,813.9835658969865,802.9775893322111,786.0225040391231
1731106067.1321945,791.5816582727574,809.6631605092061,804.4318524351828,785.7540318508267
1731106067.134508,785.4230105576968,807.3802992204442,805.9901384847216,785.4854392654973
1731106067.1354723,782.296327372664,808.2364130526241,807.5996490360197,785.2174421133657
1731106067.136103,784.3985623102684,811.3346912179105,809.0704179961253,784.950264114345
1731106067.1400108,790.7024339308447,814.4956274086359,810.282290603848,784.6826841478382
1731106067.1439188,797.7171415277828,815.7826396346123,811.2599224147901,784.4119207748936
1731106067.147827,801.8272404550227,814.7354067919422,812.044673156732,784.1356327855846
1731106067.1510613,801.582849210355,812.4977833106526,812.4724074706265,783.8559348823613
1731106067.1517353,798.4798534890214,810.8795078571724,812.104733761393,783.5822648221196
1731106067.1534142,795.8322982738217,811.1115574330263,810.4883234604828,783.3274128214217
1731106067.155643,796.5264402782066,813.1358332669486,807.599256959132,783.0934220344596
1731106067.1595511,801.0881985111561,815.7771993750586,804.0584260086721,782.8544425672835
1731106067.161804,807.3097063075446,817.547485215722,800.8421309419028,782.5574918736007
1731106067.1634593,811.7356534566497,817.5248864588671,798.6989664317185,782.1639820692905
1731106067.1666496,812.0471633477796,815.813459414449,797.8009837975171,781.7263785799211
1731106067.1673672,808.6197148001653,813.3769505061942,797.9158433694721,781.4371658077074
1731106067.1712754,804.0193391593333,811.3951545723867,798.8345826596262,781.548389339805
1731106067.17232,800.8081662221788,810.5608183643187,800.5525837476289,782.1260818954012
1731106067.1751835,799.5062032945576,810.7665323628885,803.0420145136447,782.8018843104594
1731106067.1790917,798.4925192165523,811.3556181210146,805.9531838200533,782.826153381687
1731106067.182238,795.9048744220746,811.6866338855128,808.6477032322039,781.5372898831178
1731106067.1829996,791.7330311848697,811.5268723851165,810.5498943625855,778.9318358735151
1731106067.1869078,788.0935275418168,810.9789831500124,811.4329303515524,775.8279456893729
1731106067.190816,787.3822282602451,810.1141903191821,811.3617328988687,773.4142251870185
1731106067.191226,790.0165347470758,808.7863675784927,810.4236309535543,772.4917328489909
1731106067.1947238,793.8908759029853,806.899016899846,808.5935463117956,772.9975506211033
1731106067.1965437,796.1150228947836,804.858949265258,805.8928061151623,774.2069402890277
1731106067.1978269,795.5398975504744,803.6422559406238,802.658006905565,775.4618205019582
1731106067.198632,793.8411928589965,804.2078634173213,799.6005002698095,776.7834681669194
1731106067.2025402,794.1446353642638,806.6687753404867,797.5235404849691,778.7589380641233
1731106067.206448,798.3035392542187,809.9830909696603,796.88777950912,781.732155385166
1731106067.210132,805.1715077064403,812.543810859037,797.5759170269666,785.0659449866426
1731106067.2103562,811.4254258504626,813.2503271853016,799.0455018850838,787.3071503551748
1731106067.2134154,814.2674593982528,812.1896766241874,800.7174608433694,787.2716296877807
1731106067.2142644,813.6254333707495,810.3835388773325,802.2583006811392,785.1007421949773
1731106067.2181723,811.9060787222318,808.8734340155321,803.5652876139187,782.2495396750751
1731106067.2220805,811.6025147869951,807.9750680685975,804.5916818373596,780.3413058682656
1731106067.2259886,813.0122283964628,807.3219162303482,805.2988286955164,779.9222368818771
1731106067.229004,814.1397107997819,806.5390007740821,805.827740643407,780.2553713291187
1731106067.229038,812.7793433650949,805.7909458799983,806.6569227236115,780.2902503690657
1731106067.2298963,808.8125703365916,805.6237965661808,808.4354741368152,779.8364974959661
1731106067.2312827,804.6523475502402,806.2890015515768,811.4867094875717,779.8310314406415
1731106067.2338047,803.4455532435986,807.3037059491865,815.3763311602837,781.5019161274327
1731106067.2377129,806.5283622425283,807.768243795214,818.9910515520888,785.2584632622717
1731106067.241621,812.1866867075987,807.1710622449582,821.1689207730238,790.2944190709923
1731106067.2445924,816.6931537603705,805.8928791976607,821.428545271561,795.1260267836785
1731106067.2455287,816.831304066961,804.9091249260457,820.2327525816258,798.45861936137
1731106067.247944,812.0339796548496,804.9657306194408,818.5916405863592,799.6825578849312
1731106067.249437,804.6028247632217,805.975307525642,817.3231302356464,798.8587537728332
1731106067.2533453,797.9286365819992,807.1264881069061,816.5319062136036,796.5416741260087
1731106067.2572532,794.1148486472194,807.5390582160949,815.6890099346316,793.7270016785982
1731106067.2601812,792.8042172840691,806.8738225339503,814.2450328616113,791.8081027211326
1731106067.261161,791.9917400165701,805.4380568101591,812.2949651637695,792.2086588081918
1731106067.2650695,789.9924254022269,803.8056731339829,810.7311483145755,795.6093950515161
1731106067.2660222,786.8852197552715,802.3514467833834,810.6849057739838,801.2067031073191
1731106067.2668498,784.3492619388148,801.0945664885096,812.6377243263703,806.7147615828992
1731106067.2689774,784.207567685033,799.9102870559484,815.9016522428911,809.4382513800707
1731106067.2728856,786.9463332416865,798.8157715361756,818.906037213103,807.8496026585875
1731106067.2757697,791.3215091623333,797.995088007322,820.0786919508416,802.4788024241738
1731106067.2767937,795.2351521545255,797.5442189162504,818.6563974326434,795.326512117217
1731106067.2807016,797.1602950546685,797.2669143525361,814.909724858546,788.2873263900553
1731106067.2846098,797.0893704037437,796.8368915778457,809.8263347511704,782.0397852960261
1731106067.285756,796.3776581798767,796.2323532370418,804.6762359149808,776.437349280608
1731106067.288518,796.6497677476764,795.9800520495767,800.7447420549704,771.8987783920983
1731106067.2913582,798.5986095389313,796.8628069278367,799.1303080543813,770.1737270135775
1731106067.292426,801.5493530163244,799.2722804258717,800.3859827523751,773.3736031129698
1731106067.296334,804.0398715939696,802.7757815421257,804.0868041861851,781.9064144597085
1731106067.3002422,804.8940360865495,806.290821227539,808.7417474365571,793.2454088803146
1731106067.3007617,803.9762756907676,808.7113071932636,812.3670990556203,802.9566325254574
1731106067.3041503,802.1837397970309,809.4783302975096,813.5060534250339,807.4475250008971
1731106067.3046618,800.8370457548974,808.7415836811019,812.0250165537844,806.244138255726
1731106067.3069468,800.9524584862442,807.1514477627805,809.1075470240744,801.8925065103136
1731106067.3080585,802.7888546406045,805.5160286953048,806.4427013636182,797.7177941969052
1731106067.3119664,805.7993761262524,804.4708465602731,805.1716441503996,795.5721217234174
1731106067.3158746,808.9155594251716,804.2125662633784,805.2806500321996,795.3254847181269
1731106067.3197825,810.9886345607964,804.4030357071003,805.7775103071169,795.8726416340803
1731106067.3225355,811.1739155902643,804.3828606248613,805.4618263008398,796.2879177576643
1731106067.3235676,809.1019199384945,803.6462202961765,803.7468218270099,796.2713647048793
1731106067.323691,804.8520040018631,802.2517467759549,800.9988564681819,795.9697090088322
1731106067.3275988,798.9018205640855,800.815896380107,798.2048204045144,795.6268452231639
1731106067.3315067,792.1832867748514,800.0635917347497,796.2484569853153,795.3750247826156
1731106067.335415,786.1360704353822,800.3022264463422,795.3617733576937,795.2155538827085
1731106067.3355012,782.4646979271386,801.2492815165094,795.1770631744508,795.0925402498954
1731106067.338124,782.4335591354418,802.314006384984,795.2977656040176,794.9604033378268
1731106067.339323,785.9626008125844,803.0386028274519,795.8318987134338,794.8064719769148
1731106067.3424735,791.1921591188129,803.3257367240674,797.3334524038186,794.6401416906092
1731106067.343231,795.1385702947485,803.3482548481804,800.1374674533865,794.4744280923704
1731106067.3471391,795.3719970342938,803.3238261204706,803.6992900290741,794.3157762027654
1731106067.3510473,791.6927780727973,803.3682351067843,806.6441436048898,794.1637853757284
1731106067.3537126,786.4360223556612,803.485956380653,807.6275348135451,794.0153682232801
1731106067.3549552,782.9035764097144,803.6323934468239,806.3295623063718,793.8682170718387
1731106067.3588634,782.99194193885,803.7702321386063,803.7261190520145,793.7218067272889
1731106067.3613796,785.9183779525622,803.8887680777127,801.4047416821653,793.5767106770236
1731106067.3627715,789.098448411036,803.9954755796359,800.515498737719,793.4336178474616
1731106067.3666797,790.3702655988512,804.1009888655241,801.1798920642582,793.2928341094993
1731106067.3693013,789.6235787144808,804.2106605061538,802.6731408460976,793.1543060495349
1731106067.3702404,788.5246000292759,804.324229435066,804.0303233028584,793.0178610293639
1731106067.3705876,788.7776374094741,804.4391846530121,804.5418515700173,792.8833970220754
1731106067.3744955,790.5918479188595,804.5536165249885,803.9356401192027,792.7509294984367
1731106067.378404,792.6812513170531,804.6670665929391,802.3961324574649,792.6205265935018
1731106067.3802855,793.6471705747094,804.7799863219378,800.5527169533214,792.492203860896
1731106067.3823118,793.363987211058,804.8929362198496,799.3310455877568,792.3658546106326
1731106067.3848898,793.076151953212,805.0061736292135,799.533663948079,792.241291634649
1731106067.38622,794.161178492956,805.1196646913908,801.3203411787464,792.1184389858275
1731106067.390128,796.750567520055,805.2332706769139,804.0174504129197,791.9975863201921
1731106067.394036,799.5119956165643,805.3468929913743,806.5036701856374,791.8794336428198
1731106067.3979442,800.8094039404222,805.4605112136165,807.9157752636581,791.7645984530353
1731106067.3991916,800.1914318063916,805.5741536488787,808.1246391402344,791.6525944798404
1731106067.4004784,798.8677817675372,805.6878582496005,807.6588390060907,791.5410639157038
1731106067.4018524,798.7429168193064,805.8016503800043,807.2370994973634,791.4267115941894
1731106067.40498,800.8307038634184,805.9155330114443,807.3205545687499,791.3088383755805
1731106067.4057603,804.3788706932178,806.0294800749965,807.94953325277,791.1937849301958
1731106067.4096684,807.4121416421668,806.1434400011971,808.8359224032971,791.0950343772315
1731106067.4135766,808.2317172041852,806.2573695205859,809.5360455445215,791.0230661701855
1731106067.416067,806.6635315778024,806.3713010836864,809.5876379422688,790.9661139148992
1731106067.4174843,804.1032811313892,806.4853953990191,808.6241508888355,790.8777280241417
1731106067.4180975,802.3979484201748,806.5998816134255,806.5358429839786,790.6982346196321
1731106067.421393,802.4915092743153,806.7148198401107,803.6729587462149,790.4238132883545
1731106067.4253008,803.8557716484845,806.8297935835336,800.9339895302938,790.1857987878105
1731106067.429209,805.0295514762156,806.9438859516366,799.507830663464,790.2380424859558
1731106067.4316554,804.7302155918413,807.0563513536937,800.2109528104587,790.7473711673625
1731106067.433117,802.6696254121164,807.1679294487478,802.7567407156648,791.4263296255826
1731106067.4370034,799.5787688097163,807.2817434107149,805.5826697513279,791.3198758625372
1731106067.4370253,796.5992959469822,807.4019250500388,806.633231376996,789.220355822124
1731106067.4397194,794.5756543855036,807.5289494211711,804.7509836904262,784.817966754993
1731106067.4409332,793.6964396862442,807.654094514514,800.6658177599581,779.7190313329307
1731106067.4448411,793.6111296923555,807.7599151099162,796.7055070863886,776.9307684447102
1731106067.4472442,793.8535684034031,807.8340070013616,795.318231035958,778.6378241884335
1731106067.4487493,794.2372987144081,807.8936428634332,797.486791689762,784.1734588454432
1731106067.4526577,794.9032797628545,807.9997655345512,802.2073678120573,790.3070520783748
1731106067.4559095,795.9614495922877,808.2255011020274,807.3107512437772,793.7278268388698
1731106067.4565654,797.0589374460952,808.5634704592885,810.8536270592903,793.4367937107326
1731106067.4604735,797.3689416852114,808.8218774473988,812.021822273068,790.9706460499194
1731106067.4628327,796.1682937261593,808.6345387814868,811.1019385016183,788.5449528613085
1731106067.4643817,793.5895111530018,807.687575828507,808.9084329321772,787.051602381539
1731106067.4682896,790.8603209130122,806.0654099371997,806.3359310754859,785.7038137269761
1731106067.4721978,789.6898178968935,804.4002565563669,804.301621182072,783.3816896638165
1731106067.4744587,791.146424779322,803.5925051534102,803.7680295567095,780.183754016496
1731106067.4748154,794.8208522261019,804.2433367287674,805.4156814000506,777.667662731543
1731106067.476106,798.927425466298,806.2001878832185,809.0087796180218,777.5546187869365
1731106067.4784212,801.3687987881968,808.5383053201139,813.0757263037366,780.0396682579714
1731106067.4800138,801.0845906566866,810.0336763901439,815.5159794084251,783.2222416296373
1731106067.483922,798.7135174185717,809.8899885073198,814.9622235395573,784.3188725500736
1731106067.4878302,796.0244888375256,808.2700902732216,811.8490659172267,781.8614616358444
1731106067.4917383,794.5227867328731,806.2211257829414,808.147860887756,777.132127467877
1731106067.4937212,794.3743698469492,804.9623897103747,805.823813155677,773.5265331015869
1731106067.4940095,794.5788915446609,805.004436046957,805.278437078708,774.1795816349054
1731106067.4956462,794.2177309843739,805.7599033586489,805.1297111544507,779.6795094465962
1731106067.4995544,793.5769938572935,805.9645129741709,803.4997342959605,787.6717366922678
1731106067.5034626,794.0066049148838,804.5973890555416,799.6541422198791,794.5851891165505
1731106067.5073705,796.5438614443209,801.6110599109611,794.6206509368756,798.0106792035691
1731106067.5091982,800.5446050292846,797.9769935398227,790.4207934138359,797.9195387706827
1731106067.5095985,803.6808207261649,795.1055390834501,788.7197479000355,796.0809729786911
1731106067.5112786,803.5257734194253,794.0937146705772,789.9618674018287,794.4919253668216
1731106067.5126271,799.5309664607305,795.2302367353722,793.3910439493046,794.1187026289607
1731106067.5151868,793.7364939350016,797.930590879964,797.6108962976007,794.6536474382178
1731106067.5190947,789.4924484608598,801.0626068695436,801.1883203558799,795.1252791554689
1731106067.5230029,789.0823512410814,803.4974636914694,803.1004703891232,794.7612766938959
1731106067.525187,792.0975549586498,804.6202942423363,803.0375904966719,793.5539652106385
1731106067.526911,795.8627305695474,804.5293406468354,801.5113441422784,792.2616710886377
1731106067.5308187,797.5619185655612,803.8409396689252,799.636683377893,791.9082294444759
1731106067.5315332,796.3446101112756,803.2845540430585,798.5960413608201,793.1140198778503
1731106067.534727,793.7656752726783,803.370289186161,799.0549561723843,795.692398092012
1731106067.5386353,792.3334972714663,804.2710505027374,800.885282266346,798.792032582069
1731106067.5407755,793.4576407816538,805.8651881227644,803.3412734029612,801.5008902961971
1731106067.5425432,796.449634305325,807.8239600404512,805.5092056672414,803.4632236527715
1731106067.5439377,799.2536700476314,809.6999109200739,806.7091861510027,805.0002366989889
1731106067.546451,800.178438966036,811.0445798971242,806.6688706265727,806.6069873681473
1731106067.5503595,799.1931708844127,811.5644433295001,805.5238339445114,808.2569269345879
1731106067.5504391,797.8022495485915,811.2423532547771,803.770366292493,809.1648542582626
1731106067.5542676,797.6904779150982,810.3179312904898,802.1687223945194,808.2874866409716
1731106067.556364,799.3006481684937,809.1102332423818,801.4871866585988,805.1924788533661
1731106067.5581756,801.5086151027609,807.8191347901943,802.0891817487824,800.5805851067805
1731106067.5620835,802.6026217898138,806.4928855829584,803.6121419133815,795.9888697652351
1731106067.565992,801.6753823533533,805.2053548227783,805.0642209386048,792.8213545245115
1731106067.569345,799.2599600911165,804.261231166071,805.3988891115613,791.3810361150618
1731106067.5698998,796.7808627292832,804.1689043491981,804.211204544266,790.6414142329584
1731106067.5719528,795.4016122865632,805.2991565005896,802.0288633868204,789.0086285626172
1731106067.573808,795.2254272649568,807.453986331805,799.9450423725513,785.562638981384
1731106067.577716,795.3649310665204,809.736065009629,798.8547890286387,780.8080199726702
1731106067.5786772,794.691793261748,810.949335976698,798.886808331639,776.3049743873033
1731106067.581624,792.6929826070287,810.347109582471,799.485239069448,773.5209927432575
1731106067.5855322,789.9187307884214,808.2002984796012,800.0781687997992,772.9567290263803
1731106067.587541,787.7994015630619,805.7158356136965,800.7656164398906,774.2821062976947
1731106067.588251,787.9389516715671,804.3050767143579,802.3856553642842,777.1366058337969
1731106067.5894403,791.2626000468332,804.7100914792867,805.7895807447486,781.546545675903
1731106067.5933485,797.4934027611808,806.6057473919477,810.852631711374,787.3879270143202
1731106067.5972564,805.2501357543424,808.9165228998413,816.0919669347899,793.4994609859633
1731106067.6011646,812.6680177190782,810.5523451920286,819.3869956496488,797.6448928272117
1731106067.60313,818.1281085182649,811.0162196452658,819.4117774846715,797.8141342872551
1731106067.6050725,820.695874529591,810.5229920189275,816.7073755347154,793.9639583127564
1731106067.607157,820.1761327652904,809.6738595259452,813.4754111662392,788.603089485834
1731106067.608981,816.9893344252147,809.0116330681639,812.1241155579455,785.3973630666072
1731106067.6128888,812.0916031928253,808.767004483276,813.6049089538808,786.6261848956658
1731106067.6134164,806.9085153620423,808.8789078622914,816.7982093591688,791.4292052795344
1731106067.616797,803.0222800488407,809.146449503946,819.4176630516084,796.3190226566901
1731106067.6187184,801.4650552451602,809.3215630255497,819.7150083280982,797.6928405899944
1731106067.620705,801.9373390695986,809.0953340969953,817.647199918942,794.4535532746506
1731106067.624613,802.6612431299271,808.1060475494377,814.6332177014755,788.7135682151602
1731106067.6260629,801.3570449293529,806.105337245585,812.2064770505597,784.0739004897587
1731106067.6285212,796.9489639303857,803.2289452927499,810.7702001500435,782.9151695132454
1731106067.6324291,790.7513713100917,800.124820504402,809.5043934779457,784.8641990477561
1731106067.6343071,785.9684143603778,797.7274357243344,807.3928479726497,787.5007691681182
1731106067.6363373,785.5620419881969,796.7493314715952,804.3285234379746,788.4634428403889
1731106067.6402454,789.9937289976568,797.2421209010206,801.2561334241046,787.1119732573517
1731106067.6441534,796.6779878856347,798.5820587414614,799.2878105494316,784.5710400045161
1731106067.644969,801.7104755986026,799.9250487642028,798.7002148174755,782.4865032461947
1731106067.6480615,802.54980633692,800.8021427131004,798.7591359534578,781.7364200585781
1731106067.648156,799.5243284053315,801.4046208901934,798.4610719599768,782.0481551142823
1731106067.6498957,795.0923427418861,802.3488217439242,797.4237785848168,782.5401748706931
1731106067.6519697,791.7538807686911,804.1248687302221,796.0986378376182,782.5342172755575
1731106067.6558776,790.4983735900529,806.6764626799016,795.1876388188336,781.9772891054548
1731106067.6597855,790.7983271745685,809.4213201904298,794.9016915592736,781.2795496832466
1731106067.663694,791.5971620499422,811.6318523952983,794.7975859329582,780.8635921074863
1731106067.6638749,792.1769023280507,812.8212667361335,794.3222089758854,780.8601218658919
1731106067.6654842,792.3813474492322,812.8642496591096,793.481193385953,781.1299293843667
1731106067.6676018,792.382834273378,811.8862724404461,792.9306582350207,781.4645344798944
1731106067.67151,792.3838086013461,810.1368494758098,793.3747037928534,781.740170344441
1731106067.675418,792.4720494480971,807.967885855828,794.8438515841809,781.941797600104
1731106067.6793263,792.6308389621422,805.8421920517741,796.5372996787792,782.1088701671048
1731106067.6810727,792.8088705957537,804.2419343212266,797.3567060852241,782.2790742538713
1731106067.6827807,792.9719886603908,803.4664303239756,796.6339846073355,782.4656083150121
1731106067.6828954,793.1147364962198,803.4483372323263,794.4671890327892,782.6628348966503
