timestamps,eeg_1,eeg_2,eeg_3,eeg_4
1731014653.6346793,807.5792777181686,807.4476125890785,806.0440969057574,801.7626690214532
1731014653.647001,806.4220290654097,807.6555207257264,806.7627247949928,801.5713648894842
1731014653.6536698,806.0126090719555,807.7099945586815,807.2642514408662,800.9236071312032
1731014653.6573591,806.7430172460695,807.4502654177966,807.2212824486082,799.8530425443536
1731014653.6612823,808.4074584798591,806.8437837835704,806.3173696251869,798.9296529075264
1731014653.6626668,810.2172660196045,806.1547608872922,804.531011039026,798.774948920023
1731014653.6652057,811.1735554054296,805.8890730133744,802.27438393947,799.4230016565382
1731014653.669129,810.6805111637136,806.4469457432772,800.1886250933661,800.1015025758452
1731014653.6701782,809.0581522720552,807.7622082357409,798.7464189541723,799.7326252885238
1731014653.6726604,807.6074096393262,809.3014481504965,798.0202208537776,797.87415798723
1731014653.673052,808.1279748198465,810.484699723261,797.8059686222534,795.3803305242085
1731014653.6769753,812.0882464745061,811.1681258621298,797.9203201623753,794.1438100341923
1731014653.6783323,819.8003691535023,811.7316878129975,798.3228144534362,795.9096453263147
1731014653.6808984,829.9688376986367,812.6627870996398,798.9505964582934,800.9172905169509
1731014653.6848216,839.9298163422758,814.0109863507847,799.5327881758222,807.4143097806572
1731014653.6887448,846.6873723216686,815.2505928016819,799.7166674835197,812.5541607632358
1731014653.6916509,848.3741170350047,815.73354702858,799.4625541947134,814.1547500309871
1731014653.692668,845.2797087972115,815.3303217828546,799.2588552010154,812.0725989203738
1731014653.693998,839.6636750038886,814.6095371139127,799.7941862394853,808.1802212977657
1731014653.6965911,834.3905205238156,814.3168565774237,801.297518396068,804.9826387177612
1731014653.7005143,831.3721508193495,814.6413584234421,803.2061987902335,803.9342849868472
1731014653.7044375,830.9445380307559,815.0409978805915,804.5778602425576,804.6891020307629
1731014653.7056437,832.422431173383,814.8570923394361,804.9064333176216,805.7193754731559
1731014653.708361,835.0149174476867,814.0999885008443,804.5443012776586,805.6674670691469
1731014653.709664,838.1261697858472,813.5606956917977,804.3097270532702,804.3343858964648
1731014653.7106414,840.9435008011624,814.0838580164123,804.6878469235422,802.65648518731
1731014653.712284,842.1344108236592,815.7136180013587,805.4235051428072,801.8849158134311
1731014653.7162073,840.3908301598217,817.5652070037248,805.8602354093194,802.7108626800698
1731014653.7201304,835.5335067270657,818.545809271374,805.6173482055661,804.9312292337377
1731014653.7240536,829.0514774329605,818.2220427650483,804.9264700642557,807.6946368769396
1731014653.7253294,823.294359816924,817.0392053091135,804.3851482852186,809.9601091297603
1731014653.7279768,819.8135199709352,815.7711468297342,804.4785792523461,810.8534135791691
1731014653.729632,818.2645443559701,814.7931767210462,805.3338497704398,809.9123706716858
1731014653.7319,816.8384477878636,813.8514979864623,806.7856754297877,807.315720392226
1731014653.7358234,813.7876515995512,812.4693539743052,808.4847988695786,803.9707832867388
1731014653.7397466,808.6778826013614,810.5454161163685,809.8720921817844,801.1906455241154
1731014653.7409952,802.4405300840416,808.5725384599018,810.1861466034609,799.9857884770688
1731014653.7411091,796.5427284814289,807.2853547244137,808.7736319889536,800.4767658447728
1731014653.7436695,792.2665076211275,807.065118244723,805.6438094184084,801.9768197120557
1731014653.7475927,790.592143197912,807.6371111029428,801.8048999400453,803.7053424135702
1731014653.7486224,792.2657292813021,808.3207398204552,798.9395467976684,805.4448539514257
1731014653.751516,797.4272947035637,808.5905277389534,798.4936545224436,807.4729314646918
1731014653.7554393,804.9009390709207,808.4375600139962,800.7983188731973,809.8415086838597
1731014653.7566607,812.0252933220028,808.2306816429164,804.8810783283848,811.8048640347577
1731014653.7593625,815.7418678535914,808.2584607771962,809.0997330833513,812.1267060597438
1731014653.763286,814.5241406499991,808.4192673787928,812.1178647236031,810.125950997946
1731014653.7672093,809.6657962736148,808.3454294029227,813.5413585211244,806.4992933026807
1731014653.7676127,804.6204806451515,807.7968193488701,813.8522636020452,803.0467647971815
1731014653.7711322,802.5824174522991,806.9068112283204,813.8071998427085,801.3962150804941
1731014653.7723265,804.0692130109811,806.0537999462676,813.8099106247254,801.7577714733719
1731014653.7750554,806.4436505128506,805.5323551608295,813.7104533477783,802.752450811508
1731014653.7765746,805.8293582605182,805.3741222679193,813.1154119877149,802.4558431899799
1731014653.7789786,799.9769190226249,805.4615823604265,811.9083724883367,799.8138830436775
1731014653.7829018,789.9259862610239,805.7455512438264,810.5475105761159,795.3529544906162
1731014653.7866032,779.3235310304447,806.278440726962,809.884941236041,790.7313426781556
1731014653.7868247,772.0697997275338,806.9971371969738,810.5921801572026,787.575681914834
1731014653.7879922,770.0779575126849,807.493160320667,812.5657966364519,786.5055410685696
1731014653.790748,772.5948202149981,807.0806297193847,814.7600680573746,786.9922753081977
1731014653.7946715,777.2306862379096,805.2226732887467,815.67252909214,788.0111280142814
1731014653.7985947,781.7041630193779,802.0247032503295,814.2710233187858,788.8917246662437
1731014653.802518,785.0768692987997,798.3837428371882,810.7665192797521,789.7349351978073
1731014653.803658,787.8728370436479,795.62124010509,806.6293631426648,791.1788308625803
1731014653.8055935,791.329817850086,794.8110147876437,803.7168107051568,793.7793724191946
1731014653.8064413,796.4864365649385,796.2198903997744,803.0421971868069,797.4816014064727
1731014653.8103642,803.6584154292177,799.1809133097963,804.0675023467728,801.5250852601744
1731014653.81204,812.3794534467748,802.445178887912,805.1040330140695,804.812402542534
1731014653.8142874,821.5532956579018,804.8042723863422,804.6022822587908,806.4954974331305
1731014653.8182106,829.6240276722806,805.6589552034726,802.3927843087163,806.4467486935379
1731014653.8193235,834.8416419043256,805.2587270777328,799.9102612595835,805.3719488448179
1731014653.822134,835.7972753520086,804.5100654762595,799.1766700821645,804.4879540757929
1731014653.8245842,832.1462799906761,804.457099400238,801.2707590195619,804.8706802284602
1731014653.8260572,825.0566923565765,805.6882712285252,805.4219618784603,806.7796929709302
1731014653.8299804,816.8703233787462,807.968156853186,809.4183483857171,809.3898329290821
1731014653.8339036,809.9609692444006,810.3083716499348,811.0548478773867,811.2032531317527
1731014653.8349893,805.4672750380078,811.4747192955801,809.5842706306007,810.9458017347706
1731014653.8378267,802.7907725722093,810.670330902365,806.1348424659681,808.3263821557138
1731014653.84175,800.1982306285755,808.0091691459729,802.8285230628629,804.1101652404707
1731014653.8435748,796.0324460979941,804.5054752951488,801.2925972000033,799.5280741711406
1731014653.845673,789.6633181578632,801.5778765756617,801.6662105570107,795.5789848861214
1731014653.8475056,781.6394032668596,800.3273669489773,802.761387224022,792.7674944039283
1731014653.8495965,773.1367273634773,800.9698762643967,803.1239991452985,791.3242418960349
1731014653.8506548,765.2302296012168,802.7440441016836,802.0952292703004,791.5009157863269
1731014653.8535197,758.5068456715603,804.3756647693671,800.0885291354053,793.5230858457471
1731014653.8574429,753.1837297301532,804.8388542432469,798.0191266493935,797.1706550384284
1731014653.861366,749.4709710762775,803.9177421465755,796.5095766177716,801.385653640489
1731014653.8625653,747.7562687629148,802.1753436763072,795.5754794177292,804.4274262032867
1731014653.8652892,748.4218978965371,800.3780415941587,794.9621138203938,804.7408209789029
1731014653.8663206,751.4933224217666,798.8643357467486,794.6848108736266,802.0435146177928
1731014653.8692124,756.4671558792941,797.3805061431414,795.1848679274138,797.7212651917686
1731014653.8731356,762.4601992536867,795.4826141431131,796.9360823943546,793.9949293173387
1731014653.8770587,768.5400550107719,793.1113200530538,799.8910346715315,792.370030680711
1731014653.880982,774.0311081198905,790.8338423074641,803.3145681517412,792.6518322566058
1731014653.8815558,778.6971747360627,789.5823660556581,806.1885470538615,793.4104782023595
1731014653.8819864,782.7679479417934,790.1395171905091,807.8582973994382,793.4576732336554
1731014653.882971,786.7640560823414,792.7429022802248,808.4065884568195,792.9433435439197
1731014653.884905,791.1335698400862,796.9817760520053,808.5055754005076,793.0806614283864
1731014653.8888285,795.8763261852401,801.9306054829285,808.9139111209025,794.8492844779613
1731014653.8927517,800.4201156172877,806.4194637080018,809.995899293451,797.957225916797
1731014653.8966749,803.8681000452426,809.3950934023085,811.5430472573289,800.995015069327
1731014653.897652,805.4557515494266,810.2921111383441,812.9311646803325,802.534660965493
1731014653.9005463,804.9021611452581,809.2264751709229,813.4521150379347,802.1076379118022
1731014653.900598,802.4633932079391,806.8490073945159,812.6151965480116,800.2589455751237
1731014653.9045212,798.764532946737,803.937955703207,810.2905234577145,797.8317265188957
1731014653.9084444,794.6252902749845,801.0442549529104,806.6857942877024,795.3074092002496
1731014653.9123678,790.9748566669288,798.4436885628141,802.24895351173,792.8251613043587
1731014653.9133177,788.7404753377559,796.3275800507046,797.6257841508082,790.7204616837784
1731014653.916291,788.559756972432,794.9354528252662,793.7123708428363,789.8529722569616
1731014653.9184363,790.3695436888448,794.455983577266,791.6423370709689,791.1921398631812
1731014653.9195368,793.1498463109555,794.8324579911276,792.4449659090855,794.9220748866076
1731014653.9202142,795.1082202356115,795.7320122176661,796.3506249893239,799.9506482975498
1731014653.9241374,794.354371028404,796.7485103994837,802.2070788144543,804.4556754721527
1731014653.9280603,789.810951864564,797.6502125951188,807.6791658676772,807.083163678214
1731014653.9289834,781.9205695380239,798.4471989538958,810.4185404425762,807.7066724266106
1731014653.9319837,772.7367810418239,799.2510826110621,809.5103861115002,807.1531907602242
1731014653.935907,765.2421127403817,800.0935989757476,806.0844174729275,806.3737622532851
1731014653.938527,762.1292129714323,800.8716487859662,802.5312094956353,805.8727547797743
1731014653.93983,764.5951828902939,801.4394451111514,800.8613310148113,805.6780328606263
1731014653.9437535,771.7263864469203,801.7456783390659,801.4217567315816,805.6051940243206
1731014653.944649,780.7963247885139,801.9024223531453,802.882078768903,805.4970538347947
1731014653.947677,788.4333489426249,802.1318042819421,803.4176297678176,805.3073909592597
1731014653.9515998,792.2226029621647,802.6108935042612,802.150654177125,805.0668995801337
1731014653.953902,791.9051839807246,803.3120419101383,799.7973747938096,804.8202651028993
1731014653.955523,789.2817458394617,803.9822695694456,798.12437469094,804.5903009053264
1731014653.957518,786.765001846993,804.34403883098,798.684472826951,804.3761757275487
1731014653.9594462,785.7725496470624,804.4135014746626,801.7297924319646,804.1674180775317
1731014653.9603148,786.2579427139528,804.659498743026,805.972703121434,803.955956918201
1731014653.9633694,787.3974186575399,805.7724063548253,809.2854617768652,803.7397966269839
1731014653.9672923,788.4662688357706,808.1147866423806,809.9199338171481,803.5208004949221
1731014653.9712155,789.2086760935329,811.2457144307077,807.582661469881,803.3013270610076
1731014653.9751391,789.7215953167954,813.9327413476543,803.7374355989025,803.0824751570034
1731014653.9759803,790.1902365666913,814.7345447235646,800.8584730309459,802.864116983805
1731014653.9765084,790.7211163921078,812.8216433645447,800.9732971539778,802.6456790479426
1731014653.9790623,791.3200850420947,808.5167376207285,804.3827629404569,802.4267565618827
1731014653.9829855,791.9459822433628,803.188543413231,809.4491230359857,802.2072723434163
1731014653.986909,792.5631392540513,798.5272762338624,813.6520828225296,801.9873406723517
1731014653.9893675,793.1605362702327,795.6470169358927,815.185117448606,801.7670895005622
1731014653.990832,793.7446431461275,794.6094134864493,813.9558609967723,801.546575975897
1731014653.991646,794.325417226706,794.6660089880766,811.3380059624022,801.3257948515018
1731014653.994755,794.9081071633527,794.9607851569051,808.9991017507427,801.1047212585287
1731014653.995499,795.4926726113773,795.1000657786956,807.7723547384446,800.8833409625881
1731014653.9986782,796.0768396684857,795.188327818029,807.3584832747471,800.6616559969227
1731014654.0026016,796.6588104453185,795.4437920750761,806.8916388865154,800.4396768618228
1731014654.0065248,797.238132410131,795.851776755975,805.7738466405298,800.2174158641473
1731014654.0073118,797.8152349094588,796.196419321716,804.1392662285158,799.9948873704562
1731014654.010448,798.3906814400736,796.3941698878353,802.7362765501464,799.77211036222
1731014654.0143712,798.9647619558637,796.7532610211845,802.4520392107885,799.549104162866
1731014654.0144894,799.5374789144515,797.8712318388798,803.8354563297802,799.3258734374738
1731014654.0182943,800.1087094463784,800.2373568476219,806.8430533983546,799.1023928324204
1731014654.0222175,800.6783550587381,803.8632533082949,810.8534195813512,798.8786158051653
1731014654.0229776,801.2464213095473,808.200363184909,814.8947864544546,798.6545278683365
1731014654.024833,801.8130409955079,812.3465898857501,817.9908537117116,798.4302253845468
1731014654.0261407,802.3784351784622,815.3751856806937,819.5027655927033,798.2059385370142
1731014654.030064,802.9427735512658,816.6340378924214,819.3312055747509,797.9818906080598
1731014654.0334797,803.5059490740896,815.9413921692383,817.8842366065843,797.757980956528
1731014654.0339873,804.0674422856041,813.6391897817413,815.8319936654593,797.5335188309934
1731014654.0379105,804.6265839076028,810.48578954835,813.7960283158288,797.3074625397743
1731014654.0386431,805.1833727332646,807.4165527309307,812.1489220388338,797.0794867037973
1731014654.0418336,805.739408022847,805.2398188593343,810.9937875365766,796.8514245693058
1731014654.0457568,806.2977377053036,804.3476231798508,810.2554755823279,796.6274861439387
1731014654.04968,806.8604037053959,804.5471670702669,809.7768432209501,796.4113109924388
1731014654.0524702,807.4241949157474,805.1474743781779,809.3830761487194,796.1999407162862
1731014654.0536032,807.978402237756,805.3508466833999,808.9436865622354,795.97938601699
1731014654.054309,808.5104951293933,804.767392835461,808.4402031276592,795.7303442981101
1731014654.0575264,809.0219778700471,803.6900151353174,807.9799991790519,795.4492106146935
1731014654.0602984,809.5448842173847,802.8812417198245,807.6962072751594,795.1740930950538
1731014654.0614498,810.1357932334599,802.9985222315025,807.5798246718972,794.9845529065292
1731014654.0653727,810.8262892017746,804.087215142709,807.4000801227872,794.9402836208059
1731014654.069296,811.5442348690931,805.5145813199945,806.837164134381,794.965925349965
1731014654.069975,812.0819906266232,806.3681632451992,805.7664264019239,794.7750911208515
1731014654.0714607,812.2213014194082,806.0203483829911,804.4640825743345,793.9871018025257
1731014654.0732193,812.0449650254523,804.5035514042107,803.5328404040322,792.494796220841
1731014654.0771425,812.2417836415431,802.5116365923914,803.5657006460609,790.8503862905313
1731014654.0810657,813.9888836672644,801.0622125209359,804.7818181873769,790.2241010547358
1731014654.0849888,818.1335118288632,801.0003381695218,806.8888657444859,791.7431310666839
1731014654.0856402,824.11351996532,802.5798787512854,809.2463454850988,795.6050313469069
1731014654.088912,829.7259946738634,805.3319559949306,811.1921583432168,800.672627002526
1731014654.0904512,832.3593217199043,808.3090648937138,812.3162733983829,804.9773967378651
1731014654.0928354,830.8276797478811,810.5876320383268,812.5408564011386,806.9017785412725
1731014654.095764,826.1948792550478,811.7229425797027,812.0068646154065,806.2295815786531
1731014654.0967586,820.874245660059,811.8609597120571,810.8919942360119,804.2273955495435
1731014654.1006818,816.8483184074003,811.4800955473837,809.3348635821873,802.626705095532
1731014654.101306,814.5370606729866,811.0236304235169,807.5421383075628,802.3197097278992
1731014654.104605,813.1150759661031,810.699131905579,805.926730692821,802.8704637718918
1731014654.108528,811.7038501124639,810.5033371740178,805.005767518048,803.1983363851183
1731014654.1094418,810.1636251159439,810.3509631662014,805.0302032695458,802.6831867163268
1731014654.1124513,808.7994539554536,810.1768942595464,805.7233209276269,801.5899914344493
1731014654.1163745,807.502918248955,809.9660647035139,806.4802524286007,800.4814062761675
1731014654.1169715,805.4240491434248,809.734562261535,806.842076160364,799.3554294831091
1731014654.1202977,801.6550706294089,809.5018883171433,806.7502827258694,797.4888403241763
1731014654.124221,796.2821941729193,809.2768522065535,806.4189658261593,794.1863110387625
1731014654.1281445,790.702981856157,809.0581728946335,806.0755369482753,789.7050228104972
1731014654.1284325,786.7901712421141,808.8410371237635,805.8207621847183,785.4689456661226
1731014654.1312294,785.6135173711315,808.6221235989749,805.6411701933971,783.3403067184379
1731014654.1320674,786.8781329109364,808.4008297189893,805.4836307119706,784.4761963632475
1731014654.1326373,789.5674433008528,808.1780998998588,805.3114966785275,788.564035691631
1731014654.1359906,793.1301805443362,807.9549551231114,805.1182107320409,793.9516811282249
1731014654.1399138,797.989859923267,807.7318127808466,804.9142792951413,798.6159524029247
1731014654.143837,804.729921919359,807.5085712392384,804.7109878840165,801.3165567657289
1731014654.1474228,812.5900448581177,807.2849705683388,804.5129069968008,802.0923263314493
1731014654.1477602,818.7902167752245,807.0608470662128,804.318864207637,801.8240752047142
1731014654.148303,819.7515753870803,806.8361832906048,804.1259495819297,801.4152842126095
1731014654.1516836,813.6519614208456,806.6110381570733,803.9323227705485,801.3010291524478
1731014654.1556067,802.2953076134537,806.3854672585686,803.7377512515637,801.4712918468703
1731014654.15953,790.4923225338476,806.1594870028732,803.5428370106166,801.7401410182251
1731014654.163453,783.1383153564564,805.9330811133933,803.3481625153576,801.9651894896857
1731014654.1639686,782.2073674989679,805.7062274820607,803.1539355360914,802.1127121192395
1731014654.1664133,785.9883118393805,805.478926001177,802.9600705598199,802.217088555714
1731014654.1666949,790.9190821635651,805.2512118601828,802.7664076788715,802.3206050025997
1731014654.1673765,794.2202645464063,805.023137882263,802.5728545126267,802.4425703857844
1731014654.1712997,795.1708703791959,804.7947182016568,802.379406110776,802.5803761547162
1731014654.1752226,794.4454486160075,804.5658605301528,802.1860978359422,802.7236390596472
1731014654.1791458,792.7453967155135,804.3363643388712,801.992955480529,802.8651352825545
1731014654.1796343,790.2639184112021,804.1060716428842,801.7999739729569,803.0035249868935
1731014654.1830692,787.2444657224796,803.8751534725736,801.6071269823487,803.1408464044706
1731014654.1854038,784.5726063752127,803.6442969175964,801.4143969730738,803.279327874545
1731014654.1869924,783.4159723766458,803.4143900870566,801.2218075927611,803.4198988597768
1731014654.1909156,784.1815578285589,803.1854972794567,801.0294292617809,803.5623614150164
1731014654.1948388,785.9888881896501,802.9556724110014,800.8373269127982,803.7061675147194
1731014654.1953,787.4082038877797,802.721120848908,800.6454528841065,803.8509701881819
1731014654.198762,787.8786546716274,802.4792632803543,800.4535655184357,803.9967329979801
1731014654.2021604,788.4164517419395,802.2340984192697,800.2613223450217,804.1435832430188
1731014654.202685,790.801639900354,801.9991216948512,800.0686421389651,804.2916505494923
1731014654.2043943,795.8785115214807,801.7903252295852,799.87616625053,804.4410025953102
1731014654.2066083,802.5326265599117,801.6063288890933,799.6852810765582,804.591658642074
1731014654.2105317,808.3600009664689,801.4075512556831,799.4970874919866,804.7436143949378
1731014654.2109656,811.4642837808622,801.1237230702462,799.3104186758053,804.8968401469537
1731014654.214455,811.7329363992342,800.7173321999811,799.1205254650451,805.0512703048751
1731014654.218378,810.4710383756855,800.2877776244852,798.9212261238463,805.2068362779368
1731014654.2223012,808.8894569658006,800.1274768050531,798.7119925336357,805.3635693680932
1731014654.2233849,806.9845497716465,800.6112394006892,798.5062247683794,805.5217098511089
1731014654.2262244,803.8030526399202,801.9112977577277,798.3302765690419,805.6816588892433
1731014654.2266314,798.6582854523643,803.7437563139671,798.2024245341715,805.8436272657231
1731014654.2301476,792.049792393949,805.428121481391,798.0958876725649,806.0070889988175
1731014654.2340708,785.4962458804793,806.3079407068051,797.9189274391164,806.1705781400748
1731014654.2376258,780.5702819540913,806.2210714828718,797.5649363237588,806.3325818565594
1731014654.237994,778.0540993832141,805.607504678521,797.0566100827093,806.493686514697
1731014654.2419174,777.8402002007298,805.1540200688876,796.7119359708978,806.6585186317841
1731014654.2422972,779.3804769068294,805.3092071915822,797.1553938165995,806.8343861038262
1731014654.2423754,781.9927188209751,806.0986686593882,799.0263306842028,807.0242166743512
1731014654.2458403,784.6925568230622,807.3195097456877,802.4768808553797,807.2164918524151
1731014654.2497635,786.0276850357033,808.7983528834551,806.8375856867739,807.3828170509254
1731014654.253687,784.6284046366499,810.4061395867765,810.8310349338395,807.4967692997518
1731014654.25761,780.3934231181853,811.8901315770629,813.3139198679173,807.5747853564984
1731014654.2579627,775.2239779913127,812.8352084048378,814.0354493508463,807.7086923357497
1731014654.261366,772.269742560596,812.8915698481402,813.7932619196592,808.0309005096377
1731014654.2615333,773.9316073864404,812.0386395059035,813.8091717580779,808.5716723730044
1731014654.2654564,780.1393058937789,810.57543893641,814.7870770919632,809.0670717032776
1731014654.2693796,788.3570073686103,808.8491892909914,816.394510949574,808.913758430648
1731014654.2730913,795.3438241664329,807.0499192221737,817.5690597636159,807.4770191454705
1731014654.273303,799.204707370118,805.2985610551349,817.3757566734043,804.6715698250676
1731014654.2736285,800.1308367235351,803.858426681207,815.7097268850748,801.3209163228357
1731014654.2772262,799.5669024202738,803.1124156645338,813.3075477530844,798.8053456598974
1731014654.2803562,798.890294864673,803.2248993812653,811.1296364337439,798.1336026699157
1731014654.2811494,798.7072690805584,803.8295108998458,809.6749132427692,799.20039782278
1731014654.2850726,798.9523256814173,804.1473155501294,808.7757175984834,800.896544223789
1731014654.2889955,799.3246805533744,803.5399042585589,807.94881931092,801.9837623263392
1731014654.2892942,799.6144381579389,802.0443818612038,806.8969287416718,801.9648269682878
1731014654.2929187,799.7832532885826,800.4006887773152,805.6956489100113,801.2110829503798
1731014654.296842,799.8909188983033,799.5238361094118,804.58253491417,800.3237104061338
1731014654.2993467,800.0022018321033,799.8670799334103,803.6847637859831,799.4267611582975
1731014654.3007655,800.1435964286356,801.1859397390842,803.049616385125,798.1162974612448
1731014654.3046887,800.3086193828906,802.8124900357967,802.9477530779263,796.0922234903003
1731014654.3049598,800.480681084457,804.1183456272898,804.0185681541601,793.7825914298604
1731014654.3085568,800.6492277155519,804.7919780713261,806.8843902390837,792.2605643299007
1731014654.308612,800.8129070190339,804.838020206291,811.4044479295502,792.454557246644
1731014654.312535,800.9751791084226,804.4565703704187,816.2572681759409,794.3640885014601
1731014654.3164582,801.1394226395516,803.948888317424,819.4346668681034,797.0323058970953
1731014654.3183372,801.306881941186,803.635572627304,819.4717072048201,799.3509307753632
1731014654.3203814,801.4771180685792,803.7085235868878,816.5020053896093,800.9899427142684
1731014654.3206255,801.6492544899863,804.0487787656276,812.2600827543888,802.5702766030624
1731014654.3243046,801.822786150524,804.1853809210639,808.9784561406505,804.8514622082181
1731014654.3282278,801.9976951334041,803.547415870926,808.0096915917576,807.6653478740981
1731014654.3321512,802.1741952172426,801.927823598186,809.1729612287675,809.6962360260975
1731014654.3360744,802.3524754960531,799.8202825285981,811.1834737195894,809.5155565712473
1731014654.3362913,802.5326036750834,798.2837514125308,812.67090902149,807.0464150822845
1731014654.3373277,802.7145605975109,798.319397669918,812.949974874953,804.0373205887282
1731014654.3399975,802.8983139256768,800.170680665858,812.0886480446381,802.8819041416252
1731014654.3439207,803.0838656293932,803.0929925492767,810.4903627171815,804.6542578061621
1731014654.3440225,803.2712541192861,805.8135067926187,808.5247756167637,808.0870535370618
1731014654.347844,803.4605202327467,807.3540036750054,806.4878651192365,810.4828619244936
1731014654.3517673,803.6516605221722,807.5883536038552,804.7187989118115,809.8267374024273
1731014654.3519568,803.8446054136615,807.1285667426148,803.5662092754072,806.2830548925434
1731014654.3556902,804.0392666669245,806.6922515733534,803.1772411160318,801.8483970735559
1731014654.3563182,804.2356665114038,806.5130023437714,803.3891511721608,798.6015534333686
1731014654.3596134,804.4340692965815,806.2708990172864,803.9385152517907,797.151155125771
1731014654.3635368,804.6349323170033,805.5370110730861,804.8246973016967,796.5435936074794
1731014654.36746,804.8385111122018,804.2720618671486,806.4116947894502,795.5214571661155
1731014654.3676226,805.0442356006228,802.901960128995,809.0496414241769,793.8977607246326
1731014654.3713832,805.2504591227048,801.941752492532,812.4886525321223,792.8162165896457
1731014654.3753064,805.4554387935008,801.5927737035562,815.6522228182275,793.680154983101
1731014654.3753088,805.659754858307,801.6874642172129,817.0988430644646,796.6925527302918
1731014654.3792295,805.8685608751158,801.925430002502,815.9027907454827,800.3329465651839
1731014654.3794878,806.0901691499726,802.1037779258281,812.2782975090779,802.3597171201025
1731014654.3831527,806.3281654801848,802.1775417871044,807.456697330489,801.6149160327722
1731014654.3832884,806.5699291166185,802.1942404143075,802.944797970376,799.1271403041989
1731014654.387076,806.7834676523707,802.2103227034803,799.7694119729019,797.5040976679253
1731014654.3909993,806.9381668368436,802.2504415261667,798.2284887018335,799.0244563271368
1731014654.3942993,807.0509197597876,802.3100654834685,798.1592272615566,803.94386812612
1731014654.3949225,807.2239501060416,802.3749180140758,799.3096916004888,810.330090168315
1731014654.3988457,807.6074228308612,802.4354483779571,801.4290266221941,815.44298487669
1731014654.398954,808.2386382281536,802.4901074712997,804.0792274762658,817.4764336499397
1731014654.4027689,808.8192892182419,802.5417590523143,806.5101245667178,816.3889008521827
1731014654.406692,808.6460674295766,802.5933809186546,807.8978847788743,813.4642521795508
1731014654.4106152,806.917848687225,802.6461463937791,807.8620621044245,810.2191012374941
1731014654.4132898,803.3142737785805,802.6997275791005,806.8232654355438,807.5434573022422
1731014654.4145384,798.3118175935527,802.7533640461172,805.8185629463356,805.5484794580125
1731014654.4146197,792.8353537203377,802.8065925539738,805.8433999584763,804.0088207723362
1731014654.4149532,787.6096923935876,802.859374681555,807.2122913998805,802.9326073145643
1731014654.4184616,782.9818554743406,802.911885589518,809.4145749828009,802.7719684946006
1731014654.422385,779.356020340483,802.9642894933337,811.516322906629,804.0579669812055
1731014654.4263082,777.518748799396,803.0166511840232,812.738780840821,806.6938595469903
1731014654.430231,778.21071784001,803.0689631762751,812.7818633400398,809.5093968170439
1731014654.4302857,781.2606859432912,803.1212056675871,811.7458275391771,810.6256251435835
1731014654.4322803,785.2708697180435,803.1733789288877,809.8464367677012,808.6053308055625
1731014654.4341545,788.4067633557892,803.2254955485305,807.2404572369189,803.6456800251023
1731014654.4380777,789.7285044505065,803.2775549566383,804.1105084510879,797.8402509105156
1731014654.4420009,789.8716150379772,803.3295350483286,800.8665436030066,794.1191621751581
1731014654.445924,790.4107962437005,803.3814252133177,798.1754747618976,794.4882836740244
1731014654.445951,792.4358084363128,803.4332900316275,796.6782246585642,798.7879464576515
1731014654.4498472,795.5923081522833,803.4853020392884,796.569106196046,804.8247597293756
1731014654.4504187,798.4060136329896,803.5376546891638,797.4001927336238,809.6998744932259
1731014654.4512708,799.5366312428943,803.5903270912044,798.3444409412086,811.3563086968021
1731014654.4537706,798.8125598100073,803.6428491964042,798.7914761721066,809.4069705975585
1731014654.4576938,797.2071874958987,803.6944102901023,798.840965892617,804.979522523302
1731014654.4616168,795.9733467720142,803.7446078112501,799.2671985530687,799.9486629233857
1731014654.461617,795.8753757908876,803.794596396291,800.9078920714463,796.0910460686574
1731014654.4655402,797.159801265578,803.8474971845021,803.9230326690623,794.4937904163368
1731014654.469463,800.005824265096,803.9064910006947,807.5416477190751,795.306544337593
1731014654.470261,804.7250469337356,803.9702948235155,810.542495533504,797.8159781260839
1731014654.4733863,811.3930898543596,804.0291254052416,812.0856795993529,800.7779097014648
1731014654.4772823,819.3219029856642,804.0676610177712,812.2090252764984,802.8843783317689
1731014654.4773097,826.9930813704764,804.0799700361563,811.6150136443702,803.2006761680419
1731014654.4812331,832.6277320846837,804.0905513981068,810.9944896278987,801.4330337247619
1731014654.4851563,835.0057566312304,804.1589228231209,810.4877239436238,797.9590848001706
1731014654.4858842,833.9772869867816,804.3389999974274,809.6936001065005,793.6294574670635
1731014654.4890797,830.3724581165505,804.5915381897106,808.135265067686,789.4330248302572
1731014654.489252,825.4302584199626,804.7121711941313,805.7411377440772,786.1911983510153
1731014654.492948,820.1446751833363,804.3927062207756,802.9667316547126,784.423189352195
1731014654.493003,814.9240499665524,803.4798330723055,800.5323132899395,784.3784259529366
1731014654.4969258,809.7042235452907,802.2818850403642,799.0379099443695,786.0997431207654
1731014654.500849,804.332548885869,801.5832056731354,798.7234880705644,789.410978172809
1731014654.5047722,798.8920667351384,802.1817166619834,799.4452110033898,793.8622216901842
1731014654.5082424,793.7601482640422,804.2363995374201,800.7721685596069,798.7272823621645
1731014654.5086138,789.4344415674121,806.9859912698912,802.1057229876089,803.0843404101795
1731014654.5086954,786.2807032808238,809.1310790360249,802.8175041669555,805.9665676029764
1731014654.5126188,784.333058358424,809.6222824856296,802.4434509557638,806.6111013248399
1731014654.516542,783.2428790206227,808.2857847571686,800.9023603280514,804.811288393502
1731014654.5204651,782.4587073772705,805.8797270005302,798.6044575536298,801.1862773619431
1731014654.5213497,781.6129077411548,803.6179796705115,796.3049000771244,797.0390983764514
1731014654.5242794,780.8834071561555,802.5313511213556,794.7027678602356,793.6895072723248
1731014654.5243883,780.9994774868206,803.0324474397344,794.0132689868811,791.6644303843628
1731014654.5272326,782.7643096274998,804.8185702536626,793.8503125039878,790.3980578443633
1731014654.5283115,786.3840730270891,807.058223430477,793.5797185408372,788.7505831553566
1731014654.532235,791.1597445976757,808.7745664927062,792.9139784443582,785.9513417689288
1731014654.5361578,795.8903978034011,809.3367190812863,792.2548115989321,782.2024197143459
1731014654.5399451,799.7336157817888,808.8639041103919,792.4511580965387,778.5224858334351
1731014654.5400813,802.789782134861,808.2349546530965,794.1369151942985,776.0880967982164
1731014654.5440044,805.8317900226508,808.5267867995121,797.1901926705526,775.6432921117478
1731014654.5462232,809.3385475797961,810.1420575215603,800.7521315348514,777.2855040768536
1731014654.5479276,812.6706818628273,812.2909978407132,803.7664129652137,780.5275915647441
1731014654.5518508,814.2083504394792,813.3849809069404,805.5951418980567,784.4414060912203
1731014654.555611,812.5115303428013,812.2052110632097,806.2656535571114,787.874616627057
1731014654.555774,807.6667640957705,808.9783411979962,806.2548739845455,789.8396913839177
1731014654.5568151,801.6961221922998,805.429596739816,806.0794088970248,790.006071681409
1731014654.5596972,797.5030063678716,803.6454423843028,806.023444147158,788.9576597308981
1731014654.5636203,796.9051515792783,804.5593948276154,806.1210574994803,787.855452924943
1731014654.5652137,799.0832289246002,807.2419864360278,806.2864281654087,787.5442005564103
1731014654.5675435,800.688826539811,809.5861867136183,806.438718836425,787.727911595288
1731014654.5712764,797.8930035825134,809.8706770796695,806.5506883431874,787.0526759587243
1731014654.5714667,789.3116002483576,807.9479733134914,806.6354639308071,784.3635180575592
1731014654.57539,777.8271223380042,805.1177913542836,806.7154261894856,780.3127818680473
1731014654.5793133,769.6466609648471,802.9285842764518,806.8029863964281,777.8343168024289
1731014654.5832365,770.660742215556,802.0786314436396,806.8985316494419,780.5931757029417
1731014654.5842042,782.2818330810957,802.2752082321772,806.9970477625887,790.1581147869227
1731014654.5869422,799.7284055714698,802.8331645446445,807.0943386386131,804.0057472008385
1731014654.5871596,814.2798349697474,803.2632515723237,807.189187673193,816.2257052464331
1731014654.5910828,818.2758628735345,803.445473980795,807.2824249235325,820.8878587974692
1731014654.5922806,809.6276656466073,803.4868181974349,807.37524731367,815.8659852480927
1731014654.595006,792.8696457829863,803.5228059468769,807.4682674063272,804.3069213391993
1731014654.5989292,776.1571483099283,803.6158400558655,807.5614696916999,792.5767225542414
1731014654.602608,766.3945478149259,803.757676586023,807.6545842531348,786.1956226740783
1731014654.6028526,765.8136165734003,803.9147851379407,807.7474063417848,786.758053729929
1731014654.6031947,771.9937353777808,804.0636959001205,807.8398930090317,791.8614890895572
1731014654.6067758,780.6494372429509,804.1999226449703,807.9321035218576,797.5777525592451
1731014654.6106987,788.6716137437595,804.3299415641062,808.0241098507316,801.21649260717
1731014654.614622,795.2438529070887,804.4608953818257,808.1159502116955,802.4170191641132
1731014654.6182735,800.802583951767,804.5957517844486,808.2076301298326,802.3417760699565
1731014654.6185453,805.3594527202863,804.7338310478304,808.2991432514503,802.2062387798462
1731014654.6221852,807.8832186965703,804.8733116644172,808.3904876296388,802.4542907584848
1731014654.6224685,807.189331453155,805.0130204814401,808.4816698807733,802.903457412751
1731014654.6263916,803.3734281040685,805.1527966978497,808.5727015257146,803.2856823797441
1731014654.627746,798.3890097728372,805.293015429679,808.663594251246,803.5440342762861
1731014654.6303153,795.0916186015885,805.4340478681163,808.7543576519569,803.7818573896142
1731014654.6339393,795.3094531431918,805.5760317638538,808.8449994199683,804.1609520254245
1731014654.6342382,798.3799594563205,805.7189188921499,808.9355264374589,804.9336695026666
1731014654.6381614,801.4647719947354,805.8626116402974,809.0259455717736,806.4628070955487
1731014654.6411755,801.7208134436727,806.0070516197662,809.1162638996616,809.0180246549771
1731014654.6420846,798.7991483468226,806.152231174456,809.2064886413453,812.4173105798606
1731014654.6460078,795.5263707792852,806.2981646579342,809.2966270531841,815.8507875786014
1731014654.649605,795.8745502644467,806.4448631561521,809.3866862161298,818.1576062655156
1731014654.649931,801.6630261465717,806.5923314851267,809.4766725162433,818.4696757111994
1731014654.653854,810.7453157965475,806.7405795181166,809.5665909249589,816.7959094398732
1731014654.6577773,818.3018846846991,806.8896263625973,809.6564448192485,814.0832558046917
1731014654.6601665,820.2158699608647,807.0394804930812,809.7462373817954,811.6381052514265
1731014654.6617007,815.8149097777763,807.1901020835082,809.8359747025223,810.3115310556071
1731014654.6632116,807.9783342458315,807.341386720767,809.9256683457662,810.0879353573846
1731014654.6652706,800.8403243981456,807.4932250384924,810.0153329239268,810.3572904897208
1731014654.665624,797.0132668738975,807.6456508620531,810.1049755545555,810.5154960872799
1731014654.669547,796.2564968299852,807.7989777052903,810.1945817435401,810.3316012579594
1731014654.6734705,796.2379865053998,807.953708586498,810.284113470254,809.901687803157
1731014654.6773934,794.6097426758329,808.110049597485,810.3735384462121,809.4146585831242
1731014654.6791568,790.8889145580875,808.2672092486373,810.4628893694149,808.9852881577588
1731014654.6809363,786.8648482967776,808.4232183806726,810.5523068285927,808.6260894322294
1731014654.6813166,785.2414037859688,808.5762231065465,810.6419817999971,808.2982423824784
1731014654.6852398,787.4466044315866,808.7273251700547,810.7319481370968,807.9652742847392
1731014654.6891632,792.2508193657014,808.8828932183858,810.821827723658,807.6145734537449
1731014654.6930864,796.4154692827086,809.0522829140239,810.9108359696825,807.2516969678283
1731014654.696602,797.1274944826698,809.2381888817158,810.99838501406,806.8865615860216
1731014654.6970096,794.4553305206518,809.4238767670947,811.0852006228145,806.524780818616
1731014654.6981473,791.7684271940968,809.5717083555317,811.174010515198,806.1666289701187
1731014654.6986773,793.4495645604098,809.6500563399266,811.2682347326495,805.8099314374176
1731014654.7009327,801.3825049885658,809.6870563351988,811.3679306843787,805.4528368391921
1731014654.704856,812.9237847667523,809.8083917941169,811.4652432425966,805.0948062029461
1731014654.708779,822.208699080968,810.1821851039525,811.5453096929409,804.7362176257559
1731014654.7122676,824.1315814237215,810.8253625425309,811.5985160638403,804.3776228662587
1731014654.7127025,818.0934548545498,811.3614764124442,811.6412719872081,804.0193191164396
1731014654.7166257,808.5661509029214,810.9938230652638,811.726176565182,803.661324314515
1731014654.7171378,801.9111652655739,808.9452548235155,811.9120244756461,803.30354160094
1731014654.7205489,801.8431362577651,805.2148779084729,812.1818289360315,802.9459016424336
1731014654.724472,806.9819514281489,800.9898372829922,812.352453269371,802.588404623422
1731014654.7279334,812.2057368466918,798.1358534897822,812.0757213965458,802.2310908869407
1731014654.7283952,812.5100668104748,798.0026597408346,811.0020837926878,801.8739999185136
1731014654.7323184,806.3453251090646,800.4582723644562,809.028494830502,801.5171558104281
1731014654.7341423,796.2086532080939,803.8841841058281,806.4264138745799,801.1605826096732
1731014654.7361283,786.5793618189404,806.0995963837743,803.7407603818076,800.8043269128968
1731014654.7362416,781.0291917980268,805.5724674842533,801.5806667301847,800.4484550118103
1731014654.7401648,780.402848697624,802.2047274690115,800.4721117198808,800.0930045311462
1731014654.7435992,782.8580303160423,797.3309965522544,800.7573791652483,799.7379122445383
1731014654.744088,785.3878442227265,793.0184998567092,802.4278558160551,799.3829967451752
1731014654.748011,785.8058370350119,791.0643914582593,804.9545535072123,799.0280931735902
1731014654.7519343,784.0543833655948,792.1787829457373,807.3723221393226,798.6733429455718
1731014654.7551188,782.0654411941201,795.7229708599119,808.7293823973946,798.3194208907252
1731014654.7558577,782.2674043892943,800.0932704036801,808.6227751846901,797.9672862013035
1731014654.7592647,785.795275032655,803.5210179927305,807.3706860192606,797.6171881199479
1731014654.759781,791.715073645522,804.8628662752976,805.6775481113932,797.2673838285203
1731014654.763704,797.7449492292785,803.9918280182668,804.1183394538562,796.9140509520632
1731014654.7676272,801.7496195008858,801.6456807577559,802.8924264076337,796.5541069674688
1731014654.769608,802.8333463065928,798.9009972576947,801.9644243186738,796.1906943602381
1731014654.7715504,801.4522448130094,796.6296032263905,801.3165180883012,795.8368983878075
1731014654.7741094,798.8241387013746,795.2394515418962,801.0029240979434,795.5099622853737
1731014654.7749305,796.2151461252096,794.7541024346847,801.0012841145654,795.2118464231634
1731014654.7754736,794.4478436864795,795.0497079420295,801.113167017527,794.9064084281194
1731014654.779397,793.7211006658337,796.0288067314744,801.0947054153643,794.5222985541412
1731014654.7833202,793.7401297472813,797.646737115807,800.911432382537,794.0127150451098
1731014654.7872434,794.0455447791622,799.8360274966212,800.8438452079247,793.4643997576862
1731014654.790596,794.3100052859952,802.3865148868701,801.296747085916,793.1744968145678
1731014654.7911663,794.4337372446778,804.8219732340577,802.441338186784,793.577061572638
1731014654.7930996,794.4661211930537,806.376483167431,803.9740749926542,794.9966546288603
1731014654.7950895,794.4862219148832,806.2253683672867,805.1941831866778,797.390186293437
1731014654.799013,794.5353049731183,803.9839821768306,805.3817274982586,800.2992786021705
1731014654.802936,794.6122343489519,800.1910119161475,804.2647029396878,803.0705060052469
1731014654.8050735,794.6982437568695,796.3407915888396,802.2931807674113,805.1664689631082
1731014654.8062618,794.778683321776,794.2533986316923,800.5161855457177,806.3160393969847
1731014654.8068593,794.8498221749784,795.0582031325904,800.0646228129717,806.4287965257148
1731014654.810783,794.9149590314618,798.4395678736639,801.4968875862781,805.4723446989753
1731014654.8120902,794.9783613946623,802.7208043337005,804.4054045090463,803.5639765580263
1731014654.8147058,795.0420565265642,805.8211840785868,807.5747584882898,801.2366722284803
1731014654.818629,795.1058526961897,806.4709899748212,809.6449203889973,799.50125294272
1731014654.8219275,795.1687354301146,804.8433818612958,809.8802231669484,799.3865825730946
1731014654.8225522,795.2299822360452,802.207953392571,808.5472070493264,801.1687093313409
1731014654.8264754,795.2894596121114,799.979297569502,806.6651174918004,803.9858320089577
1731014654.8303986,795.3473827755197,798.9373867563778,805.330110701382,806.3456608072353
1731014654.831081,795.4039945569932,799.0968019346994,805.0922841757929,807.1981229019635
1731014654.8343215,795.4594106389237,800.0674579951193,805.776491714916,806.6158198106534
1731014654.8375933,795.5136338840416,801.4287444671534,806.7747334342733,805.4554042850051
1731014654.838245,795.5666329962017,802.8482555214323,807.4978549936819,804.3842061065415
1731014654.840539,795.6183987283329,804.051823323988,807.6221855781475,803.278943492036
1731014654.8421683,795.6689521066047,804.8593392079864,807.0326971394304,801.5831182552362
1731014654.8460915,795.7183230800274,805.3098561628394,805.6951628275785,799.2114842074217
1731014654.8500147,795.7665301184552,805.7102536303187,803.7342048653032,797.0426467601985
1731014654.8500712,795.8135824152592,806.4836214515017,801.6653916067099,796.4539375448472
1731014654.8532588,795.8595073649196,807.8944325832118,800.3889867208543,798.2735900115608
1731014654.853938,795.9043814503784,809.8534750662803,800.6731255625091,802.0680348459133
1731014654.857861,795.948322071902,811.9433681701314,802.4257070101722,806.3795749271259
1731014654.8617842,795.9914053214176,813.6485900835429,804.4691664032404,809.6987860937362
1731014654.8657074,796.0335358510629,814.6548918164783,805.2226214541787,811.3513171128897
1731014654.8689246,796.0743962226104,815.0356164999392,803.8532029802091,811.6143230072034
1731014654.8690617,796.1136541150033,815.1712076530611,800.9305275243929,811.0926921102863
1731014654.8696308,796.1514668984074,815.3996699818048,798.0004705222688,810.0137642281001
1731014654.873554,796.1889437466009,815.6355178154151,796.4436543947465,808.0928533386599
1731014654.8760045,796.227837100565,815.3071060083759,796.5760565359418,805.036863471029
1731014654.8774772,796.268889963637,813.7527253700324,797.6597559360225,801.1550418412564
1731014654.8814003,796.3094587132916,810.809695695841,798.679486463683,797.4663142221622
1731014654.88459,796.3429062174322,807.1138569978298,799.1751181840484,795.1630173756088
1731014654.8853235,796.3629960574497,803.8335342521583,799.5039449342562,794.8543744937734
1731014654.8880522,796.3735349359745,802.0130006666445,800.4253187971733,796.1791419145611
1731014654.8892467,796.3962107576708,801.9976133401478,802.3853716125242,798.0628295374229
1731014654.89317,796.4628472081987,803.3237154656157,805.036263865855,799.4190086358262
1731014654.8970933,796.5826884754772,805.0856439937631,807.3328068299718,799.8098507403112
1731014654.900256,796.6992294515577,806.4588820603534,808.1574292346522,799.6253118144633
1731014654.9010165,796.6857271784606,807.0262413148129,807.0643352305692,799.6679476111908
1731014654.9049397,796.4379947367619,806.8001310128291,804.6414730620837,800.4665792711638
1731014654.9070427,796.060983317005,806.0758546269661,802.244057179668,801.8720730773641
1731014654.9088628,796.0095654511398,805.2642725436322,801.2735950076036,803.2523556686051
1731014654.91147,796.9403606231155,804.7214655318245,802.450631419421,804.0555954623237
1731014654.912786,799.1751409626739,804.5580589746718,805.4861713415684,804.19352396858
1731014654.9159217,802.1418473091865,804.5242896052077,809.2801778028556,803.9549887992142
1731014654.9167092,804.4717362318443,804.131105010087,812.4799434655115,803.6842306879741
1731014654.9206324,804.9390223020605,803.0135032953203,814.0787930113923,803.6346760700886
1731014654.9245555,803.4792368202151,801.2801949473857,813.7697650610975,804.0693664576434
1731014654.9260333,801.2989684084638,799.5259139964469,811.9374553044752,805.292025244785
1731014654.928479,799.9354046629671,798.4521624412014,809.3646206752333,807.3645444194423
1731014654.9315872,800.1110655935937,798.4100752604409,806.8422880012056,809.7247187874087
1731014654.932402,801.3746672041528,799.2498658720542,804.8709361794579,811.204311531429
1731014654.9363253,802.7176786090291,800.5485465253334,803.5645285877733,810.6681379109996
1731014654.9402485,803.442533101207,801.9390044125423,802.7600112839764,807.8780481281049
1731014654.9441717,803.5009613139084,803.247295252039,802.2253257419189,803.8612611104561
1731014654.9450238,803.2348645456806,804.4177880886394,801.8153759766845,800.4028377688021
1731014654.9469354,802.976504978128,805.4114642449665,801.5015909808087,799.0006781177426
1731014654.947253,802.8582006118114,806.1947260809224,801.3319242114155,800.0560995450201
1731014654.9480948,802.8475014054353,806.7529353090601,801.4172486118589,802.8437860626766
1731014654.952018,802.862674272208,807.0345845310952,801.9439439856409,806.1535894198023
1731014654.9559412,802.8522938651611,806.8872279465469,803.1172140511244,809.0133167434255
1731014654.9598646,802.8102417984771,806.1460934917311,804.9924080420643,810.9715739108624
1731014654.9629188,802.7537553410759,804.8881733382585,807.3103712468584,811.9053288136258
1731014654.9637878,802.6993697302457,803.6037119796711,809.5223764334077,811.7234376860303
1731014654.9640143,802.6530066197824,803.0082388351449,811.0568430292615,810.3069296177831
1731014654.967711,802.612342266532,803.5462257885848,811.6572684737113,807.678009316087
1731014654.971634,802.5729761670567,805.0079150610007,811.5307312263545,804.1352670951138
1731014654.975557,802.5323794824213,806.6599854911808,811.1816656574814,800.1646303802718
1731014654.9785843,802.4904222185912,807.8354455512597,811.0434700770093,796.1920640714774
1731014654.9794805,802.4481005221534,808.4734140782515,811.1640578098637,792.4067643343384
1731014654.982401,802.4062856730634,809.1095005511773,811.1637080132193,788.8258713452224
1731014654.9830048,802.3652642748027,810.305684438008,810.5156950029626,785.5645932745934
1731014654.9834037,802.3249059913871,812.0259022318087,808.9966399312341,783.0837131681393
1731014654.9873269,802.2849960586265,813.5298563505786,807.0072372484934,782.1622080081931
1731014654.9912505,802.2454301753529,813.903040569069,805.4874401822511,783.5293022896824
1731014654.99425,802.2062275432521,812.7709424041639,805.4029796874644,787.363230320927
1731014654.9951737,802.167457439091,810.5800888557026,807.1170533760597,793.0033270881521
1731014654.9990966,802.1291763547908,808.2238102714266,810.0810791627376,799.0960803435999
1731014655.001995,802.0914127857644,806.376624302547,813.0461675142665,804.0938029717648
1731014655.0030198,802.0541848587845,805.1247624727852,814.6327066651028,806.7974983690692
1731014655.006943,802.0175174948472,804.1473857445316,813.9224754670649,806.6684034895972
1731014655.0099158,801.9814353268818,803.1727589364181,810.8190105146692,803.8592395798047
1731014655.0108662,801.9459329672026,802.2376420715801,806.0817790473495,799.0929950064275
1731014655.014789,801.9109539183557,801.5623597236539,801.0577917515213,793.4971680280635
1731014655.0178664,801.876424751214,801.2644291164796,797.2306874402833,788.3799743007644
1731014655.0187128,801.8423640166972,801.2472084448777,795.7708326367338,784.8998643198591
1731014655.0209858,801.8090014199137,801.3639891566722,797.2179071428517,783.683489708618
1731014655.022636,801.7767451665916,801.6633913015821,801.2934922140862,784.5735105838041
1731014655.0255814,801.7458438391882,802.4478243440742,806.8210370648983,786.6929371334822
1731014655.026559,801.7158304127752,804.0497865427502,811.8958393053642,788.8562579641302
1731014655.0304823,801.6852685650268,806.4768549593396,814.5270439284021,790.1289305501134
1731014655.0344057,801.6525712575675,809.203382831087,813.6538484880831,790.2059234380325
1731014655.0383286,801.6181237723131,811.3133134452904,809.9048330084729,789.3857008726975
1731014655.039976,801.5863550390535,811.9750648599527,805.3736766303163,788.221646435825
1731014655.0412471,801.5646772979933,810.9879856852245,802.3637522117207,787.1871441223035
1731014655.0422518,801.5566807118687,809.0255131021316,801.9648936054228,786.6281690325147
1731014655.046175,801.5518531989107,807.3223571447016,803.5428630348187,786.9266867711448
1731014655.0500984,801.5221549415978,806.9140564881598,805.4726316682076,788.524662078826
1731014655.053332,801.4395035441611,807.9323788868138,806.4283927531213,791.5973130774792
1731014655.0540216,801.3164393275941,809.527866861682,806.1863455958201,795.6153512356854
1731014655.056913,801.2414477914693,810.5464664686941,805.4417756044178,799.3131291663478
1731014655.0579448,801.3500197033716,810.4385406469019,804.9961277326993,801.3135485711475
1731014655.0589666,801.6867831690927,809.636873638829,805.0732648200104,801.0319589293302
1731014655.061868,802.0100474193111,809.0929867192995,805.2548920218618,799.1055636042859
1731014655.0657911,801.7324055893738,809.4103344675879,804.9562273070851,796.9227233369721
1731014655.0697143,800.2208733944395,810.3473189673475,803.9888729282848,795.6295333808378
1731014655.0725784,797.4187910055298,811.0788414283128,802.7842360469782,795.4958262736214
1731014655.0736375,794.3168249061905,810.9000102246358,802.155248157902,796.1692465632221
1731014655.077561,792.6843668548356,809.7074848807121,802.7926072846519,797.4398587787526
1731014655.0779572,793.9876466460566,807.8907034507947,804.8219829564661,799.6196116185062
1731014655.081484,798.1948651124,805.86227679128,807.6679751455861,803.088714836
1731014655.0854073,803.4601037249442,803.7584183966469,810.2979691631853,807.5064963861394
1731014655.0882442,807.1071975957854,801.5860451601245,811.7535609548247,811.5983074014691
1731014655.088797,807.2908622056464,799.5797450258763,811.7219012324351,813.8673203224779
1731014655.0893304,804.088819013284,798.2929061231576,810.7845910657187,813.650086145342
1731014655.0932536,799.1806019128327,798.2270335948213,810.0695115684287,811.5884411138735
1731014655.0969477,794.4144439214474,799.3199055715454,810.4298467216488,809.1210014233236
1731014655.0971768,790.4879420204034,800.8296212095421,811.7417389276598,807.4450454708358
1731014655.1011,786.8473933794628,801.8116794358806,812.9454836015741,806.7947622833804
1731014655.1039095,782.8106965386376,801.8056271218904,812.8623497042526,806.5436557436512
1731014655.1050231,778.8003018283746,801.1232184845385,811.0969937445768,805.9243922047126
1731014655.1089466,776.4609167897286,800.5087211650823,808.2386144253129,804.6877863129519
1731014655.1128695,777.4612001469893,800.5303776476411,805.2535823521787,803.1594483901113
1731014655.1159382,782.0106028249991,801.2484116430503,802.7261160476355,801.7372848838954
1731014655.116793,788.420823941756,802.3427012906049,800.6620920554566,800.3726982404733
1731014655.1195755,794.1360214130999,803.4266894136134,798.912457802087,798.5530372767182
1731014655.120716,797.4034422170532,804.2112498407995,797.6406575958994,795.8010760311481
1731014655.1242628,798.2875372371664,804.4795804184716,797.2957949896193,792.2215245918445
1731014655.1246393,798.3696157956318,804.0627578550004,798.1358004710542,788.6160942345089
1731014655.1285625,799.534514423138,802.9188804973962,799.8164440315408,786.1256814497144
1731014655.1324856,802.8025955036256,801.2113622364215,801.4843038843115,785.752050317512
1731014655.1349287,807.9058415192641,799.255769337986,802.3428215869535,788.0613939446934
1731014655.1352413,813.6404010492646,797.3652481425498,802.2610532024179,793.0359370567006
1731014655.1364088,818.5482172124177,795.7373010023631,801.952463162878,799.9227029129627
1731014655.1403322,821.4462778621321,794.461542748647,802.539636891759,807.1905249917749
1731014655.1442554,821.6144914336476,793.5954764803419,804.7434341853439,812.90999039187
1731014655.1481786,818.8060375027594,793.2058036613141,808.2428042547397,815.5912606803794
1731014655.1509068,813.3708953846932,793.331148295858,811.7087816983849,814.9899548608466
1731014655.1521018,806.5040329226993,793.910050186721,813.572073102453,812.2592009765978
1731014655.1539192,800.1780957647412,794.754306027669,813.025769054457,809.2920372188239
1731014655.1560247,796.3344605628339,795.6057831917245,810.5533927839928,807.6941242194664
1731014655.1597283,795.6612771007076,796.2412219550823,807.6133982282706,808.0211132664315
1731014655.159948,797.0387966348865,796.5645087388281,805.7300221655461,809.6667100072799
1731014655.1638713,798.4061953059877,796.6652640831612,805.6328848621863,811.3916320362398
1731014655.1665726,798.4524593675195,796.8453966336674,806.9785849991538,812.1552614915814
1731014655.1677947,797.5674107738436,797.5649831958065,808.7320580238696,811.737337968174
1731014655.171718,797.1046489711204,799.2226644166741,809.8660331384543,810.7372975564722
1731014655.1729095,797.6859702045854,801.7998913643829,809.9171535381817,809.9632993221492
1731014655.1756413,798.2608215298504,804.6206059825965,809.1107920855513,809.709009785403
1731014655.1795642,796.8789965844159,806.5478300501119,808.0597417960657,809.524568610012
1731014655.1822383,792.4433956021395,806.6552054427218,807.2783028537818,808.6721075159721
1731014655.1834874,785.8097397761438,804.9441279500738,806.8310879750703,806.8663335526257
1731014655.1874106,779.2958418901334,802.4948618645698,806.3374801464089,804.654055120133
1731014655.1913338,775.1231965540062,800.8273225447026,805.3333600047871,803.0858188137432
1731014655.1919005,774.1074552061718,800.9139579394612,803.7546358678364,802.9151018872919
1731014655.1951938,775.4770154599779,802.5964602553125,802.17810736395,803.9511987921289
1731014655.1952567,777.675438214223,804.7993685705344,801.5517048090093,805.0928321737226
1731014655.197904,779.3687588755503,806.2702926691805,802.4907310518263,805.0636863965732
1731014655.1991804,779.9964168203569,806.2436538271439,804.6239372700963,803.3328873584478
1731014655.2031035,779.7305198878968,804.6572077915729,806.5861347369992,800.536178228527
1731014655.2070267,779.1272644250902,802.005817724033,806.842509846619,798.07594121166
1731014655.2108908,778.8210459245388,799.1185681999956,804.8234428334341,797.2200253387601
1731014655.21095,779.3980081843719,796.9819279797296,801.4665330196179,798.4012316461718
1731014655.2135696,781.3277786216698,796.4962808996692,798.6491813218666,801.1791410302937
1731014655.2148733,784.7651105294738,798.071058078543,797.8991897565525,804.6987307628469
1731014655.2187965,789.2341123347246,801.2366236970428,799.394594638787,808.110318652624
1731014655.2227194,793.4972618962074,804.6542601763072,802.017608451783,810.6515780639137
1731014655.2266426,795.953276257055,806.7300301773911,804.327942408124,811.5903912312612
1731014655.2292354,795.5291795334876,806.5520875155435,805.5930140582394,810.3796225275515
1731014655.2298813,792.4937296446609,804.5097232274151,806.0822201601328,807.0361059276526
1731014655.230566,788.4719042275641,802.0957155024367,806.5474514320377,802.3685939469152
1731014655.2306592,785.477539667223,800.9701807122383,807.470493588675,797.7121215248508
1731014655.2344892,784.6315637345473,801.9165799694765,808.7239028317349,794.2618501509364
1731014655.2384124,785.6008879506769,804.416812254802,809.823949315437,792.5015458513183
1731014655.2423356,787.2269189834934,807.1281838072707,810.4289858702531,792.1863186948315
1731014655.2449007,788.7530819467844,808.8644085834724,810.590997707406,792.8617273089045
1731014655.2462587,790.5087461205425,809.2981255830574,810.5757782251942,794.4004508126337
1731014655.2488718,793.4337814475352,808.8994427119284,810.5114123278482,797.0095828503033
1731014655.250182,797.9453885356863,808.3485858044452,810.2686091559432,800.688798342137
1731014655.254105,803.2666346636801,808.0391488497271,809.6799967799118,804.7076874332291
1731014655.2580285,807.8589210068171,807.9952982579342,808.8050488613828,807.7025483640838
1731014655.2605667,810.5242453019912,808.0633135950753,807.908674789157,808.4059130374371
1731014655.2619517,811.1449191112467,808.1077702156803,807.1856667590081,806.417627249066
1731014655.2658749,810.469685369716,808.085310574019,806.5766533652694,802.4144003780067
1731014655.2661247,809.3209543552686,808.0191121811756,805.8964332397318,797.7256271899803
1731014655.2678623,808.0705980432812,807.9464329545705,805.1026006854212,793.6853940775795
1731014655.269798,806.7806937512903,807.8872972236999,804.3751117501857,791.1788575239717
1731014655.2737212,805.6004806761134,807.8418140891924,803.935935234812,790.4838454480388
1731014655.2762325,804.754856842882,807.8014715891401,803.8456938649696,791.2853493955333
1731014655.2776444,804.0258404305721,807.7593788776269,803.9867500121817,792.7828507761526
1731014655.2815676,802.3941451162711,807.7136558777185,804.1920000697845,793.9331508318269
1731014655.2854908,798.5840559895753,807.665759346533,804.3587408247008,793.8500566802613
1731014655.2868526,792.3912592523011,807.6176783244399,804.4700274923819,792.2274455563033
1731014655.2894142,785.6363820691114,807.5703959525786,804.5543829278084,789.5490115234279
1731014655.291898,781.5532186822426,807.5238567008068,804.6414071876164,786.9235113676293
1731014655.293337,782.729422861279,807.4776011437272,804.742458998144,785.5945075025014
1731014655.2972603,789.216209354475,807.4312910481165,804.8538911878999,786.3675418948028
1731014655.3011837,798.4727025100303,807.384859200538,804.9678633935765,789.2413366082545
1731014655.3015902,807.1782216426249,807.3384042373178,805.0796245497042,793.4016929764086
1731014655.3051069,813.2854229089487,807.2920414596011,805.1887176091561,797.5438285595319
1731014655.305843,816.7047249982985,807.24582789508,805.2968158599367,800.3631179976222
1731014655.3075638,818.4984797725135,807.199766278157,805.405462253642,801.0252073477104
1731014655.30903,819.7021046875836,807.153840907885,805.515179189181,799.4378912970625
1731014655.3129532,820.7613733272813,807.1080451983727,805.6257234814095,796.1952485663841
1731014655.3168764,821.6339980210155,807.0623881411192,805.7366743456522,792.2172707224104
1731014655.3207998,822.0550203681237,807.0168861656921,805.8477973620998,788.3284693252729
1731014655.3232296,821.6969148567323,806.9715516953323,805.9590848755681,785.0857289850662
1731014655.324723,820.3650067014515,806.926386951083,806.0706317814175,782.9274306832689
1731014655.3248336,818.333959366052,806.8813878911774,806.1825172864073,782.3741578891165
1731014655.3286462,816.5576450570289,806.8365586631479,806.2947621523975,783.953325472423
1731014655.3325694,816.3597756749466,806.7919283509767,806.4073453513179,787.831037038684
1731014655.3364923,818.621940344841,806.7475509344865,806.5202385705228,793.4627698912878
1731014655.3370557,823.0481606172308,806.7034685244486,806.633431345764,799.5762879396221
1731014655.338895,828.1747245585807,806.6596434722915,806.7469385935444,804.5472147937611
1731014655.3404157,832.2299552926714,806.615916473117,806.8607893647969,807.0194482347902
1731014655.343824,834.2039848739229,806.5720854382796,806.974997413182,806.5452610072754
1731014655.344339,834.2508900661146,806.5281503068084,807.089525378879,803.9438636576161
1731014655.3482623,833.0893766779006,806.4845879764805,807.2042767324951,801.0381722218134
1731014655.3521855,830.976592338213,806.4422977092213,807.3191593608028,799.6879096266347
1731014655.3545609,827.2887155857883,806.4018591901888,807.4342237177186,800.6108938264776
1731014655.356109,821.2465259242424,806.3622695209804,807.5497758909837,802.8638481653315
1731014655.3600318,813.2274141775943,806.3203023358788,807.6662696377091,804.4911197905483
1731014655.362815,805.3991708100909,806.2722409973162,807.7838415264744,803.910911621996
1731014655.363955,800.8172380379006,806.2186004667176,807.9016911151539,800.9631025715436
1731014655.3678782,801.3862584444107,806.1688916856518,808.0180011497115,796.8566738712042
1731014655.3702266,806.1655626064884,806.1394155909682,808.1312299523069,793.2301461461738
1731014655.3718014,811.4666592334323,806.137606256011,808.2427176157743,791.2103061665938
1731014655.3725212,812.9640209460824,806.1364840110062,808.358560494711,791.1225781543587
1731014655.3757246,808.4797234530364,806.0590637895601,808.487058991494,792.7433233595139
1731014655.379648,799.4415129606884,805.79575383357,808.6295780530901,795.5622287305592
1731014655.3818052,789.9003981744369,805.2564507882664,808.7693725215412,798.818725909992
1731014655.3835711,783.8201688318643,804.4513930516889,808.8719356267399,801.5909860132824
1731014655.3858922,782.6290811125073,803.6077526203738,808.9116913261423,803.2269195548163
1731014655.3874943,784.6949100519511,803.2563563436645,808.9213015879054,803.8705335759768
1731014655.3914175,786.8158935051158,804.0888679813306,809.0223028161687,804.4603739644357
1731014655.3953407,786.4060034604368,806.4794852557254,809.368974910269,805.9508226834
1731014655.399264,782.8632429844597,809.9594192848134,809.9756532540258,808.3361151539999
1731014655.4007957,777.5190058475445,813.180292232086,810.5353243785083,810.4316766007355
1731014655.401558,772.613650521903,814.5946328257068,810.4744579835672,810.787563584192
1731014655.403187,770.1343797178259,813.4419745719592,809.355883324226,809.0609894377636
1731014655.4071105,771.0621189255501,810.2930958687476,807.3087184316558,806.6418161003431
1731014655.4079866,775.1251426685421,806.7205640069441,804.9914042408419,805.8386694548165
1731014655.4110336,780.9708852010649,804.3481878081687,803.0677560335039,808.1179916471893
1731014655.4149568,786.7005442817955,803.9809074484101,801.7237207757787,812.7759915518013
1731014655.4172237,790.6695739645944,805.3745500988821,800.6664461210147,817.2161580654398
1731014655.41888,792.2487551434255,807.6514546956051,799.5157278243721,818.758651497715
1731014655.4197862,792.1005172319258,809.9103596387769,798.172836183011,816.6046707885197
1731014655.4228032,791.7089966828842,811.5755083610177,796.8798987250569,812.3749865901193
1731014655.4267263,792.3707186844316,812.3873864895278,796.0093717981111,808.806412607135
1731014655.4306495,794.2857154688892,812.257254865628,795.8080980546838,807.7352658245205
1731014655.4328892,796.430041405829,811.2147636002758,796.264614540772,809.019813425954
1731014655.4345727,797.4060415609647,809.4654312684946,797.1158308537734,811.1017374246004
1731014655.438496,796.7108775555611,807.419068403058,797.9382918597286,812.4542339789482
1731014655.4387767,795.4071021726802,805.5800910190598,798.3065411515929,812.5918680662621
1731014655.4424193,795.4959297196389,804.32022912975,798.0215252813426,811.98711001313
1731014655.443452,798.2868055830104,803.6612520334415,797.3173778340988,811.2831410693078
1731014655.4463425,803.0037370155036,803.227800170126,796.8426849559431,810.6236530069398
1731014655.448555,806.9239739265058,802.4614991119338,797.3005977832748,809.593655343509
1731014655.4502656,807.243345973941,801.0140374584196,798.9516459633036,807.6955624057282
1731014655.4541888,803.3264517117253,799.060319883948,801.413872376532,804.9184721921938
1731014655.4577672,797.3954966578367,797.2712894722794,803.9858597756617,801.9180520009443
1731014655.458112,792.8755606877777,796.4212308852648,806.1973156447549,799.6062555944657
1731014655.4620352,791.7283381531314,796.8998493916635,808.0392539220353,798.4440133314899
1731014655.4642203,793.1212999035453,798.4875615721008,809.6813602110788,798.0621810175853
1731014655.4659584,794.5173721312784,800.5452354992628,811.0578094237131,797.6015540862912
1731014655.4698818,793.9556669271508,802.4477508705505,811.8194959066037,796.4878024999751
1731014655.473805,791.3514540895613,803.925968595433,811.6935716160359,794.9318250290677
1731014655.4767578,787.9388783429445,805.090566707796,810.8259036248378,793.7407036960753
1731014655.477728,784.8927347803442,806.1734979573705,809.7287515114392,793.6793560469906
1731014655.4789176,782.6266907664715,807.2168076154335,808.895164511302,794.9142897496187
1731014655.4798863,781.1097084440156,807.9411336640633,808.4530067064807,796.8313125192839
1731014655.4816513,780.3730737730964,807.8817257482569,808.1366535658873,798.2195359188498
1731014655.4855745,780.4708725691859,806.7077949752962,807.5443962852925,797.7775594487341
1731014655.4894977,781.1088125414805,804.5298777113147,806.454169265383,794.88191283973
1731014655.4934208,781.6662175062571,801.9900897266979,804.9927908709757,790.2861823961122
1731014655.495552,781.8209214654084,800.0323501082729,803.5764966555092,786.1588900587134
1731014655.4957483,782.1377471003793,799.430273493793,802.6538741587133,785.125084969674
1731014655.4973445,783.8356083870526,800.3188590426612,802.3816795817348,788.7373792082906
1731014655.5012674,787.7170736432156,802.0238033863113,802.4418309517487,796.399087806351
1731014655.5051906,793.1501698015934,803.352444045425,802.1807333187618,805.5618758302385
1731014655.5091138,798.1114766681891,803.2480140448572,801.0637694508308,813.1141824827284
1731014655.5112176,800.449177110655,801.4567061740594,799.1818710790908,817.0207212028693
1731014655.513037,799.4146908026333,798.7837476197165,797.4215716182598,817.1690371213506
1731014655.5143833,796.14212797863,796.7085377837857,797.0559884347931,815.0368574751166
1731014655.5147388,792.5706020431102,796.5213663858874,798.901300225245,812.6005148137865
1731014655.51696,789.7180561231053,798.5070041961112,802.5863186257546,811.2539297470605
1731014655.520883,786.9461314205171,801.7467394718772,806.5588609769569,811.2908666513032
1731014655.5248065,783.0376157058178,804.7157937053036,808.993841861789,812.0404072015018
1731014655.5268834,778.1121205305259,806.2575168043011,809.0209113208847,812.40303852145
1731014655.52873,774.377818629069,806.2178282875464,807.3120190852395,811.4586480589157
1731014655.532653,774.6859100877291,805.3204359620732,805.5243890122894,808.9190481167706
1731014655.5337293,780.038529983118,804.4978724814704,805.0575322035636,805.301643895187
1731014655.5365765,788.3893894173241,804.2777209359544,806.1570478364315,801.7408379716545
1731014655.5404994,795.9577481812636,804.6449813009051,808.0287535690147,799.4376689761468
1731014655.5425491,799.9397253800795,805.3189038975073,809.698929078993,798.9744228776315
1731014655.5444226,800.28914421982,806.0928981223265,810.7786946537344,799.9382783642026
1731014655.5483458,799.237246852722,806.9833552766395,811.54492324541,801.1965482033753
1731014655.5498486,799.2521032974341,808.1782000802784,812.459452210359,801.6914049557402
1731014655.552269,801.2407442128817,809.8727496403345,813.6741309644666,801.1689993893114
1731014655.5527196,804.2416230713937,812.0432700471798,814.9064908677575,800.2922374532332
1731014655.5561922,806.513358980298,814.246886310579,815.6517584604982,800.1057825590793
1731014655.558215,807.0120368746917,815.6573320298689,815.4848375872145,801.3273836776831
1731014655.5601156,806.2042618092407,815.4885492623874,814.2815782421842,803.971524821678
1731014655.5640388,805.722231648142,813.6065355521336,812.3122334834839,807.426972804373
1731014655.567962,807.141022397133,810.812476492701,810.182025524151,810.7659528919912
1731014655.57171,810.7758857594195,808.4385728549044,808.605366209789,813.0636258270794
1731014655.571885,815.4222175568923,807.4869533008455,808.0956074367047,813.6904770588591
1731014655.5738804,819.2319144101856,807.9836187248555,808.7420312004699,812.574490299558
1731014655.5758083,820.9747195327259,809.0445565043926,810.2007929754254,810.2898237163229
1731014655.5797317,820.6447181404575,809.5387698650242,811.8821206605297,807.8011555667036
1731014655.5836546,819.0118165543754,808.7864135017537,813.2152818489005,805.9308634935849
1731014655.585314,816.6423013515629,806.8157559385423,813.8699982643759,804.8934728986211
1731014655.587578,813.2873719947268,804.140037722942,813.8486775182955,804.2372458940218
1731014655.5895462,808.1558056682832,801.3656436567297,813.4049356711115,803.2303469179134
1731014655.5907006,800.8709501583312,798.9538701919076,812.8277434385559,801.4147976887413
1731014655.5915012,792.3763722884497,797.2141832045186,812.2425691997465,798.97040617859
1731014655.5954244,784.9839301135718,796.3687704270465,811.593552724247,796.6716582228084
1731014655.5993476,781.2483682194371,796.5015576644705,810.803069177081,795.4393340417741
1731014655.6032708,782.2470745335647,797.3940926796743,809.9030198793257,795.7044194982161
1731014655.6052115,786.5431666883615,798.4576562926098,808.9537451456606,796.9705007881985
1731014655.607194,790.8532812583547,798.9576629410075,807.8390810748871,797.9487412182452
1731014655.6096911,792.1518321816179,798.4612644454527,806.2391123544731,797.3142775428443
1731014655.6111171,789.6479442004113,797.1786328216066,803.9386422055439,794.6296764484904
1731014655.6150403,785.0590765187254,795.9061284729897,801.2433625927492,790.7315604048736
1731014655.6189637,781.0424138155314,795.5976182971771,799.0748164071341,787.2103328911891
1731014655.6207795,779.233291544821,796.8630919223593,798.5431997617272,785.3324017281061
1731014655.6208775,779.5530830612279,799.6779740269628,800.2402714363689,785.2327927265814
1731014655.622887,781.1025120483959,803.3852066133153,803.7447558739815,785.989998701379
1731014655.62681,783.423916182666,806.9305984577686,807.7057880486453,786.4664060941479
1731014655.6286817,786.7195974733536,809.2452150440461,810.4979025821932,786.193140097837
1731014655.6307333,790.8719653039013,809.6618780369339,811.0720540868124,785.5911906524763
1731014655.6346564,794.4795660319955,808.1971918772026,809.4733162774086,785.4052393780854
1731014655.6365433,795.2112422574203,805.5489733431691,806.6860436804122,785.8907666714949
1731014655.6385796,791.5093449851431,802.7952157583696,803.9374966073498,786.5018342216296
1731014655.6425028,784.2651145758141,800.9365941998747,802.0002269482887,786.3947789620404
1731014655.6464262,776.8797994054189,800.4895754405755,800.9925512723134,785.3297016604846
1731014655.6476722,773.3669715361572,801.2987381571095,800.6894481684521,784.1480428416423
1731014655.6503494,775.8010464307558,802.6432425553959,800.9101762879095,784.3216644217933
1731014655.6522088,783.0316510157716,803.602352361587,801.5997756437542,786.8610789600776
1731014655.6542726,791.601392511393,803.5367427664702,802.6553768450686,791.4407419605285
1731014655.656245,798.0722790699257,802.4579271540485,803.8266767058146,796.4445254778425
1731014655.6581955,800.9665457933629,801.0515485785609,804.848173616885,799.9067792830365
1731014655.662119,801.0409759192769,800.2674296150981,805.6206314582049,800.6587868681922
1731014655.666042,800.0819885855501,800.6817636861897,806.203603730011,798.9133399244299
1731014655.6666627,799.4804887918863,802.0745066287222,806.6477584575715,796.0139736939836
1731014655.6678746,799.6424500948581,803.573461747064,806.899239488715,793.6603905006081
1731014655.6699653,800.2821568428247,804.2741639983287,806.8794704562542,793.136319187561
1731014655.6738884,800.9837308422597,803.824397060843,806.5823041914426,794.8711388955038
1731014655.677812,801.531515706572,802.5006190058726,806.0102671831198,798.3778396992286
1731014655.681735,801.929480729727,800.8009840002084,805.0247709909693,802.4873774440036
1731014655.6835403,802.2731449408027,799.0361294507103,803.3648924352735,805.8027178351488
1731014655.6856532,802.6375877718419,797.3324562883088,800.9380588291291,807.2516867000693
1731014655.6856582,803.0421701874907,795.9519713551956,798.1623800426947,806.5090124616614
1731014655.6895814,803.4702131445933,795.4511455875794,796.0063345839649,804.0500295462128
1731014655.6917105,803.8999834201488,796.3840297797736,795.5737527526596,800.8025870572834
1731014655.6935046,804.321172531472,798.8001307628963,797.4414698177357,797.6486709075265
1731014655.6974275,804.7348416600232,802.0701075891882,801.1880730332338,795.1221758201978
1731014655.699206,805.1462935757608,805.2579596448925,805.4851758504317,793.4443832453281
1731014655.7013507,805.5593579790102,807.6990888292654,808.7742950720988,792.7333726718339
1731014655.7046435,805.9748549482509,809.2652656687304,810.122828260129,793.1158402740126
1731014655.705274,806.3918143585739,810.164624386222,809.6615725889263,794.6301382394138
1731014655.7091975,806.809118125908,810.5850581148294,808.2786261038025,797.0396313294576
1731014655.7131207,807.2262982422566,810.5541793574353,806.838842713102,799.7642323500396
1731014655.7148716,807.643473191612,810.0764664825476,805.6111180947613,802.0511465686368
1731014655.717044,808.0609530800604,809.3181458775834,804.3898850370651,803.3295955479903
1731014655.7209673,808.4789480936602,808.6160625193074,803.1248589760033,803.5287602511871
1731014655.7236342,808.8975031862449,808.3018777679284,802.3631037085496,803.1007104157097
1731014655.7248902,809.3165724793054,808.5057670702361,802.975737437897,802.6786819187129
1731014655.727176,809.736111130246,809.0931365223403,805.3400157108596,802.6260968759616
1731014655.7288134,810.1561207289795,809.747805248517,808.7086258573487,802.8794030554759
1731014655.7305372,810.5766436644161,810.1024463392217,811.3944487746783,803.2285339494654
1731014655.7327366,810.9977260628492,809.8353554190561,811.728134861799,803.7118038482052
1731014655.73666,811.4193722493105,808.7479287369243,809.1060924842379,804.6349071804976
1731014655.7405832,811.8415203418647,806.85967908858,804.3811633371828,806.1131145321958
1731014655.7426248,812.2640774559186,804.4617138042244,799.3727199580151,807.6165153675204
1731014655.7445064,812.6870331546221,802.0070418341818,795.8971657270821,808.1073357871359
1731014655.7462027,813.110593323761,799.8415070269474,794.9399807700422,806.785717531907
1731014655.7484295,813.5351735959852,797.993217161666,796.350804304517,803.7756312473455
1731014655.7523527,813.9610795049682,796.259787507086,799.0793677982658,800.0636541871095
1731014655.756276,814.3879230836119,794.5640307649624,801.7625792470164,796.7364083362486
1731014655.7601993,814.8142729549066,793.2483288339705,803.4046424160567,794.2788827731694
1731014655.7616153,815.2383550398011,792.9797396920126,803.8531536465026,792.6077830056446
1731014655.7618687,815.6601785371091,794.268328686422,803.8111239209247,791.7053216071695
1731014655.7626414,816.0838875125578,796.9584523488984,804.3483483884911,792.0590179705542
1731014655.7641222,816.5172190795435,800.1206578678231,806.205784474955,794.312450974992
1731014655.7680457,816.9650172164831,802.4893730739103,809.3475620864272,798.397483144422
1731014655.7719688,817.4183438548275,803.1736730883815,813.0258914958815,803.0603334558575
1731014655.775892,817.8491700081671,802.1433179760533,816.2339009269667,806.4217585981977
1731014655.7775342,818.2257481403759,800.1553739775163,818.1829477316613,807.2393469880734
1731014655.7798152,818.5536969218872,798.214663467472,818.5383481453146,805.8110741848394
1731014655.7806058,818.9170081735157,796.995300876883,817.4139634407283,803.7184067674912
1731014655.7837384,819.4587260132452,796.6250930938876,815.2688060885943,802.6276978952636
1731014655.7876616,820.247711098848,796.9035220401137,812.7846260182885,803.164858012724
1731014655.7915847,821.0689955188553,797.6728131042354,810.6934913477301,804.7129544630026
1731014655.7932,821.3255424905378,798.9688417684492,809.5289295802678,806.1046411701637
1731014655.795508,820.2958376901802,800.8246658360943,809.3797860498488,806.5043571588045
1731014655.798107,817.7609720306531,802.9774657571004,809.8071297748977,805.8618725894481
1731014655.799431,814.5665521094337,804.8652266641092,810.0429564369281,804.8427812673411
1731014655.799596,812.4778422790721,806.0096552313562,809.4211037954033,804.4360460385825
1731014655.8033545,813.1046431590902,806.4334807808475,807.7977794186261,805.3727565037616
1731014655.8072777,816.5000566311813,806.6436801542047,805.6707700553937,807.4964302140388
1731014655.8088658,820.5748998540697,807.1077538983701,803.8958600510364,809.498476770746
1731014655.8112009,822.0951728151465,807.6912665286006,803.1950377962778,809.5125470070502
1731014655.815124,818.8026216485919,807.6449256419264,803.7838478865699,806.4809353313824
1731014655.8185866,811.0872177967506,806.2478231747147,805.3067419514643,801.3336737774468
1731014655.8190472,801.7956309946921,803.56374293679,807.0430864516032,796.8391729597952
1731014655.8229704,794.2446885978995,800.6021821385226,808.2526519245724,795.9354373585384
1731014655.8245313,790.0145131490713,798.6941569520411,808.5413268927217,799.6765148235664
1731014655.8268938,788.2182959311567,798.5955753524764,808.09144889599,806.3783242039893
1731014655.830817,786.6348756127734,800.031301282735,807.5595886320026,812.648064924119
1731014655.8335724,783.6208386297611,801.9534228852175,807.6100031209504,815.503243981349
1731014655.8347402,779.3208256162465,803.2189667182719,808.4048800491423,814.0047648655583
1731014655.837577,775.461381636992,803.2153620511252,809.511913430384,809.3643902531013
1731014655.838663,774.105621276828,802.1572010120387,810.3179246165327,803.785351202255
1731014655.840197,776.3330014137707,800.9877808492762,810.5170218430814,799.1682126468158
1731014655.8425865,781.6578927656221,800.9032995794963,810.2269109200396,796.560433538818
1731014655.8465097,788.3943606781567,802.647490716096,809.7530880717554,796.2821417366176
1731014655.8504329,794.5698840533014,805.9597692583066,809.3247281159523,798.0927055791111
1731014655.854356,798.754413403061,809.6232314564205,809.0060041235039,801.0995792520233
1731014655.8558629,800.3917823915469,812.1937163816148,808.7536423719351,803.784052326482
1731014655.8565676,799.6496621153499,812.911003966415,808.5063831486683,804.603602871405
1731014655.8582797,797.074588576513,812.0629390764487,808.2338868925447,802.9835967646732
1731014655.8622026,793.3142800214165,810.5037951593221,807.9381805137194,799.909734096137
1731014655.8661258,789.0145690045293,808.7835444123822,807.6339728189657,797.5106040271942
1731014655.869038,784.8856518496323,806.7193305598149,807.3322429006246,797.8230415004763
1731014655.870049,781.8398381898073,803.8405896182738,807.0355080256545,801.5573249521918
1731014655.8715284,780.9846532003187,800.2956150433332,806.7410743491827,807.5994760766627
1731014655.8739722,783.2489410524136,797.3011446902847,806.4456896114492,813.4441996789222
1731014655.875558,788.686864093278,796.5569097054591,806.1478919049496,816.2955151942009
1731014655.8778954,795.9061523899769,798.9785706788527,805.8479007649526,814.3799158255488
1731014655.8818183,802.1953094727788,803.8025231807223,805.5465200096236,807.9084764203013
1731014655.885742,804.5460073403643,808.9094750901194,805.244301402948,799.1131734302097
1731014655.8871942,801.1330807090842,812.2042124242618,804.9413430699981,791.1661269563389
1731014655.8896651,792.4243495054836,812.9522614039447,804.6374867558106,786.5478566672351
1731014655.8935883,781.2093816330369,812.003887808326,804.332563213428,785.9228797057383
1731014655.894549,771.3664064042983,810.8380320171553,804.0265047418445,788.2188676751593
1731014655.8975115,765.9086558443887,810.3643978662757,803.7193300329786,791.655920062035
1731014655.901435,765.4603398496293,810.4748483329493,803.4110835907331,794.8356212676263
1731014655.90286,768.2585324030819,810.5055529141052,803.1017940932778,797.1982719841849
1731014655.904503,771.6866414464916,809.9882642025887,802.7914681003199,798.828418860576
1731014655.9053578,774.0181748125627,809.024366067525,802.4801036769401,800.0228276455002
1731014655.909281,775.015739947103,808.1216814772355,802.1677027944824,800.9676941448877
1731014655.9132042,775.3337709251186,807.7750682720127,801.8542712368745,801.6071013189404
1731014655.9135392,775.6529807090279,808.1437560218498,801.5398082507704,801.6727979581252
1731014655.9171276,776.2569098737615,809.0114788120923,801.22429881575,800.8724491495856
1731014655.9185257,777.0867069599781,810.0101048175269,800.9077244264962,799.1823247538963
1731014655.9210508,777.974914408161,810.920385016881,800.590097304398,797.0424141894042
1731014655.924974,778.8126145094117,811.796239656082,800.2714956858282,795.2341469301235
1731014655.9288971,779.5843051451784,812.7811944636298,799.9520490418527,794.4548388163482
1731014655.9325297,780.3243949147075,813.7642124368582,799.6318288587586,794.8854645798982
1731014655.9328203,781.0672773971007,814.2309204962471,799.3106794701649,796.0798345306393
1731014655.9341912,781.8258686659984,813.5681406403871,798.9881558908878,797.2446848767843
1731014655.9367435,782.5957985157229,811.6840094068259,798.6638009774932,797.6837132281858
1731014655.9399688,783.3680123969599,809.4250234111064,798.3378089020249,797.1022895708782
1731014655.940667,784.1371153148177,808.2896887732117,798.0116227068257,795.6382815940897
1731014655.94459,784.9026722625828,809.4525662833537,797.6875097690298,793.7129945180546
1731014655.9485133,785.6666687556034,812.7569980001908,797.366376521614,791.8810329096466
1731014655.949857,786.4309077400443,816.5289194577417,797.0446635752696,790.748035643863
1731014655.9515202,787.1960058109963,818.5316388338452,796.7136151336093,790.8637877065034
1731014655.9524364,787.9617041368235,817.469340631896,796.3651350076419,792.4965316292005
1731014655.9563596,788.7275500033353,813.9072382272543,796.0044558642717,795.3967355785435
1731014655.9602828,789.4933112273156,809.8451418486624,795.6602491541254,798.8242192147394
1731014655.964206,790.2590161705629,807.247131789112,795.3741045390589,801.9486275626268
1731014655.9655223,791.0248079620933,806.6993001493474,795.1573688366728,804.3193850738063
1731014655.9681292,791.7908116788926,807.2328901898278,794.9349838010248,805.9320000601633
1731014655.9705107,792.5570929892084,807.3205318607778,794.5413191598665,806.8215282778144
1731014655.9720523,793.3236833402667,806.1048563503509,793.8448785912843,806.7118385118546
1731014655.9754343,794.0906138372322,803.8983394388256,792.9972299422376,805.2841866180361
1731014655.9759758,794.8579206130202,801.7715720417872,792.6265564204928,802.914684567204
1731014655.9798987,795.6256235269245,800.7744044771927,793.6747679655934,801.0214095028956
1731014655.9811883,796.3937117327059,801.4051154148027,796.760687289378,801.3544409634129
1731014655.983822,797.16217633225,803.5190757004194,801.4619862739218,804.6071623243495
1731014655.9877453,797.9310969125324,806.5036108981544,806.2365556231242,809.567025566021
1731014655.9895012,798.7007166668335,809.5251532866065,809.2846502872624,813.7088416428347
1731014655.9916685,799.4713764063829,811.8101766525991,809.7597117670294,814.8837178845683
1731014655.9955916,800.2432165850696,812.9635851664622,808.3270145595128,812.7645965005009
1731014655.996854,801.0157753368533,813.200487928857,806.6052686058829,808.911457623705
1731014655.9995148,801.787930786638,813.2675827336453,805.9600184661559,805.4901705443641
1731014656.003438,802.5587285508636,813.9655909424969,806.6006646565187,803.7359545147954
1731014656.0073614,803.3290651666094,815.5210866456484,807.6315357453225,803.3206626092596
1731014656.0084918,804.1029149773686,817.2965961748279,807.9437695163949,802.9299119399681
1731014656.0108998,804.8857108034732,818.1696517625362,807.2126633041893,801.4045204389857
1731014656.0112846,805.678456077918,817.3869633352756,806.2153098688317,798.5243914394038
1731014656.0125196,806.4704631155445,815.2345539569496,806.2122410984413,794.9912962096404
1731014656.0152078,807.2394445827404,812.9219037869689,807.8621255383591,791.8478533504832
1731014656.0191307,807.9685584221321,811.6935315969993,810.5379886635953,789.8762301132712
1731014656.023054,808.6780527380878,811.8572392696536,812.6572088633004,789.3395176006428
1731014656.0269773,809.4446770179319,812.5380616843998,812.8574764968594,790.0650816676932
1731014656.0274825,810.3638012780558,812.3805756285318,811.1310371316773,791.6552453430952
1731014656.0281854,811.4314275515839,810.6264956414352,808.9888175365169,793.6402204362892
1731014656.0309005,812.4055551598046,807.6927632106672,808.4618988205173,795.5448792642293
1731014656.0348237,812.8032259141322,804.8259933579329,810.6810858189765,796.9629650981686
1731014656.0387473,812.1627140767301,803.1907775829917,815.1145000726191,797.7211476265597
1731014656.0426702,810.4378008610564,803.1570778960204,819.9866211383097,798.0699805993631
1731014656.043851,808.1037352715623,804.2580023247679,823.4422131062288,798.6783966263008
1731014656.0463653,805.7212052877912,805.6479598192522,824.5110559181805,800.2398528388266
1731014656.0464728,803.3310996203136,806.5566421453887,823.2756132630617,802.8277726771556
1731014656.0465934,800.3836031974458,806.4607142378852,820.4126621541814,805.5341059533024
1731014656.0505166,796.4110140734819,805.1059587779049,816.7014395819607,806.8981727204199
1731014656.0544398,791.833153539724,802.6039101415874,812.8608630482124,805.9773516091744
1731014656.058363,788.0455407354232,799.5635013392639,809.5825178563995,803.1675421079218
1731014656.059517,786.5621834650815,797.0012020212462,807.4330535912728,799.9505363558818
1731014656.062286,787.8893079962846,795.9026710006447,806.5632158337118,797.7680529348562
1731014656.0654633,791.1344944641409,796.6531482913481,806.5253646103612,797.0980124276276
1731014656.0662096,794.7405601607712,798.7510077589837,806.5164281811018,797.4739157669652
1731014656.0701327,797.6871142618174,801.0640748404466,805.96419279089,798.1461649236485
1731014656.074056,800.0326563824317,802.4910259560766,804.9676038480137,798.6416070457992
1731014656.0751824,802.3090532960108,802.56668067028,804.1524290594206,798.8787153962518
1731014656.077979,804.4388164644813,801.584379378257,804.0263840178375,798.9878064849787
1731014656.0818307,805.3315889435918,800.2041576053318,804.4144623009136,799.1064076726553
1731014656.0819025,803.615630649545,798.9371999183375,804.5161767699714,799.2884236955327
1731014656.0844536,798.8298289786412,797.9533846580955,803.5680733625111,799.5178732918367
1731014656.0858254,792.0226652955004,797.2977553092977,801.5441782661741,799.758632198034
1731014656.0897486,785.3670930370733,797.1841687744549,799.2872064165597,799.9884553910871
1731014656.090848,781.2560016606274,797.9749627604104,797.9455570946241,800.2049462626446
1731014656.0936718,781.474710538518,799.8081632139541,798.1548554000626,800.4157259570137
1731014656.0975952,786.5599031250804,802.2401759155503,799.5860586564681,800.6279501053655
1731014656.1015184,795.2460223909225,804.3167104701822,801.1799875580548,800.8440939653567
1731014656.103444,804.357323101378,805.1127684750645,801.8797340094843,801.0630648429491
1731014656.1054416,809.8426937025287,804.3561030505645,801.3445654977053,801.2829089136279
1731014656.1065135,808.9511071151976,802.6667865456931,800.175672992926,801.5025120966077
1731014656.1093647,802.2229120688187,801.2451656652981,799.5217266707378,801.7218063686174
1731014656.113288,793.5687381915175,801.2223919752755,800.3274444644223,801.9412056538362
1731014656.117211,788.0245843851036,803.064997451444,802.7161387126044,802.1610633204641
1731014656.1172962,788.7022499519303,806.340130906868,805.921476330695,802.3814763900472
1731014656.1211343,795.1172450912599,809.914213780201,808.8189032759491,802.6023575555214
1731014656.1221795,803.8955806436155,812.4346069444648,810.6723072665234,802.8235742550689
1731014656.1224346,811.0678804290391,812.8562482177858,811.5394583340529,803.0450322123406
1731014656.1250577,814.2855757252216,810.8310347627046,812.0449014111445,803.2666947770506
1731014656.1289809,813.6894429382312,806.8622821891782,812.7401476571426,803.488578899994
1731014656.132904,811.1814880409961,802.1556610184831,813.5994202167961,803.7107465197499
1731014656.1368272,808.8450914759924,798.144513120302,814.0622597321736,803.933266911278
1731014656.137845,807.7216214949865,795.8374453435816,813.5597934057369,804.1561224708892
1731014656.1407504,807.6733445168135,795.3430406647792,812.065699950906,804.3790979306408
1731014656.1414251,808.0404475744488,795.9197553596259,810.2172876512897,804.6017932154372
1731014656.1446736,808.3042361275578,796.5672944934507,808.9152897345155,804.8239156221538
1731014656.1485968,808.3155721115734,796.7460716845945,808.7098184874858,805.0458049577292
1731014656.15252,808.1724080569384,796.6723229562607,809.4141714646131,805.2687391452896
1731014656.1527617,808.0160915620498,796.9590683963949,810.2044424664282,805.4942829652272
1731014656.1535108,807.9177802811502,797.9186236705726,810.1345441668299,805.7223550596445
1731014656.1564434,807.8738285571101,799.1459395591932,808.7460712325039,805.9491218981018
1731014656.1603663,807.8506574428447,799.7752422509485,806.4060891221637,806.1675509202607
1731014656.1604156,807.8227803121238,799.2101301728516,804.1649648961304,806.3733470505204
1731014656.1642897,807.7841017760853,797.684223481874,803.2029638880445,806.5747850377023
1731014656.168213,807.7406606701818,796.1395993674182,804.1809573643146,806.797314559687
1731014656.1691766,807.699929007139,795.5253590099362,806.8730970197755,807.0693159717362
1731014656.172136,807.6653162096386,796.1429559920014,810.2833203985246,807.3847290020208
1731014656.1760592,807.6363445759101,797.5789344131524,813.1490074850894,807.6662633084381
1731014656.1794062,807.6111528045645,799.1685893699646,814.5240351404734,807.783632095944
1731014656.1799824,807.5884356181223,800.4674897094051,814.1389241773095,807.6738733548808
1731014656.1839056,807.5679282369987,801.3412503376919,812.4101897337647,807.526057486823
1731014656.184842,807.5499617049537,801.7796604851478,810.1642467591072,807.8527786905967
1731014656.187829,807.5348967843335,801.7787600642868,808.2440062909284,809.2112221508669
1731014656.1882272,807.5228618203182,801.3934002514238,807.1708874373292,811.5664413337124
1731014656.1917522,807.5137894105911,800.7529762406367,806.9850116633252,813.8125281868691
1731014656.1956754,807.5075610905684,799.9006785400294,807.3111234184972,814.2107508886363
1731014656.1983967,807.5041025770629,798.6495830881742,807.6084641937086,811.7896016462898
1731014656.1995986,807.5033822238801,796.754582184413,807.4828044004275,807.5655679229465
1731014656.200508,807.5053515574704,794.3718807260815,806.9036220994622,804.2509960112575
1731014656.2035215,807.5099030054937,792.3710610406599,806.2027503400174,804.3963507595885
1731014656.207445,807.516910896138,792.0630669138334,805.8382004711546,808.4179528237105
1731014656.211368,807.5263638227733,794.3732133922279,806.0613010955691,814.1741435163306
1731014656.2152915,807.5384905668229,799.0147228116213,806.7279700961722,818.454406073306
1731014656.2161736,807.553684985152,804.3417677235354,807.4167876012028,819.1550932728345
1731014656.2173872,807.5720814182007,808.1426832098606,807.766295024623,816.4731909355808
1731014656.219215,807.5929428489933,808.9371975931622,807.7422158478835,812.4228979884662
1731014656.223138,807.6145059166566,806.8749059435173,807.6112903289389,809.3298981833045
1731014656.223693,807.6351129248918,803.5363074933144,807.6763238664199,808.5172451685197
1731014656.227061,807.6556902422589,800.7795678933384,808.0304647771751,809.9302729652419
1731014656.2309842,807.681755004851,799.5765795852626,808.5263040641723,812.5972006846696
1731014656.2318392,807.7214071454935,799.724551781794,808.9308111184388,815.3321884638237
1731014656.2349074,807.7769003307263,800.4296503021192,809.0963739801775,817.2145351432318
1731014656.2363777,807.8335266512199,801.0380754213982,809.0223551831017,817.8213601079289
1731014656.2388306,807.8584066151849,801.3371859684793,808.805626656493,817.4240880575813
1731014656.2427535,807.8240723293043,801.4306150618941,808.5530596353613,817.1247539492059
1731014656.2466772,807.7554168501832,801.4911697517974,808.3246509986874,818.5338871869766
1731014656.2475047,807.7626534240211,801.6127637142304,808.1288191841775,822.7099039862918
1731014656.2506003,807.9934987824802,801.7965134074975,807.9485192382214,828.8517992984492
1731014656.2545235,808.4659705268108,802.0028892275336,807.7670481370874,833.926429039594
1731014656.2553682,808.8635100059737,802.1995756889148,807.5784904905859,834.0446878529975
1731014656.2584467,808.5311136944728,802.3775510365729,807.3853272544413,826.9745541756002
1731014656.259158,806.9165347074697,802.5434494622505,807.1921157917851,813.9529746012252
1731014656.26237,804.3188105168275,802.7064979972467,807.0014610408435,799.2514594123755
1731014656.2631707,802.1681441278109,802.871282622659,806.8134988260218,787.6812805198527
1731014656.266293,802.0695699521846,803.0375395190387,806.6272148801701,781.8681512556159
1731014656.2702162,804.1090619831339,803.2030961967423,806.4417297976427,781.2037892744274
1731014656.2741396,806.1080631250906,803.3663287577707,806.25676681461,782.9163836416085
1731014656.2743587,804.8289806905108,803.5268757762888,806.072476183295,784.1179061686385
1731014656.2780628,798.2564930966414,803.6851567559817,805.889092774571,783.308416649878
1731014656.2788365,787.1373237235773,803.8416776323438,805.7067359582784,780.639468548643
1731014656.281986,774.6382312536133,803.9966786763758,805.5253956917004,777.2316303932207
1731014656.2859092,764.4089585314299,804.1501495705526,805.3450073479621,774.2219138142342
1731014656.2898324,758.4603774836086,804.3019928844403,805.165517940386,772.0754392365752
1731014656.2933493,756.3845461122839,804.4521491736334,804.9869072733616,770.4558115183751
1731014656.2937555,756.4075653071679,804.6006273636951,804.8091765023755,768.6995814594803
1731014656.294502,757.273983557413,804.74747535754,804.6323298330215,766.5699978302985
1731014656.2946236,759.2492888844359,804.8927432678432,804.4563647185429,764.6601429458824
1731014656.2976787,763.327215929379,805.0364665321272,804.2812718707904,763.9918486043495
1731014656.301602,769.4380322859564,805.1786683603219,804.1070395302683,765.0553389878577
1731014656.3055253,775.5111007943011,805.3193691996249,803.9336569155789,767.1582149348127
1731014656.3094485,778.5492397536586,805.4585931746561,803.7611150946651,768.807862664587
1731014656.3101678,776.9570824235561,805.5963683927487,803.5894060425089,768.9363237249753
1731014656.3123395,772.0529540128031,805.7327231770737,803.4185213790233,767.9085464335412
1731014656.3133717,767.3348660080959,805.8676824372075,803.2484518997047,767.3187482958033
1731014656.3172948,766.0954613846718,806.0012683680155,803.079188314242,768.6226474243756
1731014656.321218,769.4100580136734,806.1335073833857,802.9107227962328,771.756330803119
1731014656.3251412,776.0109514792164,806.264439730348,802.7430499963979,774.9960048843003
1731014656.325833,783.7496395297998,806.394121148777,802.5761656020144,776.2469365212577
1731014656.3290644,791.0849141422772,806.5226041691657,802.4100615766563,774.6692256246977
1731014656.330089,797.4265896786965,806.649899745031,802.2447207248459,771.2608269892087
1731014656.33133,802.571032646679,806.7759490668732,802.0801175690814,767.9984773046405
1731014656.3329875,806.3262715247852,806.9006599221922,801.9162325724344,766.4292024437035
1731014656.336911,808.9077675208941,807.0240401866589,801.7530766937061,766.9660934190983
1731014656.340834,811.4795274258552,807.1463631229851,801.5907042840223,769.2816004224987
1731014656.341499,815.7561422206171,807.2681663512475,801.4291801299796,773.0536039971582
1731014656.3447573,822.5067013287902,807.3898653429729,801.2684877432401,778.1040552267897
1731014656.3486805,830.2070944037272,807.5110319279868,801.108434283038,783.8602199604741
1731014656.3503206,835.407310119425,807.6299421774388,800.9486858559692,789.0127318568677
1731014656.3526037,835.0302974726997,807.7444079762386,800.789054822014,792.1154565061732
1731014656.3565269,828.9183698875635,807.8543855486098,800.6299557416173,792.7661760161524
1731014656.3571646,820.3469129656047,807.964923920353,800.4725908620914,792.1725959895292
1731014656.36045,813.7406284304634,808.0856113652774,800.3182367306533,792.3433684073358
1731014656.3643734,811.291064806105,808.2226583368971,800.1664766141324,794.4686327803212
1731014656.3655546,811.3466016513507,808.3652944317395,800.0135498989191,797.9135618683639
1731014656.3682966,810.0684387503502,808.4785161277126,799.8533733736517,800.7501364854787
1731014656.369311,804.9904482660777,808.5205517212,799.6832949253101,801.374934804129
1731014656.3722198,797.3767885604675,808.4905952391958,799.5124957955285,799.8252627623984
1731014656.3728304,791.318432833236,808.471887418063,799.3643483707807,797.747623219212
1731014656.376143,790.4168044928941,808.5985639777953,799.2613080626584,797.1829851376095
1731014656.3800662,794.9698859985366,808.9217607014906,799.1912073653783,799.2548101446401
1731014656.383989,801.9546368633049,809.2805963985218,799.0795092083006,803.7196796099203
1731014656.3879125,807.5345896530298,809.3249964583315,798.8164664938615,809.4557985264478
1731014656.3883016,809.7805660472713,808.70131582481,798.3747147969289,815.2425313080713
1731014656.3884962,809.4861178489198,807.2801936012808,797.9730041810469,820.2109419702131
1731014656.3918357,808.8622518369276,805.3127803702337,798.1298307388241,823.8791503514196
1731014656.395759,809.5909690896428,803.4337886128095,799.4462361189157,826.0718238364166
1731014656.3996823,811.8468240408923,802.4338303506568,802.18777752095,826.9382197320863
1731014656.40102,814.6989209825476,802.8325009131622,806.0140341379233,826.9779526245169
1731014656.4036057,817.0779752106374,804.5043334499962,810.1192379667842,826.8727547195505
1731014656.4041617,818.2987666935553,806.6863094574418,813.6358109967198,827.1105397230946
1731014656.407292,817.9215342487232,808.4428936027826,815.9446753803966,827.6404482501353
1731014656.4075286,815.5446348347091,809.2717129658365,816.7372648611106,827.8566734252495
1731014656.4114518,811.0889273937571,809.3838899330752,815.9550768641072,827.0198546125216
1731014656.415375,805.4002104501988,809.4416824946672,813.7959651256296,824.903718837515
1731014656.4192982,800.4563159039471,809.9590186105082,810.8172946521261,822.1946967832031
1731014656.4198277,798.7032050635793,810.8161631388421,807.9591582172411,820.2075624162836
1731014656.423221,801.7529673802084,811.2500138181694,806.2819728893534,819.9470426875788
1731014656.4262826,809.2110539675558,810.3623111089656,806.4538873819706,821.202727001399
1731014656.4271448,818.4831565308225,807.8461326683606,808.3362676169472,822.5801258930777
1731014656.431068,826.0222864582552,804.4377257171898,811.0493270710849,822.6997243374396
1731014656.4349911,829.5566674592062,801.6896400984148,813.5365417682883,821.649399386495
1731014656.4354932,829.7432547328344,801.0817387365837,815.1963050351385,821.2524625681599
1731014656.4364855,829.5427287446512,803.0345272080574,816.06740116763,823.5392837287256
1731014656.4389143,831.248727162649,806.5985553207204,816.4559927281489,828.4655355724468
1731014656.4428377,833.5322004080074,810.1335670584252,816.4056264205605,832.9383055088759
1731014656.4452732,831.600550637014,812.4421644836802,815.5459669898473,832.453830992485
1731014656.446761,821.2161276956249,813.3812334938885,813.4836139125164,824.4659905164343
1731014656.4506838,803.559603764417,813.4616096955804,810.372816139511,810.8128220738394
1731014656.4511588,786.3803747326236,812.936662634472,807.1090673536102,796.9567227037915
1731014656.4546072,779.5275786069357,811.3597117420026,804.8929729208703,788.3948930343373
1731014656.4585304,787.8151919821368,808.0702938204926,804.4447902610892,787.0903052685483
1731014656.4624536,806.8740800081894,803.1277479900319,805.4633908707441,790.7187302368401
1731014656.4642637,825.564183083517,797.7964165529517,806.7628892204742,794.9507466331856
1731014656.4663768,833.3462342241064,794.1017571758397,807.0130063101044,796.4893375897194
1731014656.4668243,827.1518000295958,793.7246955228248,805.5585365857671,794.5137006230167
1731014656.4703,812.8383300633135,796.9589716090484,802.756278122281,790.1441170276653
1731014656.471951,800.5400743075511,802.4098999996304,799.6531377118479,785.1806312993941
1731014656.4742231,797.6152718575191,807.6885515540035,797.2968145151387,781.2334283098295
1731014656.4781463,804.2364665529034,810.7527538903703,796.1602902286097,779.2893708232784
1731014656.4820695,814.3399805283416,811.0427300678294,796.0042674817586,779.3533635094875
1731014656.4824903,820.656044624647,809.565748757318,796.1922438566346,780.3342864292141
1731014656.4832542,819.8528747688811,807.8157401563928,796.2170899318386,780.6844668422053
1731014656.485993,814.2071409168261,806.4176220187467,796.0851618182705,779.6709140653069
1731014656.489916,809.0501671529795,804.7182488051787,796.2765637593953,778.2415352335636
1731014656.4938393,808.2446498444845,801.7254826037512,797.2791420661061,778.503603456093
1731014656.4977624,811.0349784507747,797.5054208214772,799.0521368148203,782.0401241670902
1731014656.4981558,812.3387412904679,793.6673200144779,800.9069884428999,788.4671280110865
1731014656.5016856,806.0970566055297,792.4109907391808,801.9875793527524,795.5450103122207
1731014656.5022447,789.3952720966611,794.9339494575355,801.9926662968373,800.8318390693423
1731014656.5056088,764.7536144094495,800.5127321480339,801.5119098336614,803.515335642145
1731014656.5074165,739.1993286906261,806.9147359158274,801.636930246541,804.8762125244506
1731014656.509532,720.6482560069846,811.722737367469,803.1207627667224,806.9826858872104
1731014656.5134554,713.7372281221437,813.599956802557,805.7535348059782,810.74502663578
1731014656.5138216,717.6603172929932,812.7527201608424,808.4623405728424,815.0516226738288
1731014656.5173786,727.3242526009008,810.4870396561372,810.0654440317562,817.7627705941128
1731014656.5212352,736.850310033507,808.3050710550236,810.0897700839663,817.6308364598389
1731014656.5213015,742.811532404424,807.1523106443781,809.0269134897571,815.3501308691474
1731014656.5252247,745.1012558674112,807.1822903126895,807.8846808682963,812.8038309795236
1731014656.529148,745.5217952166365,807.9811986698105,807.4624993819926,811.3242042258548
1731014656.5294874,745.8470974409198,808.9372150240791,807.9314281130994,810.6478642101229
1731014656.5330713,746.8422629352852,809.5160397673811,808.9367571785639,809.4237195711529
1731014656.5369945,748.397068553232,809.4257563115319,809.9677863179032,806.5973312507668
1731014656.5402255,750.1057797201696,808.7144103183463,810.6157123990824,802.3355503138717
1731014656.5409176,751.6930468910653,807.7298008873918,810.6068889790224,797.832301905077
1731014656.542882,753.112909450516,806.8646182082588,809.7931587332315,794.4163940333611
1731014656.5448413,754.4471807314628,806.2334876978364,808.2732779841004,792.7878123989091
1731014656.545153,755.7816628340829,805.5985177386468,806.55403135693,792.8242350323419
1731014656.5487642,757.1503618696944,804.6649683484408,805.4762029779606,793.8658209996152
1731014656.5526874,758.5438475925127,803.4624212771964,805.7817269281321,795.1797560057125
1731014656.5566106,759.939979988049,802.4000285521216,807.5636456902796,796.3465335207967
1731014656.559216,761.3250570895835,801.9256833116692,810.0432152363462,797.3736211158088
1731014656.5605338,762.6976338072027,802.1344557046946,811.9262246350647,798.4646445036228
1731014656.560819,764.062506864833,802.6836885273644,812.1515160933665,799.6429021837083
1731014656.5644567,765.424231545111,803.0251801079219,810.5237583315983,800.6228614515164
1731014656.56838,766.784488303951,802.7071494443795,807.777983095526,801.1074791453143
1731014656.5723033,768.1427496899236,801.5610537550501,805.0331546037286,801.183826612553
1731014656.5762267,769.4979490371694,799.764900177235,803.0651510435594,801.2885572424781
1731014656.5764844,770.8495367119403,797.8170457555796,801.9733100964436,801.6585463173768
1731014656.5782063,772.1976125467838,796.4000248026213,801.4612277202328,801.8317294268008
1731014656.5783474,773.542578179215,796.1278402813507,801.3929989650976,800.8460664410277
1731014656.58015,774.8848010794483,797.267994630876,802.0500565085762,798.1097626469998
1731014656.5840733,776.2244956206922,799.5901766208807,803.8336048543382,794.1578258179246
1731014656.5879962,777.5617737013674,802.4406703757614,806.7200195803192,790.5135993058391
1731014656.5919194,778.8967353246333,805.0102149367912,810.037900383308,788.7160641825129
1731014656.59215,780.2295127197771,806.6411940055444,812.8433495628987,789.3973000277463
1731014656.5958426,781.5602566629913,806.9960378146081,814.5914464159143,792.195625766773
1731014656.5971973,782.8891035562544,806.0278830983177,815.4855620961878,796.3734382543515
1731014656.5997658,784.2161730710109,803.8788136522877,816.1603532416825,801.3331787760887
1731014656.6036892,785.5416213595612,800.8798965707226,816.9862476271842,806.5502006837188
1731014656.6076124,786.8657190096563,797.6376704607926,817.65868031551,811.285242593983
1731014656.6078155,788.188859403073,794.9752941829646,817.4610422823445,814.7032894192808
1731014656.6115355,789.5113934358529,793.5837536831402,815.9297074411002,816.4096867344648
1731014656.6138127,790.8333067073074,793.6011354796153,813.2778673810147,816.7618288891243
1731014656.6154587,792.1540041444332,794.5282363772374,810.2222836625731,816.4846749123411
1731014656.6161876,793.4726586494068,795.6094328297913,807.4676373094322,815.9137999226152
1731014656.619382,794.7893637981418,796.3520627251463,805.3772254755819,814.6581809388397
1731014656.623305,796.1064798943903,796.7547571945782,804.0471483755036,812.0687378389248
1731014656.6234815,797.4284722654935,797.1475213343924,803.5178632873838,808.0631221979706
1731014656.6272285,798.758476667937,797.8821064512018,803.7738342261615,803.485473410419
1731014656.6311514,800.0922432399435,799.1099478846342,804.5585976891509,799.6491381234008
1731014656.6350749,801.4147853806948,800.6969086512339,805.3656094819945,797.5169904218778
1731014656.635178,802.7081935535857,802.2635335714563,805.8087352574482,797.2815375791237
1731014656.638998,803.9740670003106,803.3945797140443,806.0829345344897,798.6205839450485
1731014656.639147,805.2573499798036,803.9847832996261,806.9759521491962,801.1737734265931
1731014656.6429212,806.6387989308041,804.4679842499705,809.2354344664612,804.6104650453456
1731014656.6468444,808.1654619200469,805.6229367697955,812.7479649604353,808.2198902459482
1731014656.6492784,809.7381360626498,807.9556673364002,816.2875313059857,810.6188544138942
1731014656.6507676,811.0627444925458,811.0897882225604,818.1698909723026,810.1924929930493
1731014656.6541686,811.8223670966062,813.7145377459357,817.3480030775113,806.1890702094822
1731014656.6546907,812.1164257550544,814.2705488513723,814.0724320273389,799.6388219308747
1731014656.6548128,812.8948969881644,811.9721717006182,809.635961651805,793.1951025789084
1731014656.658614,815.7864258643647,807.4560962587592,805.5255907744847,789.7580786589281
1731014656.662537,821.879046201501,802.5709017022336,802.7202625154193,790.7636377736454
1731014656.6664605,829.9963080575432,799.4014799276342,801.5545605767138,795.4159038077842
1731014656.6703837,836.0720654366934,799.1194821213486,801.952715017442,801.4512078466967
1731014656.6704783,834.873089117244,801.3501228645056,803.601892695936,806.7577881114735
1731014656.6731591,823.4181454089245,804.4389724961987,805.9457445935723,810.5034410951822
1731014656.6743069,803.753329319176,806.4913731038822,808.2652899754463,813.009373242671
1731014656.67823,782.8135830227742,806.5950010864434,810.0559517842149,814.8337712079357
1731014656.6821532,768.9645269238764,805.4614859372674,811.458982668182,816.1233332937186
1731014656.684744,767.2855767054227,804.9952662069122,813.2285519177298,816.7479291405805
1731014656.6860764,776.8251118802301,806.9573256905762,816.03530212455,816.7991157868166
1731014656.686144,791.6982068383044,811.5719090938497,819.5840135909933,816.7374593362774
1731014656.6899996,804.9982349160449,817.1047645814441,822.3625416335229,816.9850053437425
1731014656.6921496,812.580475990944,820.8412731580004,822.4169370544604,817.3936484556315
1731014656.693923,814.3533707998051,820.8385441517007,818.6795390366506,817.1406761584294
1731014656.6978462,812.9058650653316,817.1641834796371,811.8438613378887,815.2057749020307
1731014656.7017694,811.0729563850764,811.729378300324,804.0931280264195,811.0935402792613
1731014656.70181,810.23741872204,806.9908568557722,797.8976380230229,805.2683225636129
1731014656.7056923,810.1563569291804,804.6377672039488,794.7936080956714,798.9825137385574
1731014656.7096157,809.9408301016473,805.1220387824225,794.9324630492528,793.6331478093715
1731014656.7111402,809.232539710608,807.9490889697088,797.437343652169,790.1120626632298
1731014656.713539,808.728901159982,812.0875639003405,801.0127467408059,788.5448283552807
1731014656.717462,809.7479187496174,816.1413205415116,804.3448943007467,788.4377384987145
1731014656.7174754,813.1496327413687,818.5074403013342,806.318044685632,788.9674887170939
1731014656.7202094,818.3637086358689,817.8643533706919,806.294340618713,789.2225887509287
1731014656.7213852,823.3183195662624,813.8845327404413,804.4508555093747,788.4670624324002
1731014656.725309,825.5873755882161,807.59998264158,801.85485004671,786.5405830403007
1731014656.7292318,824.1710840776683,800.95049228073,800.0353301068732,784.2123021671529
1731014656.730131,820.5879952781861,795.7195771690574,800.2104575701627,783.040429212266
1731014656.7331412,818.180854041289,792.6675029850586,802.6212118720997,784.5196806909851
1731014656.733155,819.8434971059797,791.5261392019562,806.3453036460239,788.9682162240811
1731014656.7370782,825.7659996742224,791.6966365709661,809.6739929395475,795.0582633140846
1731014656.7410014,832.9824431450801,792.8416476354779,810.8894639751254,800.532400128734
1731014656.7449243,837.216797416627,794.8033477490674,809.1299247003964,803.6628337138364
1731014656.748807,835.7927504729129,797.123953074296,804.9188795364211,804.3153453668317
1731014656.7488475,829.5638003487742,798.9136434492024,799.9787914897544,803.790415423972
1731014656.7491212,822.5005253232928,799.3745649047139,796.3228230000702,803.6714420590621
1731014656.7527711,819.2195132796476,798.4911217087357,795.1646871270632,804.7162279710066
1731014656.7556748,822.1723915356229,797.1696982004652,796.399008704323,806.6544705502768
1731014656.7566943,830.3726162303757,796.6736559021779,798.9748420151393,808.8343493543488
1731014656.7606175,840.2989742123888,797.8686345496711,801.7533014527489,810.9099697072321
1731014656.7644725,848.0364072400554,800.8537249516542,804.1062057976239,812.873339545196
1731014656.764541,851.137353114215,805.0609708304339,805.8843589454348,814.5360619089248
1731014656.7681117,849.3614324608142,809.5102375571981,807.0382423428204,815.2037967869188
1731014656.768464,844.3518683061408,813.0239177964198,807.4289205867142,814.086980502231
1731014656.772387,838.5956227451321,814.5494992328926,807.0242946623146,811.1610162693077
1731014656.7763102,834.0979475694187,813.7349570098061,806.186491021581,807.6107991745693
1731014656.7801385,831.5058372198087,811.4570946220139,805.660708388057,805.290409688834
1731014656.7802334,830.2504174380218,809.6775907224811,806.2092396583107,805.508281672841
1731014656.7841568,829.3905624633796,810.359204259169,808.1748439000235,808.0546231484147
1731014656.7871022,828.3227415485743,814.0402129134028,811.2731520278126,811.2027767850349
1731014656.78808,826.9362184540431,819.193777401651,814.6876358664689,812.6873733723342
1731014656.7911403,825.3916828539594,823.0433381072445,817.3506852709861,811.0133963932689
1731014656.7920032,823.8629512904935,823.3489679169901,818.2599307106653,806.2859789591032
1731014656.795804,822.419835243003,819.8374249285769,816.7330823611919,800.0788009913225
1731014656.7959263,821.0434590527175,814.2154553580793,812.5757945062003,794.4572053602667
1731014656.7998495,819.6884768937706,808.8749418198558,806.194747845293,790.8132769749375
1731014656.8037727,818.3264233988044,805.4150219987996,798.670100512045,789.2860173690007
1731014656.8060927,816.9538195969498,804.070246693722,791.677205798394,789.0681432195753
1731014656.807696,815.5800491915599,804.1878087806372,787.063137621841,789.180716741248
1731014656.8114696,814.2141098671699,805.0350322772618,786.0636165052874,788.9939889838417
1731014656.811619,812.859157757688,806.1996530992968,788.5511224851359,788.1908405557181
1731014656.8155425,811.5138100387213,807.465598839293,792.9232341317647,786.5322354804248
1731014656.8194656,810.1755382669215,808.5519168208117,796.903100113106,783.9366446136514
1731014656.8233888,808.8428396983808,809.082780168499,798.8127746456104,780.8776495652414
1731014656.825083,807.5155259732617,808.8223139451916,798.4398905376167,778.5606908598553
1731014656.8266058,806.1940218619202,807.945737320168,796.894290429289,778.4161077493544
1731014656.827135,804.8786775925107,807.0802568270439,795.6174011896923,781.1035977083615
1731014656.827312,803.5695192937491,806.9905607248421,795.3146814224199,785.8139375551879
1731014656.8312352,802.2663464798526,808.0379330374508,795.577549568215,790.5701344242448
1731014656.8351583,800.968917054568,809.7887793793893,795.4054352234311,793.4525458632246
1731014656.8390815,799.6770465164494,811.1500074272248,794.1617852157867,793.8310911110336
1731014656.842801,798.3905954376334,811.0352884625661,792.1848064075764,792.5854025237397
1731014656.8430047,797.1094109227394,809.0945244722867,790.5633749431981,791.1437545104976
1731014656.8440735,795.8333039612183,805.9618629142433,790.2754365718681,790.246449629833
1731014656.846928,794.5621057389264,802.900396853481,791.4127136120787,789.581605265836
1731014656.8508513,793.2957708339476,801.1790698332618,793.1205978160897,788.5547746155602
1731014656.8547745,792.0344114168884,801.5595316868046,794.2484524444784,787.2971725675142
1731014656.8584666,790.7781223253679,804.0177732699725,794.1169114909052,786.780958730547
1731014656.8586977,789.5265869187706,807.7038418476309,792.7943381305788,787.8713183169792
1731014656.8620713,788.278755964123,811.2286905923143,790.7905503433227,790.313820608453
1731014656.8626208,787.0331658264946,813.319085123067,788.5789921340134,792.7733888561348
1731014656.863064,785.7892792981851,813.5416478544398,786.3914372264404,793.9488480761299
1731014656.866544,784.5492536873321,812.5395979809662,784.3615527846459,793.6478728410353
1731014656.8704672,783.3181314482824,811.4977520068385,782.7559121487033,792.7521873807934
1731014656.8741324,782.1000839839684,811.2150594292069,782.0140972855771,792.1708429134684
1731014656.8743906,780.8909342955579,811.5561499192316,782.5419187865087,791.9092394295684
1731014656.8783138,779.6728929381405,811.7336393681403,784.4150462159522,791.2216681616127
1731014656.8820546,778.4220967856866,811.136035511124,787.2147376918705,789.6991847931489
1731014656.882237,777.1349778748771,809.9628387307574,790.1382664773101,788.2086515647659
1731014656.88616,775.8601180329819,809.1326906988088,792.3588561293333,788.6812243814172
1731014656.8897982,774.696587953507,809.5436793714488,793.4391468284299,792.7233640757689
1731014656.8900833,773.7168132020548,811.262557203085,793.5524618388586,800.0759237259621
1731014656.8940065,772.8262478239037,813.2699693322262,793.3979999295545,808.2336138283009
1731014656.8975368,771.6808478309995,814.0004007972383,793.9004859332811,813.7512331836888
1731014656.8979297,769.861532148523,812.3446527474783,795.8734600974648,814.4298572498412
1731014656.901045,767.4007526276274,808.4121123646834,799.7475882112363,810.7829740492061
1731014656.9018528,765.3868791431289,803.491496169953,805.3665424532296,805.6728218384781
1731014656.9054637,765.9451498386178,799.248163128991,811.8833478112647,802.4117946261458
1731014656.9057765,771.0238758015095,796.7691106395266,817.8995529191938,802.7502567166925
1731014656.9096994,780.5747717235914,796.1118451586677,821.9691531881266,806.1264441024637
1731014656.9136226,791.9591047449303,796.5306495389611,823.3325899976925,810.4979457624215
1731014656.9175458,801.7308737438304,797.039635122155,822.4396894470282,813.9307956587719
1731014656.9200356,808.4189938729141,796.8689454059314,820.8077980444774,815.7246305254889
1731014656.9211297,813.5635393324868,795.6366599316998,820.1759856665846,816.3766179837277
1731014656.921469,819.9340944881806,793.3322892310528,821.4720477478666,816.6571171124295
1731014656.9253922,828.6922546111317,790.26395750339,824.3145828355605,816.7367728735629
1731014656.929315,838.2183658251504,787.0280356649863,827.3923026937975,816.1537605685635
1731014656.9330022,845.6060845051665,784.4567400005084,829.384620701968,814.5676726986391
1731014656.9332387,849.2864528621509,783.4382564939698,829.7023359451044,812.4572026961732
1731014656.9367952,850.3178765937985,784.5347913921264,828.5741554092085,810.9486309231958
1731014656.937162,851.2781416325075,787.5153141507221,826.6175685592284,810.8415295619153
1731014656.939026,853.8902422933767,791.1659922638804,824.401205984768,811.774195490387
1731014656.941085,857.4372809453384,793.7233615281489,822.3168711665769,812.4057132466717
1731014656.9450085,859.1077893907318,793.8342912332682,820.6322506520236,811.4986266957018
1731014656.9489317,855.8465320993215,791.4208520478843,819.4357424472921,808.9036990024958
1731014656.9524608,846.4411897458438,787.7738323323708,818.4713804905215,805.5944489925085
1731014656.9528546,832.6834160556393,784.7493329326528,817.1844621715176,802.841474802032
1731014656.9567778,818.9515432730398,783.6276001949768,815.1738826322076,801.3357673330111
1731014656.9580166,810.2206744987361,784.4320288691797,812.7376097073777,800.9404824822094
1731014656.960701,809.3941340781241,786.1415402704212,810.9043040061202,801.0699867386688
1731014656.9646244,815.5638669575168,787.5707817340832,810.7171612652683,801.2058966885852
1731014656.9681263,824.5132856808195,788.2198556583458,812.2885291116764,801.1409947543718
1731014656.9684677,831.3436794246425,788.4478299169643,814.4948972398648,800.9177555546474
1731014656.9685476,833.5736795035775,788.8860738247632,815.6968826195667,800.6550456636563
1731014656.9724708,832.6312456942712,789.6686899883725,814.9562087980605,800.4288735161663
1731014656.976394,832.587919579927,790.2623236271544,812.7418847089295,800.2488777527466
