timestamps,eeg_1,eeg_2,eeg_3,eeg_4
1731015129.4533646,800.820256718627,802.0540549995322,807.8072578430637,804.1069308664215
1731015129.45727,804.0669746577671,797.8795410520022,810.9264996804023,816.059312106067
1731015129.461176,806.0628346070051,794.8279031094874,813.609671525004,827.373427332198
1731015129.4650817,805.4237078368035,793.5765937161163,815.468819356946,837.236613965013
1731015129.468987,801.1590544862086,794.115981716073,816.2232433292585,844.5979160471609
1731015129.4728928,793.662123800992,795.8224072495265,815.7914942469475,848.4166115256102
1731015129.4767983,785.1588242218152,797.8199606175424,814.4074284467478,848.2564146564004
1731015129.4807038,778.8485734991713,799.4606157451674,812.6602801653966,844.8310734980407
1731015129.4846096,777.1738097861938,800.6475807904555,811.3259221351959,839.9696586416761
1731015129.4885151,780.5655957632422,801.7628990039949,810.9821902449078,835.8797569975108
1731015129.492421,787.5661457452123,803.2042848529709,811.6221570845407,834.1205025787802
1731015129.493698,795.9025157081772,804.8673126500112,812.5853950369942,834.8545495494199
1731015129.494405,803.3868125597678,806.0349251209235,812.9566432545182,836.7460909436481
1731015129.4963264,808.1481888942711,805.8545671438798,812.2137278258853,837.5981599826603
1731015129.500232,808.7294835235093,804.0599799340335,810.6484300693811,835.534134225825
1731015129.5041375,804.6648788276102,801.3067082239694,809.2050872412445,830.1608866016163
1731015129.5080433,797.2297714398635,798.7778839037545,808.8283875307153,822.9503109530325
1731015129.5093334,789.3722419824487,797.3717830858172,809.8116779422232,816.4551400800887
1731015129.5100255,784.3690531268903,797.1799423401567,811.640603811038,812.8330138321669
1731015129.5119488,783.9945652001709,797.6885526468012,813.4375127862893,812.7247419622844
1731015129.5132976,787.5925752410819,798.4431372292169,814.6555750656074,815.2075279669739
1731015129.5158544,792.7443720334585,799.4949279217551,815.4883149240829,818.6303910506265
1731015129.51976,796.923061494417,801.2077814760789,816.6662927219636,821.5374225490991
1731015129.5236657,798.8392109467114,803.6644331837491,818.7673916388042,823.0786172002452
1731015129.5249686,798.6426541582523,806.2982287028298,821.5596733097574,822.9209728379611
1731015129.5275712,797.1830387693107,808.122413837111,823.9204195012633,821.0269871668411
1731015129.531477,795.1758161971117,808.3305179111279,824.4709346202617,817.5570386608836
1731015129.5321898,792.9327849185568,806.7215479836159,822.5183438778813,812.8956708461056
1731015129.5353825,790.6483898531858,803.6489672155357,818.6283278285172,807.6908466257747
1731015129.539288,788.742447460089,799.6888005304558,814.3878508680706,802.8014374086011
1731015129.540604,787.8202658342371,795.4368634369079,811.4971027932669,799.0843160376588
1731015129.5431938,788.2793391132387,791.5882911173787,810.8269759798582,797.0659342317086
1731015129.545,789.979987775563,789.0421497648654,812.0956187738583,796.7056602351174
1731015129.5470994,792.3166997833645,788.6861715450149,814.3151950985971,797.4588898026813
1731015129.5510051,794.5880422108294,790.8766910992172,816.5480123592814,798.6070703488141
1731015129.5510824,796.282215084557,795.0481617370048,818.3289121894242,799.5952238220748
1731015129.554911,797.0924538833381,799.8716118818476,819.5130456999816,800.1734880835618
1731015129.5562396,796.859308240054,803.9120358133986,819.8861053160979,800.374461391388
1731015129.5588162,795.6744526733173,806.3099554478299,819.0548245827366,800.4567311575395
1731015129.562722,794.0340786784425,807.058399615154,816.7691120101023,800.8339501527911
1731015129.5666275,792.722815821272,806.8293581327098,813.329198802127,801.9202967776667
1731015129.569975,792.385883785751,806.5670829149052,809.6227793708937,803.9061593662015
1731015129.570533,793.1588182709577,807.0312846052076,806.6976605523021,806.5885665249361
1731015129.5718749,794.7060078284991,808.3855475799149,805.2067470786097,809.3515109886108
1731015129.5744388,796.5818211012122,810.0042323718601,805.1498979171496,811.2988110343034
1731015129.5783443,798.5259658027977,810.7465508244586,806.0521720639025,811.532695126214
1731015129.579975,800.472285826405,809.7091271014272,807.3667939279756,809.5730804971017
1731015129.58225,802.4107055245328,806.9895767617827,808.7734125958409,805.7700366848991
1731015129.5861557,804.3483409962686,803.7875341361631,810.200703362986,801.3851253221844
1731015129.5875103,806.4062151387959,801.6143030720106,811.6462043732082,798.110568507484
1731015129.5888672,808.8606921254374,801.1770706445076,812.9807850531705,797.1970824328198
1731015129.5900612,811.950038665214,801.8778879778648,813.8655486581501,798.7094004538081
1731015129.5939667,815.5041513073559,802.381481263238,813.8047003364235,801.3923659989789
1731015129.5978725,818.7052702433351,801.7623358585231,812.3280805509403,803.2747446285208
1731015129.601778,820.3031206904884,800.2296636325245,809.2957261245432,802.7389422837948
1731015129.6031458,819.299200199719,798.8428744276944,805.220475363435,799.5058548935323
1731015129.6056836,815.6863707331854,798.5614330252141,801.3468813457688,794.9183864124553
1731015129.6077597,810.670977671944,799.5203371801156,799.2370838793425,791.2182718384321
1731015129.609589,806.1217414353763,801.1073402263966,799.9422828255712,790.1901353468803
1731015129.6134949,803.557884390955,802.6278512159033,803.2653068127511,792.1098046555965
1731015129.614949,803.3400526076806,803.8626181771559,807.7072425529989,795.7615334378194
1731015129.6174004,804.5802719492325,805.0366548126503,811.2503986703523,799.4085408408822
1731015129.618781,805.7765703965622,806.3288742016831,812.4861274998008,801.8368146363143
1731015129.6213062,805.7079535367282,807.4685232264826,811.3113227039227,802.6976136316613
1731015129.6252117,804.0288848081807,807.8477938984197,808.7515030768277,802.1708119909232
1731015129.6266522,801.295130532173,807.0761038319567,806.1335880132632,800.5703261644006
1731015129.6291173,798.5559411953593,805.4708895475469,804.2676467686982,798.3335619734639
1731015129.633023,796.8472218424689,804.0066911219191,803.1795427936191,796.2033870620055
1731015129.6344166,796.8340886305141,803.7093043738182,802.4368648022504,795.1102328871256
1731015129.6369286,798.652021070273,804.9655244529118,801.685527663473,795.6357774141476
1731015129.640834,801.8936633112661,807.2805386809093,800.9678491842922,797.5252074043887
1731015129.64474,805.7221149450486,809.6174203289163,800.6585096936612,799.7950053439333
1731015129.6455443,809.1356639561334,810.997821519378,801.15400534788,801.4183910916036
1731015129.6486454,811.3461926674779,810.9446176847422,802.5729594121608,801.9809520727508
1731015129.6499236,812.1020042631586,809.6013552439556,804.6495925924795,801.7606223645032
1731015129.650052,811.7503756626312,807.6105459484618,806.8461948543426,801.3025116588296
1731015129.6525507,810.9931509427412,805.84122649013,808.5954061601191,800.9809070899696
1731015129.6564567,810.5152438790233,804.9878394052818,809.5450682999656,800.8721272621469
1731015129.6603622,810.722879332688,805.1642743027639,809.6843109566631,800.8772629253853
1731015129.6642678,811.6594291186183,805.7914292586322,809.2764400897763,800.8840438497199
1731015129.6644373,812.9991472420738,805.9850321561388,808.6451647914112,800.8446382706497
1731015129.6656876,814.0785708622387,805.23190531704,807.9977730510601,800.7687893945769
1731015129.6681736,814.1017491603858,803.8045122720999,807.4538605002534,800.6848772122535
1731015129.672079,812.6116738010801,802.5283749513251,807.22510323718,800.6115324234906
1731015129.6759846,809.9780820660393,802.0889604051813,807.6803147474351,800.5515252909033
1731015129.6798904,807.4041891162522,802.4865564340275,809.1108244567156,800.4990481869554
1731015129.6813228,806.2228703538498,803.0955757714833,811.3506473019876,800.4482050785874
1731015129.6833296,806.8977083292415,803.2208234672493,813.638639561681,800.3967154754866
1731015129.683796,808.5306271808764,802.6247713451698,814.9459370355479,800.3452471585694
1731015129.684898,809.3637735601918,801.5899873864942,814.5637253433135,800.29528685643
1731015129.6877017,807.986952706381,800.5333124226764,812.4867457765429,800.2477126595365
1731015129.6916072,804.3893043610834,799.5746547405734,809.3164525753368,800.2025598328399
1731015129.6955128,800.0849432248665,798.4784309016558,805.8601269551104,800.1594462307713
1731015129.6969583,797.1964430628955,797.0386246084171,802.8379688337421,800.1180165749505
1731015129.6994183,797.0969871723748,795.5507337666174,800.8737942380351,800.0781186943652
1731015129.702222,799.5120741524009,794.8812688363391,800.5322638438896,800.0397544818001
1731015129.703324,802.7007208756238,795.9766990283551,802.1057831988057,800.0029613934158
1731015129.7072296,804.6418787162478,799.1768237185867,805.2455187350345,799.9677319375133
1731015129.7111351,804.4345689998196,803.8899474214189,808.8745345777008,799.933995819983
1731015129.7125938,802.8723741758961,808.8421124380776,811.6403919795371,799.9016471787847
1731015129.7150407,801.6896538393084,812.622050661419,812.6280693839243,799.8705965780933
1731015129.7189465,802.0293841473314,814.1406992469491,811.7717021353276,799.8408268409793
1731015129.7198727,803.3964059404047,812.9152909202329,809.6815514926235,799.8124116706019
1731015129.7211144,804.016702307981,809.2830461608527,807.1216767773542,799.7854394710808
1731015129.722852,802.3322214662128,804.4711872041432,804.6108205547744,799.7598274973292
1731015129.7267578,798.3643387746964,800.2369457287812,802.404477076142,799.7351430662023
1731015129.728229,793.7833853061683,798.0166478412992,800.7226934805439,799.7106946639028
1731015129.7306633,790.6406617223455,798.0753848314957,799.8925534855634,799.686116800942
1731015129.7345693,789.8591438376143,799.37510488042,800.2131687110436,799.6622547889893
1731015129.7384746,790.7396295931741,800.385997310009,801.6560687731512,799.641463006392
1731015129.7400067,791.8015384757465,800.2554965492892,803.7013383140005,799.6261060063921
1731015129.74238,792.1040947643089,799.4055524329366,805.5205673036762,799.6150574214626
1731015129.7438643,791.8488903141533,799.0872429183992,806.4272626037578,799.6006298949044
1731015129.746286,791.8340630121754,800.2689288506048,806.265703872791,799.5709707767331
1731015129.7501917,792.4417145705434,802.7509914164256,805.4245624124844,799.5216924260124
1731015129.754097,793.2115656790977,805.196486561045,804.4599693802014,799.47208331404
1731015129.754847,793.3726434546975,806.0474169616015,803.650773454548,799.4684197288942
1731015129.7580028,792.7211108944406,804.6322599890441,802.8659924546158,799.5524802825785
1731015129.7588992,791.9381053128994,801.6396569484153,801.8254000805424,799.6949593777866
1731015129.7595,792.0508770900217,798.6096651583483,800.46886946746,799.7442764670668
1731015129.7619083,793.5701032517425,796.8493485202274,799.0881359560037,799.4864293351097
1731015129.7658138,796.0883585397769,796.6484181135448,798.1546342920384,798.8786771802247
1731015129.7697196,798.6428767257139,797.3774960291983,798.0650164839308,798.3556023215119
1731015129.7736251,800.4515406543688,798.2044130072189,799.014088701409,798.8822114799176
1731015129.7751353,801.3683107355794,798.6830010090401,800.9724576513886,801.4138255651633
1731015129.777531,801.7554179044546,798.8237602394343,803.634772693939,805.8942700189854
1731015129.7777915,802.0301285235471,798.8371388109606,806.3614315058695,810.629135155344
1731015129.7814364,802.3545900532012,798.8913602121896,808.3144762178956,812.9214786797048
1731015129.785342,802.6641890069737,799.0324740931608,808.8761624762437,810.8210507015892
1731015129.7892475,802.861566738164,799.225601924895,808.1005425937173,804.6510484887365
1731015129.7898216,802.934792736813,799.4229951881379,806.7828121527411,796.9730832905941
1731015129.7907708,802.9413572703679,799.6012531188838,805.9873944045635,790.9364507747019
1731015129.7931533,802.9429015924425,799.762081612455,806.3402507827548,788.3050480057113
1731015129.7966845,802.9676742576349,799.9169239558939,807.6172275511236,788.6398567180374
1731015129.7970588,803.0130173197152,800.0742679936288,808.9369941927247,790.0724724050855
1731015129.8009644,803.0650177299882,800.2360363526267,809.3998775663946,790.8473514457734
1731015129.80487,803.1137496925551,800.4001368347416,808.694582725092,790.3876191345472
1731015129.8064065,803.1572578426187,800.5640671811336,807.2533086208957,789.2489155656565
1731015129.8087757,803.1982640936441,800.7267207251515,805.8919338413799,788.299647148097
1731015129.8126812,803.2398214828228,800.8882906276714,805.2438854344405,787.9691896051639
1731015129.8155766,803.283236495177,801.0494168413338,805.412344992771,788.1402962145341
1731015129.816587,803.3282663988709,801.2105406672175,806.0463009113707,788.5978478401581
1731015129.8204925,803.3741717135916,801.3717516061887,806.687420382182,789.4875741548824
1731015129.8220415,803.4204788314202,801.5329408868366,807.0660310133866,791.3087229326097
1731015129.824398,803.4671416289282,801.6939902533873,807.1655675780395,794.4241527538636
1731015129.8247962,803.5143437604463,801.8548582002998,807.1114259283867,798.5100545101322
1731015129.8283038,803.5622699166494,802.0155701716311,807.0330988081267,802.4431032102106
1731015129.832209,803.6110064769482,802.1761766226463,806.9934672101405,804.7915902574566
1731015129.8344693,803.6605597768702,802.3367246331824,806.9925403723413,804.6011670383865
1731015129.836115,803.7109138015851,802.4972482318041,807.0049314111029,801.9212559914982
1731015129.837677,803.7620694754686,802.6577610153415,807.010723301978,797.7106848692669
1731015129.840021,803.8140521155475,802.8182435595214,807.0049573970588,793.2380867980553
1731015129.8439262,803.8669000689283,802.9786436459577,806.992248325803,789.4506642988559
1731015129.8478315,803.9206500039741,803.138920455605,806.9784498461484,786.7329913177807
1731015129.8517375,803.9753266243422,803.2991356042478,806.9662863188579,785.1031963590434
1731015129.8533125,804.0309399453599,803.4595216699222,806.9554266812728,784.5481851868182
1731015129.8533616,804.0874938177287,803.6203956323942,806.9444244321681,785.1497834426344
1731015129.855643,804.1450075143464,803.7818344555478,806.9322483942337,786.8855241520849
1731015129.8595486,804.2035401677676,803.9432679048675,806.9186813610779,789.292282297825
1731015129.8597708,804.2631896968533,804.1034711594468,806.9039830621306,791.3404022972611
1731015129.8634543,804.3240349985717,804.2614990574923,806.8884474826264,791.7697728256551
1731015129.86736,804.3860295617842,804.4184533780633,806.872191470286,789.8304562279154
1731015129.868948,804.448935749532,804.5786190604371,806.8551751236582,786.0308349186645
1731015129.8712654,804.5124487052129,804.7474801263935,806.83730939644,782.3439387405153
1731015129.872254,804.5765812814458,804.9253595636775,806.8185339190952,781.4932498748053
1731015129.8751712,804.6420968729736,805.1001218289558,806.7988325620224,785.4374044209325
1731015129.8790767,804.7104246443436,805.2482967472338,806.7782110405991,793.8215443126498
1731015129.8829825,804.7824937815292,805.3541435509626,806.7566713739103,803.5267076125936
1731015129.8845832,804.8567473679188,805.4426823229766,806.7342028355881,810.0171056679607
1731015129.886888,804.9281346737469,805.597026011142,806.7107910963917,809.9539207658369
1731015129.8907936,804.9908443047377,805.9134457633986,806.6864352918975,803.3866030110007
1731015129.8911464,805.0457664481461,806.3752123186376,806.661156052414,793.8843762891071
1731015129.894699,805.108106735715,806.7156960711526,806.6349777609494,786.4123711517851
1731015129.894745,805.2042754853544,806.4395924166752,806.6078833653578,784.4290421489607
1731015129.8986049,805.3483197132052,805.1322773805291,806.5797734593482,788.1624254308798
1731015129.9002187,805.5049348379322,802.9108479124965,806.5504938478882,795.0064201861911
1731015129.9025104,805.5747571770183,800.588584646873,806.5199805765474,801.4461804500719
1731015129.906416,805.452055278935,799.2651368368804,806.4884663705797,805.0854899890771
1731015129.9100387,805.1644765415865,799.5772005827145,806.4565297761445,805.6152835276656
1731015129.9103217,804.9928047174524,801.1981733469175,806.4247072991278,804.4460783976864
1731015129.9142272,805.3738638518024,803.028812989602,806.3926530223929,803.5047580170498
1731015129.9158542,806.5184025218928,804.0053491758621,806.358467194007,804.0039223213843
1731015129.9181328,808.0465681736177,803.9172948072764,806.3193939310922,805.8703732514093
1731015129.9220386,809.1031728754573,803.5251428845572,806.274689979569,808.0913202707904
1731015129.925944,808.9832290845903,803.8188508437788,806.2293744898232,809.6208491853362
1731015129.9289312,807.6989109788277,805.045792269128,806.1945784977783,810.083272379617
1731015129.9297197,805.9084552342952,806.3951804052987,806.1794786178752,809.786814828482
1731015129.92985,804.2645019589339,806.6528309424538,806.1753867056636,809.2618324539727
1731015129.9314897,802.8340605059788,805.2602850974962,806.1447485158245,808.8537552375943
1731015129.9337554,801.1756923744936,802.8511321438198,806.0376470855566,808.629263858628
1731015129.9376607,799.005978558681,800.8087965495206,805.8485865323458,808.4989490537776
1731015129.9415667,796.791278316286,800.2369014302999,805.6853065927742,808.3639280843308
1731015129.9454722,795.6323938805727,801.1997173356536,805.76820736612,808.1836018165349
1731015129.947125,796.4431093407528,802.8114084438233,806.2773417391162,807.9679770306458
1731015129.9478238,799.092103258352,804.0291402727047,807.0923257688532,807.7426216127782
1731015129.9493778,802.2885440764251,804.4675867447061,807.6860183110551,807.5238380989794
1731015129.9532835,804.4178172094355,804.5978810962749,807.4348340851087,807.3137690612961
1731015129.957189,804.7208243495126,805.2173254861966,806.1787060180551,807.1071368772999
1731015129.9610946,803.8481996229222,806.6412282051951,804.4469846379362,806.8987758866086
1731015129.9627604,803.2801167539095,808.2663748655602,803.0279296751239,806.6867997210805
1731015129.9646945,804.0512712848256,808.8718712656703,802.2888901616441,806.471913769301
1731015129.9650004,805.8441539794235,807.482332505948,801.9559474848616,806.2555004207625
1731015129.9667163,807.2374071736243,804.204884412129,801.5736975047993,806.0383732696407
1731015129.968906,806.9293844338827,800.436216340021,801.1456932718183,805.8205972886055
1731015129.9728117,804.9197211968217,798.2183618504644,801.2667322084396,805.6018795160749
1731015129.9767172,802.6447278482957,799.0658051834333,802.5770272848418,805.3819607523811
1731015129.9783957,801.929687707515,802.9674184331703,805.0588012529331,805.1607628182159
1731015129.9806228,803.6070034427316,808.2324616554644,807.8701639847773,804.9383387144059
1731015129.9845283,806.9047554184901,812.3616959143586,809.9060379100523,804.714769450029
1731015129.9856086,810.0401240100249,813.4423235201217,810.5928938990796,804.490102910493
1731015129.988434,811.4823330790808,811.1655259072513,810.2242478288666,804.2643493481814
1731015129.9923396,810.9064674661244,806.8116803813815,809.5992683886938,804.0375035277998
1731015129.9940312,809.2133259108174,802.3084468927701,809.3615834917543,803.8095627197417
1731015129.9962451,807.7281094549942,799.118036283142,809.6232571137277,803.5805295068936
1731015129.9996688,807.2168657264876,797.6951957271692,810.0750167766731,803.3504063834995
1731015130.000151,807.3935325229306,797.6630719887386,810.3039828787369,803.1191953576591
1731015130.0040565,807.220366032648,798.3081853554417,809.9715851177967,802.8869094369337
1731015130.004501,805.776374473591,798.9653283309648,808.8205866615411,802.6535878074232
1731015130.007962,803.065413854832,799.1966730886718,806.7266181626916,802.4192918415242
1731015130.0096667,800.1377700487369,798.8974371203715,803.8965976412295,802.1840608371324
1731015130.0118678,798.395021680847,798.3834699913863,801.0327328294562,801.9478396780631
1731015130.0157733,798.6116566605004,798.3396899222067,799.1958808412892,801.7104479766497
1731015130.0196788,800.4568079931909,799.499730562543,799.3186281757106,801.4716913611052
1731015130.0233936,802.8651879854754,802.1249661013354,801.6206206220272,801.2316415891446
1731015130.0235846,804.8766388022582,805.5908507308933,805.3125560413488,800.9909017684881
1731015130.025302,806.2210179815422,808.4593307794886,808.8500161272727,800.7504508570038
1731015130.02749,807.2438011764996,809.1868562840993,810.6787130285497,800.5107346062016
1731015130.0313957,808.3765643276355,807.1532922950661,810.072299230069,800.2703226546336
1731015130.0346434,809.6766377922862,803.3077139205318,807.5381192087344,800.025501615914
1731015130.0353014,810.7774225807544,799.8002560989056,804.4993601405596,799.7726161183147
1731015130.039207,811.1817340313225,798.6228384372258,802.434383414043,799.5133345526901
1731015130.0409374,810.601392870808,800.1275675813015,802.0284710202849,799.2588634508008
1731015130.042286,809.1179835340852,802.6128576576807,802.8853268119574,799.0249710403195
1731015130.0431125,807.1172587409334,803.5072277217267,803.9545174176487,798.810960013954
1731015130.0470183,805.0487308271618,801.3963093620836,804.3369738517655,798.5660128396513
1731015130.0509238,803.1217365903119,797.2953547671935,803.8902819174265,798.1570801671168
1731015130.0548294,801.1485479944475,794.0442186976546,803.2397910162027,797.3574258737509
1731015130.056573,798.756812069166,794.2375854921319,803.2574254060046,795.9021727126136
1731015130.0587351,795.9333733015344,798.3682025859396,804.4397013736003,793.6854966597588
1731015130.0611784,793.4607189142841,804.6646658676303,806.6351691511778,791.0618043582142
1731015130.062641,792.7104341831246,810.6065053529918,809.2635406715603,788.9734555904834
1731015130.0665462,794.7220173852013,814.6913341658072,811.7839569415717,788.6016999148536
1731015130.0696175,799.1927130904911,816.9817083413634,813.9901275953727,790.6179682886917
1731015130.070452,804.267389321229,818.2196677894754,815.8819444815946,794.5633992363094
1731015130.0722084,807.4993542002909,818.60946774488,817.2755732925654,798.9246066593032
1731015130.0743575,807.4089164688714,817.5187298460442,817.6065574483711,801.9918149945369
1731015130.078263,804.4874800791381,814.2984585404103,816.2279686406165,802.9176152381688
1731015130.080071,800.8331796830545,809.2842582037961,813.0014360810072,802.1286075925832
1731015130.0821688,798.6576086939964,803.930356348502,808.6300636960112,800.7741377851099
1731015130.0860744,798.8153254092846,799.9591607500688,804.3861615297316,799.7963259770489
1731015130.0878437,800.4773187392024,798.3549378669006,801.4519420414455,799.4536095874106
1731015130.08998,802.0948312698816,799.0524932870121,800.4178534154537,799.4985794166089
1731015130.0938857,802.7310437582588,801.3785298389749,801.2420456179742,799.594898170009
1731015130.0977912,802.6171239937706,804.6187379633878,803.48216618816,799.5696861941977
1731015130.0989635,802.579155722135,808.1745997801343,806.4401559535046,799.4255968460914
1731015130.1016967,803.0272581917151,811.3878932003311,809.1639167464297,799.2381901206128
1731015130.1034791,803.5383047115092,813.4942776838803,810.5996271093586,799.0668724316796
1731015130.1045923,803.4171363081238,813.9459658736612,810.0914739541445,798.9269066719959
1731015130.1056025,802.6236531461462,812.845001797396,807.9127863909405,798.8050279719242
1731015130.109508,802.066835526062,811.026255897326,805.2129680172615,798.6840018376104
1731015130.1134138,802.8831935285308,809.6259656435722,803.2423255505761,798.5556671923274
1731015130.117319,805.3502453540506,809.4426856497689,802.5369390953344,798.4208756850044
1731015130.1178558,808.4969301797195,810.5629306064147,802.7980797818992,798.2838351453353
1731015130.1191146,810.8168357061408,812.4492649315641,803.3955877498213,798.1475817128476
1731015130.1212249,811.416967394343,814.3019705308728,803.881729556091,798.0127660754935
1731015130.125131,810.5490731563237,815.3994048664769,804.1445653221048,797.8786224939779
1731015130.1290362,809.1586082313204,815.3103344312782,804.2791654049815,797.7442705119207
1731015130.1329415,808.0519621096641,814.0374621573304,804.4078212851413,797.6093463385264
1731015130.13475,807.4651471279446,812.0906491071096,804.5873557121221,797.4739517285118
1731015130.1367483,807.2033230284944,810.3504683394291,804.8107081176287,797.3383416077942
1731015130.1368475,806.9888538746493,809.6389450565173,805.0477008543148,797.2026945771903
1731015130.139567,806.675691139363,810.1902544300843,805.2770603507937,797.0670620332388
1731015130.140753,806.2635418854541,811.4265700876975,805.494634557047,796.9314251133922
1731015130.1446586,805.8142647791406,812.2971458242149,805.706232448238,796.7957619443777
1731015130.1485643,805.3775493240065,811.9781750246017,805.9183239505783,796.6600781480328
1731015130.1503854,804.9667208085394,810.3809989693809,806.1336299509094,796.5244051421732
1731015130.15247,804.5711100274337,808.0693974138197,806.3515692116757,796.3887886364465
1731015130.1556408,804.1763784688327,805.7301141315633,806.570513371982,796.2532794991062
1731015130.1563754,803.7755527339144,803.7162444587689,806.7894099238239,796.1179232833651
1731015130.1602812,803.3691675202132,802.0100826997539,807.0081194942667,795.9827420027855
1731015130.1641867,802.9606367693518,800.47402740872,807.2269902068225,795.8477170195467
1731015130.1660209,802.5524656974226,799.0311931700016,807.4463707525217,795.7128020016193
1731015130.1680925,802.1451910576639,797.6354987945882,807.6664015831328,795.5779922379309
1731015130.171998,801.7381562564217,796.2039134338486,807.887054934986,795.4434273878902
1731015130.1745331,801.3305907903975,794.6893009408816,808.1082540698396,795.309422859129
1731015130.1745417,800.9221458383374,793.212796657321,808.3299496926641,795.1762883483408
1731015130.1759036,800.512861149787,792.0301993644372,808.5521321214226,795.0439139433138
1731015130.179809,800.1029080720969,791.286730956314,808.774817307793,794.9114167751434
1731015130.181656,799.6923974067954,790.801833936272,808.9980428974153,794.7774423794897
1731015130.1837149,799.2813363656475,790.1566592943102,809.2218734512942,794.6415515466923
1731015130.1876204,798.8696775983634,789.0622311794826,809.44638161644,794.5061170558008
1731015130.191526,798.4573764784228,787.6749199460971,809.6715788632034,794.3766505902589
1731015130.1934257,798.0444123452315,786.5386469182384,809.8973282155506,794.2580058556443
1731015130.1954317,797.6307754670797,786.1732443819475,810.1233502434603,794.1465185767249
1731015130.1972916,797.2164459410504,786.6637451123884,810.3494445767918,794.0241552604834
1731015130.1993372,796.8013923893417,787.6105837823125,810.5758930960159,793.8659513702428
1731015130.2032428,796.3856022965241,788.47135791393,810.8036983926776,793.6678935618495
1731015130.2071486,795.9691253510673,788.9747190019627,811.0340903142197,793.4828752695092
1731015130.209516,795.5520777672243,789.2463251295485,811.2670459529377,793.426371685969
1731015130.211054,795.1345516003869,789.5814928703845,811.4996658983489,793.6132754610193
1731015130.2123182,794.7164392107978,790.1280337937158,811.7265770793697,794.0567272474058
1731015130.212927,794.2973181209293,790.7911526454627,811.9444656184074,794.6630302392705
1731015130.2149596,793.87664400925,791.4256515791609,812.1596300018069,795.3917012925822
1731015130.2188654,793.4543791109885,792.100394849287,812.3915840673055,796.3632349017159
1731015130.2227707,793.0317192534483,793.1562252284641,812.6622412954376,797.640918838603
1731015130.2266765,792.6109931959497,794.9614827269621,812.9673047351234,798.8763938479125
1731015130.2285624,792.1937827795438,797.5369115429623,813.247935826077,799.3688905682321
1731015130.2305822,791.7776367167945,800.3646826718385,813.4045270974977,798.6918027117208
1731015130.2312105,791.3542898104016,802.5889617869188,813.3892407495862,797.3218040086867
1731015130.2344878,790.913973655681,803.5113212290652,813.3498325553501,796.5821046998535
1731015130.2383933,790.4576339690722,803.0212482615058,813.6915815680551,797.8469086914679
1731015130.2422993,790.0097859972072,801.6271934825479,814.8828572804543,801.645494503645
1731015130.2441978,789.614176918323,800.0702701360373,816.9967853638426,807.3542974282572
1731015130.2444904,789.2957854391791,798.8343767837572,819.3236146856834,813.597293620924
1731015130.2462046,788.9998424576949,797.9260104622745,820.5441619036139,818.9076759770411
1731015130.250103,788.566336602726,797.0583754867224,819.5747741005581,822.1591358941306
1731015130.25011,787.825063407575,796.0550472768156,816.5141138189415,822.6825714214322
1731015130.254016,786.8357989561887,795.1287491330888,812.8513761758037,820.333901121442
1731015130.2579217,786.1257330111138,794.7901498646145,810.6077388779306,815.6903989815486
1731015130.259833,786.6023237259849,795.4298641417995,810.9638008517001,810.1627732134239
1731015130.261827,788.920606224743,796.8971382904714,813.3919344043208,805.6160273643743
1731015130.2657328,792.6326829571905,798.45021649816,815.956023883925,803.4244137734438
1731015130.2689955,795.9767374051206,799.1934488278666,816.5691797119393,803.5141888312359
1731015130.2696383,796.8230667344994,798.712349024134,814.3167833935767,804.2329867794301
1731015130.2735438,794.1872811042351,797.4057242044029,809.9503686054884,803.3974971270892
1731015130.2754688,789.0803868783463,796.2207393578279,805.2856914932671,799.9052422722491
1731015130.2774496,783.9968829159078,795.98753526979,802.01534528448,794.6986723946613
1731015130.279465,781.4273956002127,796.8905798867924,800.8145678499789,790.2602795583485
1731015130.2813551,782.4513276624139,798.4772851459982,801.3122320822321,788.9476227828374
1731015130.285261,786.3108649848158,800.1237900203918,802.76420453923,791.4060585907453
1731015130.2878878,791.1322704017499,801.5168291797663,804.724669661854,796.2347613407259
1731015130.2891665,795.2002746661381,802.769883895844,807.13560182885,801.0854717139807
1731015130.291104,797.8811773198338,804.1369912615421,809.8955700581134,804.2708396675548
1731015130.293072,799.5931992540228,805.5878895255441,812.4749633186083,805.6336151694479
1731015130.2969778,800.9458226244527,806.5959605167712,814.031212845695,806.1114545075038
1731015130.3008833,801.8298434874548,806.3784738276793,813.9256085620266,806.5392033345838
1731015130.3047888,801.308672626537,804.537380244702,812.1582933335288,806.8247914384821
1731015130.3067396,798.4965117905577,801.6660951286377,809.3687523056544,806.2072817155472
1731015130.3067803,793.7061206156177,799.3304911598823,806.4670761373143,804.2556755202266
1731015130.3086946,788.8050306028822,799.2138527934497,804.2114381824622,801.5765661549893
1731015130.3126,786.3014475505634,801.9466303467256,802.9672584179431,799.5059464157084
1731015130.3144395,787.7396321711628,806.538412971167,802.6803735147057,799.0474504364264
1731015130.3165057,792.6257873635203,810.9234708924845,802.9995563222438,800.0419517736921
1731015130.3204114,798.761929048973,813.2429613731404,803.4850265905206,801.3452011123558
1731015130.3223753,803.77591903639,812.9195503042564,803.8194038792022,801.8589387775805
1731015130.324317,806.6706706731258,810.8037066562376,803.9097640045023,801.4803968991106
1731015130.3256729,808.1884258104501,808.421102786612,803.835725500878,801.1368681260643
1731015130.3282225,809.7680249641,806.9710665061207,803.720660640569,801.943007078632
1731015130.3321283,812.0635039344271,806.7770304048681,803.6387107123967,804.2928095474658
1731015130.3360338,814.3448463382559,807.4403043556439,803.5995985251492,807.6334311043541
1731015130.3380103,815.2704987575942,808.4139835970251,803.5802730275344,810.9230579294606
1731015130.3399394,814.2574079110499,809.4871741710766,803.5583135452629,813.1981882887894
1731015130.3438451,812.1590792493946,810.847638922617,803.5256742605401,813.817254210804
1731015130.3445652,810.6473932678451,812.7601750638946,803.4855386913101,812.4755411900397
1731015130.347751,810.8739506610704,815.1546662500101,803.4439280561515,809.2924239940291
1731015130.349414,812.5643988365374,817.4234552637473,803.4043137628314,804.9693534346535
1731015130.3516562,814.2556895266646,818.5700183150745,803.3668925244201,800.697597577297
1731015130.3536458,814.4308406212963,817.6756656628866,803.3303201813417,797.6409288886615
1731015130.355562,812.6503584365179,814.4977416016809,803.2934195583898,796.2971191895574
1731015130.3594675,809.851100744658,809.8678319745799,803.2558102667989,796.2822843536824
1731015130.363373,807.6385959698437,805.5199116207572,803.2176817080955,796.7554503544242
1731015130.3634577,807.1372658911827,803.2310838676609,803.1793396211274,797.1071711351824
1731015130.3672788,808.2623096346061,803.6910992343086,803.1409384838963,797.2906443890054
1731015130.3692813,809.9246041014989,805.9293306476663,803.1024608325525,797.5472107419622
1731015130.3711843,810.9491211987119,807.8999838596476,803.0638156632735,797.8925119819571
1731015130.37509,810.9564962616615,807.9355341536772,803.024927005054,797.9447992756071
1731015130.3789957,810.5414118503377,805.9552178661719,802.9857637496192,797.2766243019915
1731015130.3823502,810.6780963581147,803.4248212708671,802.9463260539592,795.9016312784447
1731015130.3829012,811.8768914216332,802.1242855530191,802.9066205253347,794.3815682527983
1731015130.3843884,813.7463282891403,802.8037234065406,802.8666430655578,793.455488134359
1731015130.3849163,815.2530271735453,804.8124793479114,802.8263725075028,793.5644086262251
1731015130.3868067,815.456784674581,806.8328718378348,802.7857738801761,794.6762121119652
1731015130.3907125,814.1922196221936,807.9177056310364,802.7448131664332,796.4429490898812
1731015130.394618,812.2237469374223,807.9481344905334,802.7034830196568,798.4081058280188
1731015130.3985236,810.7601521748167,807.3227537380515,802.661823812748,800.0592128942312
1731015130.400552,810.6653553648548,806.404528350856,802.619906604901,800.8404878108946
1731015130.4012425,811.9364605485756,805.3369012650892,802.5777518861081,800.3682247827065
1731015130.402429,813.8262398475605,804.3113336193516,802.5352152677382,798.829351159968
1731015130.4063349,815.4757234247879,803.8250133494987,802.4919611915548,797.1826996485584
1731015130.4102404,816.5103177314827,804.4803493808125,802.4476793834367,796.795353581191
1731015130.4141462,817.1125943772392,806.4199235592765,802.4025517365317,798.6226436023514
1731015130.4161875,817.5754871491002,808.9676539723133,802.3576234962776,802.5250097789014
1731015130.4180515,817.8140198982389,810.9256310633215,802.3144123680505,807.2848341078763
1731015130.419363,817.3365770579304,811.3586311726929,802.2733128324945,811.3350906260036
1731015130.420135,815.7384395519674,810.2154770392018,802.2315170357925,813.6566717650928
1731015130.4219573,813.2856845415306,808.2771575154964,802.1828333979691,814.2280134850198
1731015130.425863,811.0365488595494,806.5341497186544,802.1221843305859,813.8149731388166
1731015130.4297686,810.2967794966125,805.5678344258745,802.0544528071856,813.3672440267416
1731015130.4318228,811.7448099706669,805.4035027225888,802.0005896996475,813.4645399810267
1731015130.433674,814.8678849315277,805.7799512234028,801.9884798589677,814.0854550546917
1731015130.43758,818.1720834106796,806.4177794390522,802.0216571539037,814.6979032417914
1731015130.4390275,820.081240257363,807.022816029321,802.0420564766946,814.5427316301722
1731015130.4414854,819.9221374166593,807.1866948478283,801.9333270495301,813.0141756302975
1731015130.4453907,818.3033621413069,806.5048754335284,801.6145804701226,810.0580096091255
1731015130.4474585,816.6284515019024,804.9401837411946,801.2109769469218,806.4247120463286
1731015130.4492967,816.1278755361376,803.083694866909,801.1634644871825,803.5603397967752
1731015130.4532022,817.1315763147263,801.9555068708981,802.0757132789137,803.047328347639
1731015130.4543376,819.0469014528435,802.3729305151822,804.2792701636286,805.7814081067138
1731015130.4571078,820.9000456265087,804.3176089367741,807.4615337125914,811.296541389618
1731015130.4579198,821.9100839608684,806.7912691557115,810.7792290538508,817.6707669229341
1731015130.4610136,821.7093893464299,808.3180835715763,813.4267702582993,822.2192159653084
1731015130.4630938,820.2580413573895,807.7920908383599,815.13744049016,822.75833300677
1731015130.464919,817.7340867491927,805.1223059924527,816.1663662311088,818.7925478847546
1731015130.4688246,814.5316986248398,801.2664351202324,816.839122267656,811.8575408846417
1731015130.4727304,811.2294192134144,797.6530650154283,817.1523875970096,804.6900058357216
1731015130.476636,808.3563162987025,795.3800564702802,816.7986347107537,799.693713164376
1731015130.4768124,806.0330458555047,794.6949274263478,815.5242091159336,797.7269751475
1731015130.4787292,803.8100872129486,795.0519420139129,813.4163078469676,798.0129577794403
1731015130.4805417,800.9621342152035,795.6419262417352,810.8525913420743,799.0731497935019
1731015130.4844472,797.126245933426,795.9728465039126,808.2443174035214,799.8036849214405
1731015130.4883528,792.8143328679898,796.0808621656535,805.9039316214875,799.9045633180018
1731015130.4893122,789.3329817209986,796.2802142355353,804.1620583549173,799.6233462994825
1731015130.4922583,788.0497167298677,796.7384604206252,803.5067764619815,799.2991469153791
1731015130.4943645,789.4549996433323,797.2629849200764,804.4432134258448,799.1020503504903
1731015130.495705,792.6900689614279,797.4448507531772,807.0778946736201,799.0243283608653
1731015130.496164,795.9498654579966,796.9809034771832,810.7880129900893,798.9869875714434
1731015130.5000696,797.5694580627702,795.8807009917275,814.3436748258305,798.9298419679072
1731015130.5039754,797.0715625056529,794.4214559160273,816.483130880822,798.8383944313495
1731015130.5078807,795.4204387215365,792.9519775741403,816.5593891735919,798.7268164264885
1731015130.51,794.2838781161087,791.7385297100261,814.8373554026297,798.6127105550571
1731015130.5117865,794.8402852817136,790.940474809965,812.312183368026,798.5041162590198
1731015130.5145972,796.9869522900419,790.6495612238457,810.2302214918709,798.3998991184332
1731015130.5156922,799.4715067618561,790.8923018854821,809.5808464665425,798.2956501467615
1731015130.5195978,800.7857144201371,791.5852061391029,810.7280788745417,798.1882675810111
1731015130.5235033,800.1548744067802,792.5122292032619,813.2499412117049,798.0771096258436
1731015130.5242867,797.9591010864754,793.3726982154323,816.0452789365726,797.9629530943693
1731015130.5256355,795.3899833074308,793.8774059215165,817.7735889579645,797.8466596850105
1731015130.5274093,793.7100731106478,793.8427824340348,817.565809986812,797.7285499808468
1731015130.5313146,793.7047096132407,793.2583641573802,815.6679489831972,797.6084728228249
1731015130.5334897,795.6334816847027,792.3267225631391,813.498268998498,797.4861302561669
1731015130.53522,799.47490997853,791.4656032766665,812.8421482825197,797.3613093220638
1731015130.539126,804.9973158403425,791.2358462756486,814.5717877631157,797.2339290086301
1731015130.5412707,811.4478373699177,792.1560626356804,817.8325802451634,797.103978446528
1731015130.5430317,817.2063142450374,794.4263481567094,820.4582561469998,796.9714470064604
1731015130.546937,820.0253004956361,797.6997502368494,820.4439838039418,796.8362946231102
1731015130.5508428,818.0719287633583,801.1044156927827,817.386470929316,796.6984579804628
1731015130.5523822,811.1755522164341,803.605405415949,812.7644256578272,796.5578682722689
1731015130.5547483,801.270260915601,804.5413457945322,808.8662514400878,796.4144628636271
1731015130.5569062,791.5200532163088,803.9988254827128,807.2436468854331,796.2681870681042
1731015130.5586538,784.6425076686498,802.7661147811367,807.8474302171833,796.1189905954802
1731015130.559261,781.5786408264152,801.8726678871458,809.3362513556715,795.9668239676132
1731015130.5625596,781.3576238300848,801.9788868972136,810.1189129923974,795.8116372023055
1731015130.5664651,782.0934315828736,802.9953411260957,809.2784102866495,795.6533803187345
1731015130.570371,782.3051006140821,804.2168587271751,806.8379534465186,795.4920042930156
1731015130.5712745,781.6912283118908,804.9365489190427,803.4506391112991,795.3274615561932
1731015130.5725417,781.0062538066863,805.1021899112625,799.9540452325081,795.1597059563298
1731015130.5742764,781.2861096743741,805.4403422414491,797.1072519915007,794.9886926193136
1731015130.578182,782.9815061016363,806.8500781974735,795.4821806817706,794.8143781469271
1731015130.5820875,785.5421028738793,809.5226289212958,795.3310742471798,794.6367211712281
1731015130.5859933,787.7393733820614,812.5613122050411,796.415081751911,794.4556826884419
1731015130.588177,788.5680745424296,814.4925361522721,797.9861616816224,794.2712252862456
1731015130.5898988,788.1093064623526,814.2999186496282,799.0744749235065,794.0833109634677
1731015130.590167,787.6551631694417,812.179672807169,798.9757636894907,793.8918989509452
1731015130.5938044,788.887895469038,809.4575691873616,797.6308745716342,793.6969467931771
1731015130.5942357,792.6475563357147,807.7465942485361,795.635901390384,793.4984174927839
1731015130.59771,798.1949471113762,807.9338183295372,793.8698077591034,793.2962903953721
1731015130.6016157,803.5561283206416,809.665096587265,792.9828796473897,793.0905649680639
1731015130.6038125,806.7571463073524,811.6609680588679,793.0743216816207,792.8812425722525
1731015130.6055212,807.0960241964052,812.6414110678055,793.7440223225254,792.6682835615713
1731015130.6090596,805.5392725061512,812.1833721204856,794.4365836671044,792.4515693654491
1731015130.609427,803.9480936554518,810.8516728391663,794.8077171829453,792.230931312865
1731015130.6133325,803.7199943857108,809.5315305277102,794.8731634602393,792.0062928458758
1731015130.617238,804.9007893172359,808.6078636727937,794.897987393603,791.7778688169099
1731015130.619448,806.4477640401642,807.7822070578419,795.1642416837833,791.5462078874828
1731015130.6211438,807.3579503983137,806.6758887823704,795.7862129295091,791.3118082736654
1731015130.6250494,807.6431594979747,805.5525844131269,796.6572359948439,791.0742994735559
1731015130.627952,808.3043222980781,805.3507959382624,797.5236841550802,790.8318037945553
1731015130.628955,810.362618464623,806.90096351816,798.1398946458131,790.5816444520487
1731015130.6292102,813.7993859903934,810.0140631825594,798.4325967928816,790.3231575165589
1731015130.632861,817.2782385974504,813.2843075421181,798.5823851118045,790.0613119505751
1731015130.6350832,818.8690537834689,814.850594607107,798.9548577749957,789.8069507404572
1731015130.6367662,817.2666437369234,813.5842522842237,799.9041042472371,789.5688310557823
1731015130.6406715,812.6861576148702,809.8475435759324,801.5637686886745,789.3381886691752
1731015130.6445775,806.8294320239557,805.2902763430155,803.7529791335182,789.0784497719504
1731015130.6468444,801.8971284198713,801.8380196761103,806.0483035655899,788.7421861087248
1731015130.648483,799.2694647158568,800.5808610544442,807.9749395977614,788.3277645026526
1731015130.6507187,798.7744293648567,801.3053051886169,809.2111594507513,787.9489473154945
1731015130.6523886,799.0866159314833,802.8980302781758,809.6972926250971,787.8425261264102
1731015130.6562943,798.9212884205978,804.1964183944875,809.5958266770938,788.2486239677897
1731015130.6602,798.0173848524377,804.6104303788206,809.1475567868163,789.2156480661126
1731015130.6641054,797.0967825478747,804.1693600838902,808.5439215647025,790.5010809195854
1731015130.6641848,796.927175930437,803.1815568255785,807.9080979790735,791.6739832010696
1731015130.665737,797.4316506271102,801.9185595038322,807.3621590541535,792.3354441982991
1731015130.6663542,797.709255585058,800.5332745391888,807.0778776249665,792.3152987881552
1731015130.6680112,796.9531531833271,799.125140730537,807.2520175192022,791.7933595098186
1731015130.6719167,795.4042089481065,797.7953296275002,808.0455470618846,791.3236039928983
1731015130.6758225,794.4121964605828,796.663333984869,809.5432346657283,791.6789035549847
1731015130.679728,795.4335330324528,795.9006483761701,811.7125743700286,793.4608591227204
1731015130.6819894,798.724011853421,795.7692061168403,814.3103176867231,796.6167033190702
1731015130.6836336,802.8102563472511,796.5629529211142,816.7924816259211,800.2030941814083
1731015130.6846292,805.2637730402145,798.402279560788,818.4015170991042,802.682723224771
1731015130.687539,804.2929257671753,801.0000357175962,818.5210804367641,802.6977811335025
1731015130.6914449,800.0158227587664,803.6267783646056,817.1140293954941,799.8952924841506
1731015130.6953504,794.5011557126963,805.4144167672491,814.8795158210049,795.2918055041159
1731015130.6976247,790.5686669593179,805.8841021425133,812.9249145446532,790.9200752600741
1731015130.6991591,790.1916050788185,805.3457559185629,812.136567741874,788.9025266849377
1731015130.6992562,793.5175912366873,804.8047344962383,812.6843726598778,790.4168657211785
1731015130.7031617,799.0112869729998,805.3166562754485,813.9858228327386,795.1235495286815
1731015130.7035215,804.4991216956678,807.1893574814286,815.1105407988566,801.4238848717113
1731015130.7070673,808.4250886715834,809.6553772661827,815.32280977256,807.4151929499127
1731015130.710973,810.5786438351698,811.3399702264483,814.4224011283956,811.8894629340126
1731015130.7132604,811.8991046661506,811.2040184555764,812.7281319343416,814.6650628134585
1731015130.7148786,813.5476438876314,809.2287852689534,810.7923926657355,816.1151327687334
1731015130.718784,815.9448478766675,806.3426780786642,809.0685621358481,816.4712439615976
1731015130.7224145,818.4942343035187,803.7418839755454,807.7161854872396,815.611790322826
1731015130.72269,820.1483128254056,802.1920142187425,806.5994857896827,813.4489145968118
1731015130.7265954,820.2684489018964,801.7613714347309,805.4315822906576,810.3571381512512
1731015130.728896,819.0253590856684,801.981418487252,803.9789206728186,807.0719766289118
1731015130.7305007,817.0647218301697,802.1535556302205,802.2307063684252,804.1194583983911
1731015130.7341335,814.8424425487314,801.6068979390083,800.4384445379878,801.4009280985379
1731015130.7344067,812.2833502003236,799.9190539420831,798.9801532490158,798.436402206491
1731015130.7383122,809.0645182632018,797.1464878091983,798.1232411309176,795.0958827972206
1731015130.7413063,805.2404622317664,793.9704322319133,797.8698937139881,792.1135355444425
1731015130.7422178,801.6142355540244,791.5776792150398,798.0359552804157,790.8126022192602
1731015130.7445312,799.4449189484708,791.2116613761474,798.513191997072,792.1543397269238
1731015130.7461236,799.6152602667182,793.5648162771205,799.4658099402218,795.8561652415041
1731015130.750029,801.8630853721872,798.3481284629573,801.2401053184318,800.3440374029924
1731015130.7539346,804.7215873735548,804.3357730376233,804.0381208797303,803.6653207609197
1731015130.7578404,806.336554361454,809.9237593260576,807.6589658240867,804.7172252855045
1731015130.7601666,805.6673058106505,813.8917277939003,811.5642131324162,803.9060749409156
1731015130.7601993,803.2423735001951,815.8881351240303,815.2073836190423,802.825364562589
1731015130.761746,800.900318092105,816.366896719129,818.3128249610362,803.2551292668126
1731015130.7656517,800.625256960916,816.1294473180425,820.8597999131867,806.1387507056821
1731015130.7691083,803.2184385234519,815.8571617371501,822.8341058556651,811.0491857186105
1731015130.7695572,807.6940316950537,815.8666855100639,824.0324243520242,816.3212749329749
1731015130.7734628,811.8202669839748,816.0536029125259,824.1389971584947,819.7690582367192
1731015130.775802,813.4430080908114,815.9547983876334,823.024663897468,819.71652227756
1731015130.7773683,811.6893604837755,814.9947839664568,820.998168595335,815.8809084631697
1731015130.7790916,807.2646857454955,812.9259646716298,818.7542125294901,809.5925199481352
1731015130.781274,801.7406770275273,810.1619272290654,816.9923683231052,803.1257445609369
1731015130.7851796,796.4595590100384,807.5822514171177,815.9441703693078,798.4898405091174
1731015130.7890851,791.8988530540307,805.824898980801,815.1512778004266,796.4500521300272
1731015130.7914374,787.8949300415062,804.7105661123646,813.71052565324,796.4003465889665
1731015130.7929907,784.3784713035369,803.4611977398853,810.9082164036491,797.0683752379408
1731015130.7968965,781.8566365510253,801.5918539287002,806.8706177938378,797.4550650441118
1731015130.797984,781.1467383869922,799.5858408032027,802.7575782235709,797.3604238015856
1731015130.800802,782.5782144893752,798.6068597144694,800.2480802339704,797.2623307862477
1731015130.8040829,785.3982623223246,799.4465766086034,800.5356083888083,797.7805027258929
1731015130.8047078,787.9995074784606,801.6628645485946,803.4631681124898,799.1605013868713
1731015130.8070729,788.9354188913131,803.6966587610464,807.4379658517491,801.116077190422
1731015130.8086133,788.0065964749155,803.8941931005315,810.2858957269932,803.0850214786765
1731015130.8125188,786.5281702029391,801.6312861353649,810.5391041269548,804.651788799623
1731015130.8164246,786.43826587245,797.719968520546,808.3022212357241,805.7710606379652
1731015130.8168764,788.8333882385319,793.8807456491329,805.1188420183594,806.5987003965414
1731015130.82033,793.0578793457306,791.7252195028606,802.9671623376074,807.0731531086326
1731015130.8227084,797.0907880507809,791.9216028213132,803.0923219560678,806.6176305079141
1731015130.8242357,798.9361145953583,793.9623079048658,805.4030152134208,804.2797533695631
1731015130.8281417,797.9345005547195,796.5376859729761,808.6948411191477,799.3318491301071
1731015130.832047,795.050665908557,798.2494930689065,811.4420596289623,792.0008477630151
1731015130.8357687,792.0710641710158,798.3234304082615,812.6564703814607,783.8091545046416
1731015130.8359523,790.4684430955527,797.0046254047994,812.3676588873333,777.1696247535328
1731015130.8383436,790.7991872554779,795.4145290075227,811.5031328683783,774.3573349074408
1731015130.8390574,792.9121716600987,794.8761246368005,811.2525762794808,776.4528713839192
1731015130.8398583,796.5353179866989,796.0564494151943,812.3004269736045,782.9168355788308
1731015130.8437638,801.5637487069188,798.4999858242446,814.4184995974612,792.0112587287925
1731015130.8476694,807.7616355620983,800.9416707180233,816.6690371683077,801.6740730903579
1731015130.8515751,814.2408801584979,802.205862188387,818.0114869566827,810.20444638575
1731015130.853979,819.3930978356614,801.9845787876709,817.8325974913153,816.4426696944859
1731015130.8546612,821.5937338917132,800.8698629462051,816.0838178952782,819.6659410817158
1731015130.855481,820.2449456079107,799.6740704600113,813.1071003213126,819.5895339189451
1731015130.8593864,816.2827734459647,798.6903765312517,809.4279771135631,816.5313496160777
1731015130.863292,811.6277537923545,797.5376687163979,805.6483463571508,811.4380505415054
1731015130.8671975,807.9452299205724,795.6531053315357,802.3528839050367,805.548327405555
1731015130.8696146,805.6921044765041,792.9364458830353,799.9472925835385,799.8738216147503
1731015130.8711033,804.1855265516062,790.0012411574685,798.5221419579317,794.915927148338
1731015130.8735538,802.5588594394901,787.8839810703963,797.9001455003037,790.8385451938937
1731015130.8740318,800.7469145871808,787.4724787526643,797.8586618598218,787.8899056121089
1731015130.8750088,799.6551704263735,789.0376412123194,798.3183936492914,786.6214609417406
1731015130.8789144,800.3591918953413,792.1189159132233,799.3088750964771,787.6216526950682
1731015130.88282,802.9863933150783,795.7907390164252,800.7600687438883,790.941947372808
1731015130.88525,806.2380817592996,799.1321506653754,802.3677206835122,795.7445649546365
1731015130.8867257,808.0621419301569,801.6097265174925,803.7166889617802,800.5975559320076
1731015130.8906312,807.0806423326352,803.1574270113268,804.5832962294388,804.3209265403784
1731015130.8924465,803.7019733296986,803.9864685749367,805.1437398974323,806.7781504853979
1731015130.894537,799.9919936762853,804.3756578952471,805.8765483531539,808.9591364564496
1731015130.8984425,798.3044540248301,804.6431546474063,807.1985898822513,812.1874821743527
1731015130.900885,799.6585477452047,805.2207741765322,809.1000907936125,816.956071496143
1731015130.902348,803.0758718583281,806.56777331487,811.0692693640002,822.2498559627725
1731015130.9062538,806.3479693100901,808.8254860893011,812.3920258936226,825.9485601119982
1731015130.9090064,807.6079716112129,811.475648715256,812.6113833953677,826.1377360012395
1731015130.910159,806.5104065692651,813.4054283008861,811.7795643837042,822.4330278030762
1731015130.9113386,804.1985198198583,813.4921041283621,810.3035951494328,816.340924064373
1731015130.914065,802.2120029887946,811.350116170391,808.5585082482623,810.3726512227158
1731015130.9165208,801.2789784377115,807.6810678660397,806.6617492261609,806.5592475825404
1731015130.917971,800.9431388338991,803.9299483252225,804.6217725591431,805.4164148873865
1731015130.9218762,800.2234347245303,801.4603537215285,802.6609363919305,805.9802560346038
1731015130.9257815,798.627416039336,800.8072906469594,801.3069721871028,806.7071895505411
1731015130.9296875,796.5937377667981,801.4904300414208,801.0822776604434,806.5069274285195
1731015130.930231,795.0289195236544,802.4529848660035,802.0523479860975,805.2766995168273
1731015130.9321563,794.4575019076324,802.7650261761812,803.6688054925027,803.7729318989012
1731015130.933593,794.6121226823773,802.1108928982746,805.0900981206847,803.05050430114
1731015130.9374986,794.8046966381322,800.8184755017518,805.7492268446764,803.8279198774839
1731015130.9414043,794.667830827444,799.5450926111953,805.7372894839165,806.081179157079
1731015130.9439807,794.5484130385055,798.9087395631625,805.7103622070572,809.0326102926313
1731015130.94531,795.1898130950913,799.2547317074873,806.3591074650247,811.5089231212958
1731015130.9477916,796.9801032820841,800.5589118863508,807.7828454564616,812.4597121703289
1731015130.9491236,799.4233265951518,802.4172329352725,809.2144369520512,811.379433119281
1731015130.9492154,801.3252753719147,804.1583821289981,809.3627155326828,808.4876143693788
1731015130.9531212,801.6099977906922,805.1351763727243,807.2281700931259,804.6559359320008
1731015130.9570267,800.1423676515644,805.0934027688068,802.8617437759201,801.1133133427147
1731015130.9609325,797.8787549250106,804.357036777445,797.5110369240356,798.9789400532561
1731015130.9634273,796.1913051746702,803.6490715908815,793.0205313567984,798.7783429759406
1731015130.964838,795.8897792342891,803.6597997479802,790.8925075785138,800.2120596856348
1731015130.968016,796.7039246524494,804.6831131833779,791.611339858069,802.3675930616345
1731015130.9687436,797.5912891327237,806.5538545410254,794.5663631010698,804.2633422907436
1731015130.972649,797.5802728838339,808.8469579770317,798.485321755911,805.3409382199228
1731015130.9765549,796.4974567033538,811.1204271741319,802.0587703476778,805.5587679616247
1731015130.9789555,795.0814969214919,813.0307112857046,804.4510112004932,805.0810520329004
1731015130.9790626,794.4522069837799,814.3138960196401,805.5108210163854,803.9049274044878
1731015130.9804604,795.3318691162243,814.7334417591425,805.6336577011285,801.8042831783797
1731015130.984366,797.5584043590277,814.0814901525122,805.3962035665671,798.6502683662982
1731015130.9869084,800.2169969557985,812.2498377404502,805.2135026139819,794.7815318331615
1731015130.9882717,802.2699677118384,809.3402261689614,805.2165442606699,791.0146361615612
1731015130.9921772,803.1932344434389,805.7677678295188,805.3425551942892,788.2130737669188
1731015130.9946978,803.1549501977746,802.2781187161821,805.4867629379501,786.7703551371284
1731015130.9960828,802.6970819566939,799.7637197513542,805.5924781357484,786.4532646174154
1731015130.9999886,802.2858471025204,798.8506023826333,805.6593179375529,786.6886077236901
1731015131.003894,802.0929594015025,799.4855937860052,805.7114116271634,786.9771635208746
1731015131.005801,802.0588918350784,800.924233137174,805.7683710744021,787.1036260717888
1731015131.0077996,802.0613297852639,802.2361836830337,805.8356204352274,787.0885760399188
1731015131.0103333,802.0272447828495,802.899530232882,805.909099721961,787.0344266979658
1731015131.0117054,801.9504127547093,802.9651101427669,805.983211072282,787.0126204071398
1731015131.0139298,801.8572481776483,802.7756176038457,806.0551948230567,787.0359717985057
1731015131.0156107,801.7717398900916,802.6202751698142,806.1252370589378,787.0838929488835
1731015131.0195165,801.7018998417743,802.5960500682954,806.1946753417448,787.134262934486
1731015131.0234222,801.6439225497176,802.6604040966579,806.2645081420014,787.1781348407767
1731015131.0246933,801.5913569753583,802.7386231844348,806.3349662073659,787.2178422534153
1731015131.0259688,801.54070159701,802.7892384644034,806.405808267725,787.2591424501862
1731015131.0273278,801.4919659602037,802.811107814614,806.4767433511993,787.3057019974661
1731015131.0312333,801.4467177566105,802.8211759904535,806.5476435580005,787.35803357231
1731015131.035139,801.40626932734,802.8335861151096,806.6185335595294,787.4150099555911
1731015131.0390446,801.3710571898872,802.8524427548131,806.6894903928708,787.4755396399512
1731015131.041604,801.3409220136849,802.8749707898334,806.760567349982,787.5392648883224
1731015131.0429502,801.3156006591895,802.8971708865145,806.8317765364411,787.6064034315671
1731015131.0435858,801.2950018912989,802.9170150014025,806.9031088588368,787.6773209823649
1731015131.046856,801.2792168028935,802.93458809371,806.9745583000582,787.7522551437683
1731015131.0489044,801.2684086672394,802.9508287708159,807.0461310943742,787.8312768930911
1731015131.0507617,801.2627197643479,802.9664546325415,807.1178377411837,787.9143782434614
1731015131.0546672,801.2622436974117,802.9816384933794,807.1896775041721,788.0015593640785
1731015131.0572395,801.2670431246419,802.9962096625767,807.2616312394343,788.0928610222686
1731015131.0585728,801.2771758821448,803.0099551448933,807.3336777142786,788.1883532194644
1731015131.0624783,801.2927083237525,803.0227755940348,807.4058343541029,788.2881120388863
1731015131.0624783,801.313714775533,803.0346813945149,807.4781930579588,788.3922058340424
1731015131.066384,801.3402713687649,803.0457224778407,807.5508932232214,788.5006940657674
1731015131.0702896,801.3724514042102,803.0559335103482,807.6239895772874,788.6136324173565
1731015131.072875,801.4103243875261,803.065319937101,807.6972684255246,788.7310775872353
1731015131.0741951,801.4539571977631,803.0738703102,807.7702110938208,788.8530889758656
1731015131.0781007,801.5034150363439,803.081572221253,807.8423525834534,788.9797275916127
1731015131.0813706,801.558760992206,803.0884198430244,807.9140379516107,789.1110536083955
1731015131.0820065,801.6200548782275,803.0944131629592,807.9870042653326,789.2471241746769
1731015131.083879,801.6873532960474,803.0995541141167,808.0637105758741,789.3879933005537
1731015131.085912,801.7607126114515,803.103843750181,808.1447285191002,789.5337154063582
1731015131.0885105,801.8401939184557,803.1072815887226,808.2254120815113,789.6843518341814
1731015131.0898178,801.9258649364206,803.1098663086535,808.2957249328164,789.8399749922171
1731015131.0937233,802.0177917803173,803.1115967270274,808.3476448778365,790.0006612509505
1731015131.0976288,802.1160191054162,803.1124725117487,808.3893712601323,790.1664680827948
1731015131.100263,802.2205520999328,803.1124944540024,808.4545168094835,790.3374076662458
1731015131.1015346,802.3313689465443,803.1116640815886,808.5856851278119,790.5134504526171
1731015131.1041458,802.4484859904717,803.1099823981061,808.7805341713228,790.6945930954524
1731015131.10544,802.5720507026018,803.107448176747,808.9234484922086,790.880977259676
1731015131.1093457,802.7023640761552,803.1040574640813,808.7660737492356,791.0729540052981
1731015131.1132514,802.8397062114458,803.09980654136,808.0124288137168,791.2709278666246
1731015131.117157,802.9839574892984,803.0946986664806,806.4887687545504,791.4749149446235
1731015131.1188536,803.1342948068825,803.0887498824891,804.304174290956,791.6840779240752
1731015131.1191556,803.2895039605519,803.0819842537941,801.9098452667066,791.8968832252833
1731015131.1197813,803.449271332997,803.074411436445,800.0135102160234,792.112476995111
1731015131.1210625,803.6158761637078,803.0659957360194,799.3422101752093,792.3328963610231
1731015131.1249683,803.7943546331787,803.0566503031755,800.2986467773967,792.5640092910135
1731015131.1288738,803.9888698325037,803.0462981527077,802.6570763130266,792.8121299521275
1731015131.1327794,804.1955310443391,803.0349996449137,805.5191012476693,793.0754925596868
1731015131.1354167,804.3973893813455,803.0230483286304,807.6717789225945,793.3361560338678
1731015131.1366851,804.5717674091214,803.0108509158099,808.2394407228044,793.5646741210595
1731015131.138048,804.7156164210984,802.998470463844,807.2498127962754,793.7476608718788
1731015131.140591,804.87591484018,802.9850222255105,805.6836699824453,793.9285053095074
1731015131.1444962,805.1474848023421,802.9685192973761,804.8729772690181,794.2193506157873
1731015131.148402,805.5978103348956,802.9467255396844,805.6013346862715,794.728372057423
1731015131.151052,806.1301763317128,802.9186427169781,807.5524135125536,795.394378008043
1731015131.1523075,806.3987643588217,802.8852779550974,809.5422560424141,795.8421366457103
1731015131.153828,805.9572905864544,802.848876291705,810.3772505810282,795.483626693945
1731015131.156213,804.7018067929813,802.8114335434426,809.6946411393948,794.0054730753899
1731015131.1569405,803.3116537245222,802.7738433941297,808.180069199145,791.9942222659597
1731015131.1601188,803.1374328528395,802.7360517544284,807.0569254067246,791.0752315935048
1731015131.1640244,805.3329108466664,802.6976609192591,807.2627846717382,793.1618460353968
1731015131.1666875,809.8327648390696,802.6583863915753,808.8822011682751,799.2112261195531
1731015131.16793,815.1510293149888,802.618176913097,811.1604026877363,808.4260903898572
1731015131.1718357,819.3654653939357,802.5771186279469,813.0213005780047,818.5232934402
1731015131.1757412,821.5618911478412,802.535307612212,813.7199232620013,826.8553878517771
1731015131.175833,822.4879147626028,802.4927888704963,813.2184656642826,831.6089606839566
1731015131.1796467,823.7963280681354,802.4495621546885,812.0939780447096,832.4234556705196
1731015131.182323,826.535939169521,802.4056129069518,811.1211929160374,830.3071249165042
1731015131.1835525,830.2438314042221,802.3609346679627,810.8732964093115,827.1081590927699
1731015131.187458,833.4034613642455,802.3155338084277,811.5813193211776,824.8089345493598
1731015131.1888025,834.7605686281025,802.2694237199165,813.2049480686239,824.8046667332443
1731015131.1913636,834.291158235274,802.2226181562936,815.4987562250309,827.3557731314896
1731015131.1947255,833.0663587613948,802.1751284394717,817.9720236854489,831.4683122181655
1731015131.195269,832.2718895921544,802.1269640835292,819.8752351465043,835.3392596443442
1731015131.1979582,832.2534078049553,802.0781343605795,820.4027484908808,837.2113572432971
1731015131.199175,832.2939101478415,802.0286490096771,819.0895182303556,836.2249468870277
1731015131.2030804,831.2096609911463,801.978517924517,816.1275404088644,832.8068572107036
1731015131.2069862,828.2864791262665,801.9277508638432,812.3249097443564,828.3546701062695
1731015131.2108915,823.8795430428247,801.8763583402656,808.7035011474686,824.3974337207164
1731015131.2135935,819.2440437870515,801.8243536899367,806.0170661143666,821.7990211848203
1731015131.2136178,815.7094620837635,801.7717543614244,804.5088925684813,820.5612060281071
1731015131.2147973,813.7973112952513,801.7185792111597,804.014959649157,820.2750839349274
1731015131.218703,812.9315412261379,801.6648404179706,804.2631234522781,820.685036704892
1731015131.2226086,811.9400209554939,801.6105347442848,805.1117782868248,821.7824638929226
1731015131.2237773,809.9492186799775,801.5556460787254,806.5545881483125,823.4202086731284
1731015131.226514,807.0065440466954,801.5001705580986,808.513114683531,824.9939733340515
1731015131.2292292,804.0110591121903,801.4441576806737,810.6166392523036,825.6337294377179
1731015131.23042,802.064184517506,801.3877288260745,812.2031559304003,824.7396824677191
1731015131.2325103,801.755832968808,801.3310162693882,812.6213627537194,822.3391739921051
1731015131.2343254,802.9024012117399,801.274005872038,811.6625648742627,819.0203034735672
1731015131.2382312,804.8657356569277,801.2163843530017,809.7957034685603,815.673927369803
1731015131.2421367,807.094862082468,801.1576192349845,807.9709532958277,813.3278991284346
1731015131.2448645,809.355180273803,801.0974638907454,807.0686557846502,813.0168296719631
1731015131.2460425,811.4510166530697,801.0367173979087,807.3695436993813,815.4587853009959
1731015131.249948,812.8198026016835,800.9774725764972,808.4410001909848,820.5746623523182
1731015131.2514029,812.5793395079016,800.9218125859562,809.5215225689598,827.2228898335895
1731015131.2538536,810.1722922351272,800.8687924733097,810.09670428646,833.4826014249153
1731015131.257759,806.097357561253,800.8118175464762,810.2314943538883,837.4357862208591
1731015131.2587516,802.0238257662766,800.740753088081,810.4465189867412,838.0474009051399
1731015131.2605,800.0515873949289,800.6519658327843,811.2803672447563,835.6618848307452
1731015131.2616649,801.5543517436805,800.5621941190168,812.8763953662444,831.8070472672302
1731015131.2655704,806.3535396121556,800.5110777052813,814.8638734513368,828.3381665675548
1731015131.269476,812.7309966324167,800.5333650827515,816.5674631215425,826.3668722824103
1731015131.2702951,818.2524033467117,800.6001728315221,817.3590402401989,825.6594461208102
1731015131.2733817,820.9203255744898,800.5711621028777,816.9094666359794,824.9564082597657
1731015131.2761354,820.0359081516458,800.2340294452472,815.2297740595958,822.9852837081748
1731015131.2772872,816.3401269848388,799.4663332122082,812.581834438241,819.3582950240191
1731015131.2811928,811.4159892471139,798.4142115879706,809.4044137003923,814.675323928867
1731015131.2850986,806.7629771774989,797.4941978240965,806.2910776343094,809.9221649794059
1731015131.289004,803.1403869516647,797.1705902272189,803.9194985766178,805.8636170472176
1731015131.2891877,800.5461177094454,797.6953284749545,802.8462961425946,802.9332928856385
1731015131.2917707,798.6989537604236,799.0031198456487,803.2431476644946,801.4249253793391
1731015131.2929096,797.536539522544,800.7661751869842,804.7736528425561,801.4803924768456
1731015131.2937262,797.3141930290045,802.5110439558479,806.7453655083835,802.7867010000716
1731015131.2968154,798.2768688927359,803.7451991734067,808.4636801714263,804.4277420829717
1731015131.3007207,800.2264437626244,804.0953778348129,809.5510029239831,805.2631179103871
1731015131.3046265,802.3772632704,803.4530976830125,810.0223286885418,804.6151784713106
1731015131.3074062,803.6799649365639,802.0801732997321,810.1070571112796,802.6669127075962
1731015131.3080802,803.4403242811463,800.5851811349962,810.0072985176279,800.2338652465388
1731015131.3085322,801.7838189641069,799.6924150574865,809.8065114886788,798.1382726055584
1731015131.3124378,799.5550110291083,799.8490171335015,809.5642207758613,796.690607402617
1731015131.3163433,797.6621791170161,800.9062332349541,809.4244049879178,795.6022188909105
1731015131.3202493,796.3851721054574,802.160569391434,809.547309212062,794.2997542223751
1731015131.3230417,795.2600862149236,802.8027538212624,809.8868193081304,792.3842475699257
1731015131.3241546,793.6594426305946,802.4680226925099,810.0619226528137,789.9321024561043
1731015131.3269725,791.5305153473636,801.4740628990819,809.5436177009259,787.4319829738773
1731015131.3280602,789.5865872295893,800.5985426482334,808.0811551800974,785.3924641178232
1731015131.3287008,788.7535534779516,800.6106376313502,806.0117061352439,783.9532151714664
1731015131.331966,789.3771672818174,801.8867018172097,804.1396551274269,782.9029952148286
1731015131.3358717,790.9254806549595,804.276840395111,803.2286682301991,782.1410704418905
1731015131.3386767,792.463389291751,807.1876778713543,803.4948250830741,782.083208086301
1731015131.339777,793.4634990499981,809.7926633544369,804.4976529511234,783.4315660985148
1731015131.3436828,794.2110995569623,811.322829641762,805.491432409046,786.3511014641979
1731015131.345865,795.4320218982673,811.3753954736376,805.9283539491316,789.8414713522117
1731015131.3475883,797.4670400939603,810.0894939552406,805.7179981713605,792.0891293960673
1731015131.3514938,799.7162927816614,808.033908898683,805.0951638663475,791.6975802182634
1731015131.3543124,800.8624707346855,805.8386796726104,804.2933873615331,788.7914015395253
1731015131.3553996,799.7620645018349,803.8414737511291,803.3580488478798,785.0227898209174
1731015131.3593051,796.3722030228566,802.0413856322965,802.2468371054774,782.4685875151705
1731015131.363211,792.0373448145959,800.3851686416774,801.0457511921229,782.3446691979456
1731015131.363675,788.8972630841185,799.0966587835255,800.0140367042017,784.5173375311524
1731015131.3647575,788.7621184033454,798.7038325291549,799.3962576552021,788.013837862335
1731015131.3671165,792.1340183598776,799.6787174858372,799.2272311951048,791.9210561924116
1731015131.369948,797.9430783929525,801.9635297993336,799.3388409360173,795.8904161142809
1731015131.371022,804.1031827850938,804.8106209562304,799.5199375715016,799.9384247870412
1731015131.3749275,808.4844204934984,807.155841138923,799.6478857066656,803.85049894297
1731015131.3788333,809.7014867623122,808.300734758178,799.7066210350873,806.7880289633034
1731015131.3827388,807.3773820189692,808.3671387553167,799.733291117933,807.5123208340474
1731015131.3836498,802.0019245078125,808.1251216474282,799.7638497510293,805.1294124083814
1731015131.3855834,794.7044240465881,808.3098661176919,799.8109963058306,799.7856315437053
1731015131.3866444,787.0519869847392,808.988030508179,799.8694119662634,792.7038485791412
1731015131.39055,780.7193864628122,809.5039337041703,799.9293302949146,785.4703030520127
1731015131.3944557,776.942099719264,809.052303679873,799.9851695629079,779.1639403740531
1731015131.3983612,775.9839262303478,807.4017460354313,800.0366353668089,774.0881454485423
1731015131.3986497,777.0116158713629,805.166599766251,800.0858935208691,770.2690984315985
1731015131.401219,778.5610639383054,803.3970387545809,800.1348189567377,768.0987573573495
1731015131.402267,779.3966520305449,802.8235745929853,800.1839958318001,768.3703860499928
1731015131.4025424,779.3040637480043,803.3797610743346,800.2330949116096,771.6272913246798
1731015131.4061725,779.3360598771061,804.3802103967693,800.2816069442932,777.4712414101664
1731015131.410078,781.2420056631564,805.1518800013815,800.3292706541646,784.4832450822103
1731015131.4139838,786.2344951621462,805.5266912747893,800.3761021176007,790.7749502198931
1731015131.416854,793.75750927089,805.7772644360267,800.422234915869,794.6743594836577
1731015131.4178894,801.1798089448424,806.1472912363323,800.4677795453765,795.1558829033216
1731015131.4214349,804.9577610915608,806.5121085236049,800.5127791932184,792.0520504586405
1731015131.4217951,802.8007110260452,806.5114109192441,800.5572333601777,786.2062358453245
1731015131.425701,795.4042956665609,805.9610593462448,800.6011330584895,779.4340147927414
1731015131.4296062,786.3390324285621,805.0752333139332,800.6444764961478,773.9851446417849
1731015131.4324896,779.9542743474864,804.2893142439582,800.6872684702405,771.5487740028055
1731015131.433512,778.7333092399258,803.9211107679944,800.7295224871027,772.3945804463469
1731015131.4336245,782.0132458288671,804.0226053727475,800.7712758187656,775.3084028044373
1731015131.4374175,786.9058359981126,804.4856985503188,800.8126034609998,778.4013624660935
1731015131.4403272,790.5675648940851,805.1810861405387,800.8535975813677,780.2117719001996
1731015131.441323,792.0606175804526,805.9615415555414,800.8942911518064,780.3820779307811
1731015131.4452288,792.5342962796603,806.61263829805,800.9345633875093,779.5896064846553
1731015131.448125,793.8318863970823,806.9178900086273,800.9741431471339,778.9080312610325
1731015131.4491343,796.7964806987943,806.8220684097388,801.0128372787029,779.0452925191096
1731015131.45304,800.6428377863723,806.4960423064127,801.0509507218293,779.9117524965334
1731015131.4569457,803.7598227009818,806.1860441054747,801.0895414541426,780.7783036899775
1731015131.4592197,805.0822874924094,805.9805355308978,801.1299199384353,780.9188232084932
1731015131.4608512,804.7865103222731,805.7409141111258,801.1721182379126,780.2548263506105
1731015131.4637604,803.8136613500005,805.2764323714396,801.2131875022485,779.4614205765541
1731015131.4647567,802.850090653495,804.5809865761748,801.2475712612834,779.4178422181702
1731015131.4685988,801.814095819245,803.8791260304544,801.2717657538453,780.4788374245979
1731015131.4686625,800.2658275404133,803.4329214947968,801.2921800762626,782.2249289437518
1731015131.472568,798.1659266123525,803.319745254041,801.3290163663365,783.8863444028168
1731015131.4764736,796.1028656119993,803.4054788394609,801.4052555429228,784.9779540915299
1731015131.4781122,794.7919657781239,803.4994776872893,801.5170196210136,785.5458409314408
1731015131.479396,794.4786548047498,803.5003987464104,801.6037445524695,785.9258792849831
1731015131.480379,794.860106347555,803.4164913244059,801.5614394245706,786.3911629764752
1731015131.4842849,795.4520255000373,803.3026116512588,801.3374285395754,787.010905505671
1731015131.4881904,795.938792815469,803.2008859778481,801.0785271739958,787.7181270418629
1731015131.4920962,796.2563245828948,803.1221385272333,801.1930124316661,788.4274419883782
1731015131.495031,796.4827939640109,803.0571350410667,802.1369672364114,789.0983575721009
1731015131.4960015,796.7067642716726,802.9938405808329,803.9161607136139,789.734812164268
1731015131.4970045,796.9653155475091,802.9265520313318,805.7093172270847,790.3573400096243
1731015131.4999073,797.2500411971621,802.8558555635975,806.2032738263641,790.9807791385579
1731015131.5035732,797.5381853867542,802.7846747285616,804.6562833271606,791.6082635611998
1731015131.503813,797.8150383917285,802.7151099964244,801.8035842101698,792.235959864332
1731015131.5077186,798.0785509860312,802.6475940545703,799.6321274915249,792.8594595303309
1731015131.5106666,798.3334131342457,802.5815705406785,800.0307056201731,793.4768878210922
1731015131.511624,798.5843008103561,802.5164035820285,803.3612136323616,794.0886584724585
1731015131.51553,798.8329838041361,802.4518182657795,808.1132955116462,794.695939794328
1731015131.515897,799.0788998482243,802.3878642885893,811.9491916360528,795.2995252575694
1731015131.5194354,799.3208597871724,802.3246973803912,813.343359892816,795.8995836158172
1731015131.5233407,799.5581733890014,802.2624189823991,812.5443307411417,796.4959432198053
1731015131.526302,799.790822645742,802.2010411392845,811.1199124806321,797.0884282712559
1731015131.5272467,800.0191173310694,802.140527145733,810.4885808003208,797.6770071479704
1731015131.5311522,800.2433431948372,802.0808393595431,810.674921659209,798.261766964073
1731015131.5347896,800.463626791204,802.0219602382637,810.3511327431895,798.8428290347431
1731015131.5350578,800.6799778972627,801.9638887581086,808.1538585492295,799.4202918408001
1731015131.5385478,800.8923817945221,801.9066285212483,804.1695427448985,799.9942222302461
1731015131.5389636,801.1008553038275,801.8501797058401,800.2840658947864,800.5646740477487
1731015131.5419374,801.305452067382,801.7945376010143,798.9939870261298,801.1317072651194
1731015131.542869,801.5062424108329,801.739694750312,801.5615853425982,801.6953931713767
1731015131.5467746,801.7032946186949,801.6856432814759,806.9883157028185,802.2558053066372
1731015131.5506804,801.8966687227486,801.6323761393704,812.6482228251925,802.8130055754707
1731015131.553682,802.086420453716,801.5798876647034,816.0819837763272,803.367040408531
1731015131.554586,802.2726082575707,801.5281739883008,816.5539664335714,803.9179601513079
1731015131.5575728,802.4552972763214,801.4772325971023,815.2557179008296,804.4658591533814
1731015131.5584917,802.6345568348357,801.4270598134324,814.1701200442584,805.0109039786537
1731015131.5623972,802.8104515243351,801.3776463781402,814.590842319158,805.553293689567
1731015131.5663028,802.9830316354097,801.3289748201479,816.3936592281316,806.0931210946846
1731015131.5702083,803.1523347983839,801.2810249348374,818.443117989225,806.630205918001
1731015131.5725744,803.3184097554594,801.2337903682542,819.6335836138131,807.1641050548054
1731015131.5732083,803.4813562714453,801.1872970444109,819.6791869083468,807.6945194839471
1731015131.5735223,803.6413445532799,801.141599100506,819.1119142050584,808.2220321137871
1731015131.574114,803.7985590406978,801.0967283634935,818.6655265955756,808.7485427624069
1731015131.5780196,803.9530481342184,801.0526091532776,818.678371105087,809.2763661025424
1731015131.5819252,804.1045735082843,801.00901626158,818.985147477372,809.8055301584419
1731015131.5858307,804.2526773646347,800.9656944776387,819.2328083499305,810.3308152101457
1731015131.5888438,804.3971588066744,800.9226802173221,819.2179403720165,810.8424925439068
1731015131.5897365,804.5388094299043,800.880625807504,818.9704860036319,811.334595073502
1731015131.591467,804.6796825862602,800.8406585300321,818.6314991172129,811.818682175182
1731015131.593642,804.8218862236985,800.8033621435479,818.3137527649899,812.3303589517723
1731015131.5975478,804.9646955070217,800.7671972804906,818.0513342944537,812.9094056432949
1731015131.6014533,805.101953513126,800.7279123385151,817.8244919909063,813.5472244844234
1731015131.6044793,805.2239202623094,800.6811142898014,817.6030921076285,814.1341185267613
1731015131.6053593,805.3267817542015,800.628451258449,817.3715037451999,814.4811985655525
1731015131.608497,805.4261532901182,800.5832020598789,817.130141288132,814.4790812677637
1731015131.6092646,805.5602345663739,800.5663347989722,816.8860714301928,814.3287948252071
1731015131.6103592,805.7642678572189,800.5860418094107,816.6448089161083,814.5924457759397
1731015131.61317,806.01525472125,800.608338056248,816.4077559959086,815.8233901988881
1731015131.617076,806.1875137710398,800.5488599003858,816.1736696906713,817.9428227348351
1731015131.6201146,806.0970529613036,800.3236039852203,815.940944181754,819.975790425784
1731015131.6209817,805.6849521886932,799.9559416776757,815.7088176654139,820.6047330680249
1731015131.624887,805.2479904539765,799.6538981809052,815.4773629306985,819.2319146304338
1731015131.6287928,805.4476030746658,799.7414606349757,815.2469611194408,816.6269237462733
1731015131.6292517,806.8915175020201,800.4384797562859,815.0178822156962,814.4638600773529
1731015131.6326983,809.526777934489,801.6396369064804,814.7901735015165,814.0143444551456
1731015131.63575,812.4567443418985,802.8721750068371,814.5637499007598,815.0927035175423
1731015131.6366038,814.4979833547117,803.5055688042362,814.3385143971379,816.2045874928086
1731015131.6405096,815.0399444203517,803.1298801045109,814.1144160913308,815.7849097114204
1731015131.6434717,814.4216903489212,801.8690960280462,813.8914456869454,813.4262206754289
1731015131.6444151,813.4919362109235,800.3628703399042,813.6696079743778,810.0569686496199
1731015131.6481442,812.7838199766303,799.3544057444107,813.4489024563104,807.0453299673328
1731015131.648321,812.0620266966824,799.1577907443101,813.2293186631579,805.1440941067606
1731015131.6513853,810.6257020155934,799.4318372266451,813.0108370670011,804.1755350402074
1731015131.6522264,808.0709285077562,799.476358035,812.7934271553539,803.5272122141561
1731015131.656132,804.8419751377584,798.8541688508849,812.5770452247338,802.7961754987513
1731015131.6600375,802.109638137288,797.8702062561409,812.3616438377217,801.9570550543218
1731015131.6639433,801.0726379295988,797.5153963832785,812.1472005051088,801.0649233488483
1731015131.6670208,802.2034760178315,798.8503529464941,811.9337502079936,800.0038887351715
1731015131.6670363,804.9578451203635,802.2208810229256,811.7213777416548,798.6574311374151
1731015131.6678488,808.1161300202411,806.8725091554701,811.5101259147269,797.3144694709606
1731015131.6717544,810.5080564232937,811.2839162600629,811.2998408008565,796.7791094121872
1731015131.67566,811.6255767494298,813.9952226429534,811.0900957889485,797.9022204520192
1731015131.6784458,811.692059685209,814.3199408219642,810.8804099023865,800.8353174348955
1731015131.6795657,811.1502447336578,812.4892114033719,810.6708337044162,804.6323636567919
1731015131.6826563,810.0378311985609,809.325200788937,810.4625387259447,807.5993305597445
1731015131.6834712,807.8904690443335,805.8746012264465,810.2575581114776,808.2410267426475
1731015131.6859293,804.3676855584138,803.2225392674783,810.0569292932148,806.2110073177047
1731015131.687377,800.0485879512402,802.3109180551924,809.8578182220207,802.6083214260815
1731015131.6912825,796.5317798993327,803.5665973773038,809.6524525184752,799.3388838451192
1731015131.695188,795.5260546580075,806.5229284546289,809.4328073381938,797.9141855786386
1731015131.6982915,797.5935535612678,809.8602835830055,809.2018426052714,798.5574028479516
1731015131.6990938,801.6375198736004,812.0211295624036,808.9835828707438,800.3068311558268
1731015131.7029994,805.6231561172438,812.0304197529483,808.8156548734325,801.9571452247673
1731015131.7048216,807.9452808038237,809.9431371132215,808.711255517173,802.9433570874821
1731015131.706905,808.350311083746,806.6653034615416,808.6034245028976,803.4370818923736
1731015131.710811,807.7979348136125,803.3983161125583,808.3234333109419,803.7938248173162
1731015131.7134204,807.547711030357,801.1381104225384,807.6723498265965,804.0733520628621
1731015131.713927,808.2532528268583,800.4235558443577,806.5726950357493,804.0838220917913
1731015131.7147162,809.6678109666376,801.2444812229121,805.1803955377305,803.7468462185104
1731015131.7186215,811.0252849692893,803.0439872895496,803.8334047858509,803.3284382286921
1731015131.7225275,811.6932937097952,804.9381028674466,802.8538482233587,803.3555244777655
1731015131.723714,811.5729260271756,806.1804401768692,802.3615903065785,804.351796532356
1731015131.726433,811.0073390597648,806.5499207889839,802.2459315085267,806.5525316231589
1731015131.7295623,810.4088815757635,806.3227404863527,802.2922049209516,809.6729264934371
1731015131.7303386,809.9846302912206,805.9227848334336,802.3320722417817,812.8529218345708
1731015131.7342443,809.7205687880382,805.6183103852583,802.3053444058789,814.949658537664
1731015131.73815,809.5128497518607,805.4579317541577,802.2304012439654,815.1298905731875
1731015131.7420554,809.2827568283576,805.3703082431247,802.1460979454336,813.36706798108
1731015131.7426064,809.0111992654523,805.2786803351828,802.0752084693473,810.4331049687788
1731015131.7451978,808.716536909218,805.1524253338296,802.0191531521153,807.4018207283751
1731015131.7459612,808.4217307438032,805.0000446331824,801.9692025771592,805.0803183926544
1731015131.748395,808.137374734134,804.8415914037527,801.9176767353671,803.7419921383108
1731015131.7498667,807.8621378916561,804.6895649966266,801.8621166084824,803.2085658365193
1731015131.7537725,807.5904075409177,804.5454069287741,801.8038195364998,803.1063102940267
1731015131.757678,807.3182501550497,804.4049002152053,801.7448642529965,803.1071749691212
1731015131.7608333,807.0449238975028,804.2640244909073,801.6863446834251,803.0458925548077
1731015131.7614987,806.7715338953437,804.1213494150229,801.6282265601471,802.9040598811986
1731015131.7615836,806.4992995561756,803.9774449507679,801.5699909656961,802.7287813064756
1731015131.765489,806.2287377517939,803.8333780159276,801.5112138594438,802.5629153763042
1731015131.7693949,805.9597500357459,803.6897558375277,801.4517559847179,802.4197437662164
1731015131.7733004,805.6920439438802,803.546602058439,801.3916669745612,802.2912128969307
1731015131.7764688,805.4254346528676,803.4036681468206,801.3310271444831,802.1650178482228
1731015131.777206,805.1599067287113,803.2607372127715,801.2698617651055,802.0346698297027
1731015131.7803912,804.8955341757236,803.117734625115,801.208139419565,801.9002110332096
1731015131.7811117,804.6323895466556,802.9746865594127,801.1458054106712,801.7644478079517
1731015131.7833695,804.3705051685943,802.8316394953805,801.0828068909315,801.6296062658763
1731015131.7850173,804.1098810323647,802.6886137970298,801.0190990601917,801.4962575763858
1731015131.7889228,803.8505078262622,802.5456010566702,800.9546457303616,801.3638898461094
1731015131.7921042,803.5923820482963,802.4025808009628,800.889428317553,801.2318302687967
1731015131.7928286,803.3355081727547,802.2595327554975,800.8234589980596,801.0997416118717
1731015131.796734,803.0798938184299,802.1164377660016,800.7567729270622,800.9676255301121
1731015131.7992835,802.8255450202615,801.9732753666536,800.6893748350011,800.8356118516691
1731015131.80064,802.5724648741784,801.8300294821236,800.6211554523071,800.7037875551416
1731015131.8045454,802.3206549794523,801.6867042727331,800.5518614404513,800.5721496932517
1731015131.8077395,802.07011726459,801.5433348238581,800.4812360221337,800.4406410328976
1731015131.8084507,801.8208538413878,801.3999659124446,800.4093533918555,800.3091990062404
1731015131.8123567,801.5728640615478,801.256586300974,800.336917632155,800.1777798237187
1731015131.8162622,801.3261407197069,801.1130561100774,800.2650439045481,800.0463568712946
1731015131.8181765,801.0806702351722,800.9691249576855,800.1941528236944,799.9149090827643
1731015131.818344,800.8364416083592,800.824635498957,800.1224088465589,799.7834122953523
1731015131.8201678,800.5934624208957,800.679862344146,800.0453681564386,799.6518373157814
1731015131.823375,800.3517677900637,800.5356729120722,799.9589528647766,799.5201521059132
1731015131.8240736,800.1113999403829,800.39303986021,799.8658416695423,799.3883244002396
1731015131.827979,799.8723492221615,800.2517533629028,799.7805226134363,799.2563229002634
1731015131.8318846,799.6344912683138,800.109142871963,799.7238992731072,799.1241171375814
1731015131.8357904,799.3976065623815,799.9606762458307,799.7014683357421,798.9916768768733
1731015131.8370686,799.1615633002767,799.8040467082245,799.6751055073198,798.8589717206046
1731015131.8390105,798.9266143373399,799.645405449152,799.5613246698533,798.7259710736988
1731015131.839696,798.6935279011284,799.5014405488208,799.2946708810778,798.5926443110783
1731015131.8436017,798.4631415631795,799.3885077544161,798.9536095970522,798.4589609535903
1731015131.8475072,798.235222829091,799.296630408118,798.858391123265,798.3248907633206
1731015131.8514128,798.0073729707042,799.1636103183405,799.4909205112203,798.1904037702867
1731015131.8533185,797.7756251096835,798.8793938899112,801.181044217236,798.0554702783694
1731015131.8546455,797.5381150453866,798.342969522589,803.7536812941395,797.9200608836435
1731015131.8553183,797.3005659952511,797.5644864755343,806.4753487381248,797.7841465109191
1731015131.855961,797.0780243865761,796.7641385161064,808.4197637313017,797.6476984587845
1731015131.859224,796.885362722888,796.3743773133086,808.9732994960283,797.5106884432873
1731015131.8631296,796.7154928309769,796.8698632929068,808.0890834239237,797.3730886376034
1731015131.8670352,796.5207757803785,798.487744927116,806.1927156934199,797.2348717108189
1731015131.8702812,796.2292551132768,801.0296863649253,803.9609171685788,797.0960108687489
1731015131.8709407,795.8194227689727,803.8829553559464,802.1764163383866,796.9564798940362
1731015131.8748465,795.4259011794386,806.2359447732831,801.6068509146846,796.816253176674
1731015131.8748536,795.3739586059835,807.3862112048138,802.7474068714127,796.6753057276434
1731015131.878752,796.0306869799236,807.0440565589965,805.4718686057336,796.5336131835444
1731015131.8826578,797.5061588202417,805.5049971708615,808.8949263763421,796.3911518334667
1731015131.8859167,799.4490071458677,803.5448685086353,811.7036889859935,796.2478987074455
1731015131.8865633,801.185477224776,802.0282476695376,812.854195695253,796.1038317269987
1731015131.888293,802.1707071677421,801.4633845136354,812.1929308175976,795.9589298270581
1731015131.8904688,802.4350036338435,801.8219188912042,810.5695111939586,795.8131728784326
1731015131.893746,802.6709247383762,802.7311907177028,809.3398242758254,795.6665413018782
1731015131.8943746,803.8134392305584,803.8344014166906,809.5509579308596,795.519015567291
1731015131.89828,806.3129586061111,805.0087474976398,811.2971917785562,795.3705761937807
1731015131.901552,809.6182070573971,806.3077873678428,813.6466803411523,795.2212049535167
1731015131.9021857,812.3677596073468,807.7393131817662,815.2113271099432,795.0708871631067
1731015131.9060917,813.2795392867799,809.0796030576895,815.0271059215955,794.9196132094362
1731015131.909997,812.0811478854077,809.851266990908,813.1707150048127,794.7673761098653
1731015131.9126384,809.6926641766969,809.4872747316049,810.6704728434062,794.6141634246767
1731015131.9139023,807.4869830265815,807.6292532229187,808.757630851945,794.4599478165574
1731015131.9171877,806.2637112748954,804.4252186411543,808.0198274729365,794.3046882139729
1731015131.9178083,805.7944264150959,800.6198433802181,808.1202361058329,794.1483539797226
1731015131.9217138,805.2407522837534,797.2936604264073,808.2807570997483,793.9909674922005
1731015131.9232676,803.9873255503849,795.3485436822201,808.059257733028,793.8326276863323
1731015131.9256194,802.1653097375805,795.0662577831117,807.6967306680878,793.673455095086
1731015131.9295251,800.5093794834879,796.0351679216855,807.7411463585731,793.5134341698239
1731015131.931531,799.7621607404727,797.4527006643018,808.3681228571703,793.3522458495614
1731015131.9328227,800.1311330074049,798.5509931035009,809.1042491629894,793.1893208498097
1731015131.933431,801.1830936961996,798.8898399348993,809.229312300034,793.0243290075053
1731015131.9373362,802.2119757466361,798.4416648193903,808.4354522538849,792.8579717741186
1731015131.941242,802.7852719465714,797.52900221406,807.0739658003282,792.6923279507865
1731015131.9451475,803.0499155439678,796.6777070597823,805.7671278056989,792.5296574159963
1731015131.9484582,803.5499382455877,796.4147992859449,804.8250961798761,792.3693562714265
1731015131.949053,804.6879400786339,797.0557346219794,804.0958634015612,792.2050372882682
1731015131.9504232,806.2719554691826,798.5639503022697,803.4006585106688,792.0261454072339
1731015131.9529588,807.5548581387237,800.5635295218589,803.0627453992096,791.8277739231573
1731015131.9568644,807.7823375726845,802.526326902384,803.8890078106468,791.6252845009324
1731015131.9582422,806.8169887287394,804.0527222580006,806.4826170174842,791.4588331800007
1731015131.96077,805.2923310066951,805.0691114204424,810.4632335579802,791.3677797874253
1731015131.9640937,804.1222366214715,805.7775935045579,814.3650194866294,791.3320675898026
1731015131.9646757,803.7671282784894,806.377210511263,816.44336736724,791.2214716119089
1731015131.9685812,803.9107599344928,806.8076424261004,815.8115933431459,790.8353853438985
1731015131.9693158,803.8479082370452,806.7897160758184,812.9940298888445,790.0906554099647
1731015131.9724867,803.2186023819195,806.159086526782,809.4508208122943,789.2661730277974
1731015131.9763925,802.3823634746666,805.1607638909602,806.490441778443,789.0220555755278
1731015131.9797292,802.0550819655948,804.3614088065716,804.469279349692,789.9788162319131
1731015131.980298,802.5311218947493,804.2053782470488,802.8760694810128,792.1058265942405
1731015131.9842038,803.2209836160915,804.6268814184668,801.1156223505805,794.5230957760739
1731015131.9881094,802.9675643685853,805.1137657163526,799.2352042388437,795.9881521091343
1731015131.9882083,800.9130605785961,805.1833423934077,797.9411075038649,795.6499831368827
1731015131.992015,797.2018875368967,804.812507264407,797.908093785322,793.4392037675299
1731015131.9932165,792.9422191419569,804.4044826057763,799.0255780658359,789.9170484463857
1731015131.9953644,789.4694663696386,804.3468665300918,800.3087510231644,785.9373236681059
1731015131.995921,787.5208996231437,804.634601895426,800.6364645373492,782.5048315907284
1731015131.9998262,786.9709308050528,804.9522654477058,799.719170071128,780.7823218270395
1731015132.0037315,787.2595651916284,805.1066472538696,798.4269404435952,781.8668889054189
1731015132.0071006,788.019597662412,805.306990798801,798.1250653616776,786.1679813767331
1731015132.0076375,789.2648051171507,805.9424332026662,799.5542073204157,792.7919507496621
1731015132.011,791.0290257203789,807.0612517343777,802.2294548679788,799.6240078059109
1731015132.011543,792.9967003029633,808.1215438267579,804.8764188443231,804.3545159926814
1731015132.0154486,794.6298169358215,808.3455708016156,806.4856601396712,805.825526113968
1731015132.0193543,795.606626257086,807.3958427087067,807.0360622689543,804.6383746654501
1731015132.02326,796.022423862448,805.7364094506653,807.3010694648988,802.5183496386526
1731015132.025993,796.1991067062444,804.318337548204,808.0218149051407,801.0189797075824
1731015132.0266354,796.4018248885667,803.8520287659072,809.2536724038616,800.6658854654797
1731015132.0271654,796.720931523846,804.2855534821218,810.4151597746138,801.0723886133198
1731015132.028191,797.120150522828,804.8942747475282,810.8591212842065,801.6112410187594
1731015132.0310712,797.533050802694,804.864916283788,810.3787478240912,801.9265884592678
1731015132.0349767,797.9222656226552,803.9070900883255,809.2677083317617,802.004700448925
1731015132.0388825,798.2864320553474,802.4703108094243,808.0317804691418,801.9882917282087
1731015132.042271,798.6405623454451,801.4499571014777,807.0867657343478,801.9977997615324
1731015132.042788,798.9973379667772,801.5840162249989,806.6428529212435,802.0687343732943
1731015132.0448856,799.360513609318,802.9248767397075,806.7350970836195,802.1778957836816
1731015132.0466936,799.7276559037786,804.7537515880301,807.2837872620654,802.2913538612593
1731015132.050599,800.095185840168,806.0533125883767,808.1560602805138,802.3917840961811
1731015132.0545049,800.4612615465348,806.2467642206491,809.2648621160314,802.4798444004292
1731015132.0579062,800.8259318404754,805.6376989770647,810.6716296993336,802.5635318590677
1731015132.0584104,801.1900209110927,805.1541502687905,812.5559483743839,802.6490225811477
1731015132.062316,801.5541646333481,805.5653454194446,814.9719091903545,802.7378723505067
1731015132.0631657,801.9185142406976,806.8172778115492,817.5453210079077,802.8287003310176
1731015132.063778,802.2829118076742,808.0476959984237,819.4290902429085,802.9197476139731
1731015132.0662217,802.6471584371706,808.2458054493464,819.6779328757799,803.0102130967432
1731015132.0701272,803.0111543366211,806.9783577993119,817.8256633207403,803.1002291000542
1731015132.0735416,803.3748966088898,804.6111486566679,814.2352564904354,803.1902675202051
1731015132.0740328,803.7384187263829,801.9543170265937,809.975053786658,803.2806722404384
1731015132.0779386,804.1017447789308,799.7352248052656,806.353704387182,803.371537950307
1731015132.081844,804.4648790396607,798.3317998032641,804.4377175760791,803.4628135520192
1731015132.0826705,804.8278132342898,797.8449931821784,804.7544398945935,803.5544374634611
1731015132.0857496,805.1905285006545,798.2598373940519,807.1739127219018,803.646402065238
1731015132.0891771,805.5529874447271,799.4518591794612,810.9162197079582,803.7387473996044
1731015132.0896554,805.9151344065762,801.079766476304,814.728448243989,803.8315283740304
1731015132.0935607,806.2769280179052,802.6154695854025,817.2961765096243,803.9247910467614
1731015132.0974665,806.6384040143445,803.6101262009099,817.7824129159035,804.0185676133375
1731015132.0981402,806.99971326323,803.9566780264774,816.1864460945701,804.1128825445116
1731015132.1013722,807.3610426791071,803.8756892071815,813.25732436967,804.2077596615234
1731015132.101563,807.7223769390328,803.6756790819346,810.017529801075,804.3032251690647
1731015132.1048124,808.0832366276782,803.5461280931404,807.2572537771925,804.3993070282709
1731015132.1052778,808.4427432689771,803.5186355725475,805.3367112450229,804.496033124857
1731015132.1091833,808.8003510063517,803.5409906165921,804.3171974326414,804.5934300558833
1731015132.113089,809.1570656920333,803.5588143556215,804.1689691321628,804.6915229530673
1731015132.1169946,809.5160254856588,803.5511733895128,804.8270014264339,804.7903358785512
1731015132.120448,809.8807515635331,803.5247187161016,806.0981597538608,804.8898921962594
1731015132.1204553,810.2505205194267,803.4938428642264,807.5939702393669,804.990214595068
1731015132.1209002,810.615765577675,803.4672851853994,808.8235314590138,805.0913247811367
1731015132.124806,810.9602244308858,803.4458974752564,809.4114442960938,805.1932431322482
1731015132.1287117,811.2756435363214,803.4266089628521,809.2815596156221,805.2959887542391
1731015132.132617,811.5842659527593,803.4065805269546,808.6715886735384,805.3995802395639
1731015132.1331146,811.9465714047664,803.3848452247613,807.9811596614674,805.5040368218096
1731015132.1360834,812.4229427022682,803.3618435407504,807.5784354572127,805.6093787125394
1731015132.1365228,812.9822942163219,803.3383442000377,807.6915523882019,805.7156250395378
1731015132.1393478,813.415298076111,803.3147752185776,808.4070771560237,805.8227892079408
1731015132.1404283,813.3695791032679,803.2911492744112,809.7047807025186,805.9308750035885
1731015132.1443338,812.5717651799306,803.2672911679327,811.4611554536771,806.0398800685967
1731015132.1482396,811.0906319001974,803.243053006352,813.4245495005464,806.149811452512
1731015132.1517186,809.3578498539702,803.2183896606582,815.2191438625412,806.2607066308678
1731015132.1521451,807.8821047938818,803.193327019381,816.430913572958,806.3726366751919
1731015132.1560507,806.934264199156,803.1679040028453,816.775980702614,806.4856632802633
1731015132.1582403,806.4699363690071,803.1421395333431,816.27671448097,806.5997509012786
1731015132.1599565,806.2699470123451,803.1160308729935,815.3166177953755,806.7147021732167
1731015132.163862,806.1225250267452,803.0895664856976,814.4745857453655,806.8302413739774
1731015132.167354,805.9211213226172,803.0627371082932,814.1792215032933,806.9463209853573
1731015132.1677678,805.6590275337228,803.0355391373383,814.3954308191722,807.0635016549053
1731015132.1680892,805.3727470442187,803.0079725997759,814.5985742841215,807.1829505854117
1731015132.1716733,805.0932769435005,802.9800380666048,814.108938492051,807.3055545376203
1731015132.1755788,804.8294608505757,802.9517350436513,812.5597914018651,807.4302624021198
1731015132.1771326,804.5749528814488,802.9230620056843,810.1298906322637,807.5530448051759
1731015132.1794846,804.3207919077596,802.8940171184493,807.3638823083726,807.6688018901435
1731015132.1829896,804.0624696602729,802.8645988080706,804.7769829116489,807.7773574240855
1731015132.18339,803.8001960324992,802.8348059119239,802.6165629668592,807.890248172016
1731015132.1872957,803.5360682172897,802.8046375583375,800.9436589975912,808.0294995814235
1731015132.1912014,803.2716757963301,802.7740930080744,799.8412656236975,808.209554799748
1731015132.195107,803.0073889496045,802.743171581564,799.456815191178,808.4063333386054
1731015132.1960251,802.7428145735028,802.7118726710643,799.8349411999724,808.5414927049021
1731015132.1986248,802.47746922003,802.6801957833798,800.7752382106119,808.5254529212726
1731015132.1990125,802.211124704487,802.6481405700498,801.927227379827,808.3761713369829
1731015132.2029183,801.9437972690406,802.6157068352984,803.0533343827497,808.3463541364807
1731015132.2030635,801.6755907739251,802.5828945346807,804.1859647379936,808.900330235904
1731015132.2068238,801.4065755379826,802.5497037794453,805.5031800481161,810.420801300061
1731015132.2107294,801.1367579085037,802.5161348487637,807.0331452369247,812.784392055172
1731015132.2142603,800.8661063383382,802.4821881958787,808.4731757036103,815.1924721300098
1731015132.2146351,800.5945833482975,802.4478644289267,809.3133319934516,816.489722466353
1731015132.2149177,800.322159612179,802.4131642651136,809.1886262651391,815.7565129613458
1731015132.218541,800.0488156619203,802.3780884972466,808.1822232947234,812.7713311208245
1731015132.2224462,799.774545922555,802.342638045113,806.8277428194727,808.1410722518876
1731015132.226352,799.4993680151641,802.30681413521,805.7913189473533,803.118525593756
1731015132.2298958,799.2233209581104,802.2706185219873,805.4685668334366,799.1686061187316
1731015132.2302575,798.9464297952356,802.2340534876589,805.7981638480687,797.3672370918156
1731015132.23381,798.6686394350057,802.1971213307495,806.4150381291206,797.8633771593165
1731015132.234163,798.3897741992631,802.1598234123879,806.9921496639159,799.7667904309874
1731015132.2380383,798.1096186999442,802.122159563683,807.4743274077057,801.6635700742895
1731015132.2380688,797.8281651109796,802.0841291979658,808.0044725832972,802.4880820818269
1731015132.2419744,797.5458883132288,802.045734775499,808.6108978046038,802.0961934837746
1731015132.245531,797.2636853595759,802.0069857071743,808.9580117969605,801.0542351871846
1731015132.24588,796.9821214481515,801.9678976069201,808.4500200145696,799.8522101544118
1731015132.2497857,796.7001584250538,801.9284818113288,806.6832748312023,798.3354887494926
1731015132.2527025,796.4145278838816,801.888727492378,803.8984209915596,795.9685026573542
1731015132.2536912,796.1215155860499,801.8485925414773,801.018174319996,792.673536922998
1731015132.2575967,795.821762519053,801.8080281128391,799.1685048671808,789.3095108869154
1731015132.2611666,795.5251066391143,801.7670457982483,799.0067954535815,787.1664707234481
1731015132.2615025,795.2484858492933,801.7257863337368,800.3424003382058,786.8988536959921
1731015132.265408,795.0007615516887,801.6844919916781,802.3024766826337,787.9707315962572
1731015132.2693136,794.7592218835962,801.6432950272334,803.8875592115083,789.1885883139283
1731015132.271595,794.4610307511317,801.6018857047522,804.5178345311393,789.7764838288725
1731015132.2730129,794.0423290470429,801.5593827586937,804.2495646419703,789.916724874998
1731015132.273219,793.5327428350834,801.5148631638504,803.6138513781206,790.2744089736918
1731015132.276802,793.1456685595625,801.4686557796863,803.2521196831692,791.0731650110714
1731015132.277125,793.2405814236864,801.4235319001741,803.570192009965,791.7052562235909
1731015132.2810304,794.0826778592458,801.3839261500373,804.560468597131,791.2765674870426
1731015132.2849362,795.5505901132003,801.3517102487986,805.8479539044989,789.5468786241543
1731015132.2888415,797.1366486200722,801.3200990423854,806.9275880321027,787.3515113746995
1731015132.2904875,798.380922418312,801.2720960726359,807.469168234764,786.0861869211769
1731015132.2924376,799.3676532431608,801.1918405683535,807.5079028521421,786.683889411972
1731015132.2927473,800.7257550202173,801.0897222358851,807.3793686178507,788.9375111591205
1731015132.296653,803.0352522073829,801.0237787242943,807.414079666404,791.6922026980751
1731015132.3005586,806.1656069746384,801.0836791737567,807.5988745781259,793.6808729643624
1731015132.304464,809.1844493782099,801.3170926162574,807.4904596917804,794.2838296419724
1731015132.3079872,810.9660347807534,801.6376450341047,806.5201465416876,793.6852879676029
1731015132.3080728,810.9982576392908,801.8172020925273,804.5186041193662,792.5342521524162
1731015132.30837,809.7127736012385,801.6376100343316,802.0560636859963,791.6060719048484
1731015132.3093798,808.077840162504,801.1262356652547,800.2687060302892,791.718900248778
1731015132.3122754,806.8194585559257,800.6591456651053,800.2145073531307,793.6608439803977
1731015132.3161807,805.9375257402573,800.7698458797197,802.1829104618206,797.8076447456639
1731015132.3200867,804.9041769491995,801.7460059783645,805.4436589858905,803.5899091145975
1731015132.3237083,803.310263753755,803.3079553774261,808.6015586776684,809.403583822051
1731015132.3239925,801.3236391141663,804.6408220796211,810.302821856609,813.3335031550935
1731015132.3278978,799.5254637372143,804.8191321454226,809.8548367662324,814.3016598018035
1731015132.3282723,798.3065393253524,803.3946989288958,807.4565484499097,812.7283483389064
1731015132.3318036,797.427777980028,800.7736325852384,804.0061955180663,810.1031673635725
1731015132.335709,796.1784050997774,798.0747022861781,800.65440454593,807.7879189205477
1731015132.3393438,794.0068565575024,796.4635727455428,798.3390665585478,806.0654750809946
1731015132.3396146,791.0927826177627,796.3693348946875,797.4941057914066,804.2327522367755
1731015132.3429618,788.3899182641018,797.1876795185616,798.0046496083874,801.575230153003
1731015132.3435204,787.0772188593103,797.7776565496149,799.3551523194783,798.2449323391456
1731015132.3471649,787.7815735342958,797.408645551004,800.8649182385559,795.1869363235304
1731015132.347426,790.1174878387181,796.3858535991806,801.9338644666522,793.2267351222685
1731015132.3513317,792.910057127284,795.833075049907,802.2533598781822,792.2897091602782
1731015132.354979,794.9901766264122,796.8371608679666,801.922164692044,791.5823352244864
1731015132.3552372,795.9848216596846,799.6638171748355,801.3949826159936,790.5414759994253
1731015132.3591428,796.4854015611945,803.5964612875928,801.2514485917116,789.5264804110598
1731015132.3630486,797.4702227787694,807.3807480947942,801.885542062688,789.4900846928558
1731015132.3660572,799.4668364955292,809.861467569381,803.2849364669728,790.9477645740249
1731015132.366954,802.1144079536689,810.4399105065172,805.0372102032763,793.3181339285708
1731015132.3706143,804.4199773098496,809.2383048267427,806.581126629907,795.348510412171
1731015132.3708596,805.4801610555488,807.0138186028134,807.5687304615718,796.2549699297409
1731015132.3747654,805.1547788028494,804.8625052111518,808.0968330096522,796.4838426018531
1731015132.3779364,804.2246445152391,803.7593211762808,808.6109672900812,797.3334148866313
1731015132.3786707,803.8711634455201,804.0941709753204,809.5163726598545,799.7354743839859
1731015132.3825765,804.7776519065941,805.4701981019832,810.7947836863641,803.292976184991
1731015132.3849497,806.5204114842736,806.942620669446,811.9647599612397,806.4664558331752
1731015132.38625,807.8175474162132,807.5888930647292,812.450165683798,807.7851280630041
1731015132.3864822,807.5499983179884,807.0434619945435,812.0610091397195,807.0529194362989
1731015132.3903878,805.7606724633832,805.6461528550452,811.1802734663086,805.5304951506359
1731015132.3942933,803.7702082492078,804.1452526156266,810.5016751525918,804.9666362010121
1731015132.398199,803.2611095228124,803.2172351715466,810.547285828253,806.3091919219439
1731015132.4018853,805.0420395136222,803.1525512495226,811.3592386556668,809.1110628457133
1731015132.4021046,808.4401935513773,803.8668016015705,812.5693760082137,811.9699283660025
1731015132.4038422,811.7338718367916,805.1177237769297,813.7089076580066,813.4964579825552
1731015132.4060102,813.2529065214583,806.67864749721,814.4589543148571,813.0429368091164
1731015132.409916,812.3568841196287,808.3273426211014,814.6848113711484,810.8230605105658
1731015132.4129107,809.670250967932,809.7349600178724,814.3494948340848,807.5808595093139
1731015132.4138217,806.5089679931675,810.4607869519737,813.4875311352238,804.1466929021072
1731015132.4175208,803.9824268225556,810.1514767718636,812.275261552376,801.0848386649078
1731015132.417727,802.4377653598563,808.8116031639557,811.0581377078113,798.5104115409275
1731015132.4216328,801.5995765503117,806.8934153932474,810.2073040462963,796.1493806141315
1731015132.4227345,801.1694425566234,805.0777120711035,809.8679129957779,793.65913295819
1731015132.4255383,801.2665148665715,803.8771989783834,809.8145386280016,791.0235005902466
1731015132.4294438,802.2676246901358,803.3569505686751,809.5704665832587,788.7006229426532
1731015132.4331565,804.2030879898426,803.1904054648741,808.7277873495674,787.3689658495476
1731015132.4333496,806.323396039155,803.0085725124771,807.234112323401,787.4622936797479
1731015132.4372551,807.3320971069246,802.7618899458946,805.444214449496,788.850764286976
1731015132.441161,806.2003714183642,802.7997767595892,803.9271891134069,790.8712686050181
1731015132.441627,802.9700092695049,803.6006978817547,803.1842465851959,792.640624545383
1731015132.4450665,798.9248085788239,805.3589479415036,803.4350914089246,793.4470543355184
1731015132.4478853,795.9428565457864,807.7296338499293,804.5280899598674,793.0414837026524
1731015132.4487915,795.4055623533156,809.9097559710956,805.9746250541808,791.7303315099904
1731015132.448972,797.3730409754472,811.0194933223577,807.133076631363,790.2356207372178
1731015132.4528775,800.604485869555,810.5743025489652,807.5395366485192,789.3568393964435
1731015132.4567833,803.422705609061,808.7696692405473,807.226640698526,789.5735969430265
1731015132.4605196,804.777247668382,806.3825430311247,806.7546881665062,790.8189603938797
1731015132.4606888,804.7117416764991,804.3290909800694,806.8317493051841,792.6029602422542
1731015132.464427,803.9755944710884,803.1714016948441,807.7684417419636,794.4183362956614
1731015132.4645944,803.2488695336071,802.9139519249006,809.2277890886083,796.0882777614985
1731015132.4685,802.6792960422338,803.192910563598,810.5071222709691,797.7230926180468
1731015132.4724057,802.0194531930026,803.6321081261756,811.1006853212523,799.3258637460814
1731015132.4763112,801.0968344671996,804.0291966684836,811.0285118767384,800.4933143920147
1731015132.4794118,800.1559272662486,804.2565717725965,810.6589312947601,800.6345428433185
1731015132.4800625,799.8109115194763,804.0899342908291,810.2509659144732,799.614835552424
1731015132.480217,800.659277016817,803.2619866243112,809.6904394373001,798.2110149417697
1731015132.4828598,802.824411493902,801.7710485926342,808.6681981882648,797.8110733988068
1731015132.4841225,805.7610477043968,800.1265539894258,807.1150689413811,799.4532336036923
1731015132.488028,808.5240387462067,799.1738764134643,805.484163730196,802.984917555062
1731015132.4919338,810.3669349072692,799.505363573905,804.6109043137893,807.126817502299
1731015132.495698,811.2152458049261,800.9064080180441,805.2171734799251,810.4535532740341
1731015132.4958394,811.5905506683147,802.3561083880963,807.3964575170431,812.4416312044085
1731015132.4983044,812.0216827905873,802.6780705577913,810.4504460299913,813.637483310444
1731015132.499745,812.4727066350965,801.3696325529675,813.2176335549927,814.8068136581152
1731015132.503651,812.3312314814738,798.943603631609,814.6829259438914,815.8965558475737
1731015132.5075562,810.9789018178283,796.4996810473018,814.4528406906629,815.8500909377498
1731015132.5113332,808.4150032951825,794.8933069337407,812.8106705627652,813.5410563205548
1731015132.5114615,805.3655897273455,794.2149443331924,810.4169430513713,809.0192238117102
1731015132.5153675,802.7973486773275,793.999953336329,807.958917182081,803.8846235277382
1731015132.517197,801.2762460702991,793.9020097409185,805.9758140966685,800.3171479412038
1731015132.5178344,800.7008552735405,794.1253475623051,804.8320004294492,799.484750889606
1731015132.519273,800.579498204078,795.1644138042144,804.674676559101,800.653079537427
1731015132.5231786,800.5623302123913,797.1152680163651,805.3178122649477,801.764591954133
1731015132.5269687,800.7513631836282,799.2902373895598,806.1870155745406,801.027675479751
1731015132.5270844,801.5138264509345,800.6001451748723,806.503420333421,798.2291835799056
1731015132.53099,802.9562392928497,800.4175391588291,805.7033597187723,794.7619356335165
1731015132.5348954,804.5456163146999,799.1477360325522,803.843331329589,792.4655466980131
1731015132.5360892,805.2971475821566,797.9918997388381,801.6714284397437,792.3128687168988
1731015132.5388012,804.4833650705068,798.1132711314714,800.2558670156438,793.9389208714858
1731015132.5426042,802.3246790131537,799.9004754454985,800.3933675412911,796.1611643474614
1731015132.5427067,800.047937070281,802.8534168436549,802.1916854725991,797.8635196693175
1731015132.5466125,799.1555676529399,806.0442190217614,805.0772634841346,798.5590060095412
1731015132.550518,800.3722293296256,808.6831781035517,808.1485206413544,798.4277845037606
1731015132.552809,803.0311259463674,810.3639624901692,810.5782809510761,798.0388892634439
1731015132.5544236,805.4078115215696,810.9475913839766,811.8445610732471,798.0089951765401
1731015132.5549817,805.8701088769868,810.3871721361552,811.80198104104,798.7144346427007
1731015132.5582397,804.0860738823256,808.7808123154856,810.6988783820642,800.1069764575037
1731015132.558329,801.3638113088388,806.593970643961,809.1169406082677,801.7057673214263
1731015132.5622349,799.7458074036617,804.6939658555339,807.727973410252,802.8227016886149
1731015132.5661404,800.4803432093053,803.9606470103852,806.9462079786351,802.9622329771943
1731015132.5700462,803.1146354132235,804.6974271834707,806.7588330070735,802.1720535474584
1731015132.5738742,805.9926157791161,806.3600063554096,806.8748960754738,801.0542871703924
1731015132.573875,807.6928298946011,807.8862225378591,807.0065151724986,800.3367795991408
1731015132.5739515,808.1007685729518,808.3726771088614,807.0277142814542,800.3049712351784
1731015132.5778573,808.2207331408238,807.5544545424431,806.9556739339596,800.6202905327905
1731015132.581763,809.0496436385255,805.7722547344906,806.8566974517826,800.7228933822221
1731015132.5856686,810.6301762897498,803.5938890662095,806.7762288261436,800.3855413123971
1731015132.5877836,812.0754129528092,801.5109329726663,806.722173472431,799.8359279253067
1731015132.5895104,812.3662143991597,799.9313154311135,806.6813038116204,799.4241165117345
1731015132.589574,811.0792451425494,799.2785867504562,806.6395542347304,799.2979873514938
1731015132.5927663,808.4525915967738,799.8659317425255,806.5912806956967,799.3769479222925
1731015132.59348,804.9639046468453,801.5371193951015,806.5379828390666,799.509108976102
1731015132.5973854,801.0398967007073,803.4951248710203,806.4832925631075,799.5992248624018
1731015132.6012907,797.1967145511402,804.7038031820416,806.429488214531,799.6334397011324
1731015132.6051457,794.2589804143042,804.6740777188492,806.3768422882791,799.6407421661129
1731015132.6051967,793.1461315106538,803.9392057287032,806.324594525888,799.6501711684426
1731015132.6091022,794.2737064541595,803.701350792804,806.2720156089503,799.6725673633682
1731015132.611659,797.1924650730107,804.8761467251122,806.2188451652657,799.7041579662604
1731015132.6130078,800.9120908659263,807.3335622116488,806.165187150608,799.7372473637155
1731015132.6169136,804.6023911906923,809.9796153012921,806.1112373288764,799.767269530673
1731015132.6207812,807.9545094088393,811.6055504247307,806.0571088102399,799.7938659814322
1731015132.620819,810.9184465136931,811.7922732611304,806.0028087350354,799.8187208414677
1731015132.622758,813.2651628589672,811.128857050055,805.9482945964969,799.8433542796946
1731015132.6247246,814.5550066658678,810.5940520088024,805.8935298252437,799.8682766248337
1731015132.6286304,814.4997932901402,810.6562422511887,805.8385045035103,799.8932559340064
1731015132.6305516,813.1727433134911,810.8636703524237,805.783227964008,799.9178971792359
1731015132.632536,810.7534238490256,810.2443197311079,805.7277131706568,799.9419936541274
1731015132.636417,807.1952548990486,808.1373844652595,805.6719663371464,799.9655607028631
1731015132.6364417,802.4175890329532,804.7596923882385,805.6159851952094,799.9887110366385
1731015132.6403472,796.9774846928872,801.1049127684342,805.5597641996619,800.011538850686
1731015132.6442528,792.4211838520907,798.3468673829501,805.5033036706255,800.0340800696981
1731015132.6481583,790.6397310294361,797.2408577498192,805.4466178249504,800.0563324028132
1731015132.649444,792.5422691871928,797.8730450620965,805.389732970515,800.0782929278589
1731015132.652052,797.1738748519198,799.7494575617721,805.3326677007773,800.0999826478592
1731015132.652064,802.1558990442757,802.036114453169,805.275399922241,800.121445448621
1731015132.6559696,805.2160631024168,803.8508742620145,805.2178501414904,800.1427211875651
1731015132.6577325,805.6240817638694,804.6060647986783,805.159926073255,800.163806248248
1731015132.6598752,804.4088191826951,804.3029211606904,805.1016448656057,800.1846353120653
1731015132.6637807,803.2606001073434,803.543925251626,805.043258406411,800.2051297187652
1731015132.6676865,803.1225164422334,803.1483586027601,804.9852038708268,800.2253259750057
1731015132.6676874,803.6639995375966,803.5962116940584,804.9277196803245,800.2455043030063
1731015132.6683364,803.9473294965928,804.7199187243341,804.8702412950415,800.2661326434119
1731015132.671592,803.5011512407021,805.8779008774173,804.8111630674987,800.2874643385495
1731015132.6754978,802.7487766805533,806.4589451413002,804.7487979493897,800.3089152880108
1731015132.6794033,802.4818729034555,806.3315793600469,804.6837290786291,800.3288330433277
1731015132.6833088,803.0030101157341,805.9172470995468,804.6209816614812,800.3455129303937
1731015132.683323,803.7760963775855,805.834745524055,804.5686211244482,800.3596380514655
1731015132.6872146,803.8393985365713,806.3619918882972,804.5300796569144,800.3764849258077
1731015132.687229,802.5414988772928,807.1177070039532,804.493061691843,800.4043774047559
1731015132.69112,799.9922307482888,807.2434912795421,804.4266649738562,800.4466588452118
1731015132.6927073,796.9732188508323,805.9975150253699,804.3019444900873,800.4902517197254
1731015132.6950257,794.4831807122118,803.3305282006581,804.1375661962289,800.5029006349386
1731015132.6989317,793.2649878688107,800.0132601548285,804.0388287846781,800.4546009532474
1731015132.6989584,793.5615536563445,797.2325434086367,804.1687211504184,800.3640702639955
1731015132.702837,795.1327244226065,795.9492260466463,804.615824547523,800.3356965184751
1731015132.7061212,797.4008848621575,796.4076895449438,805.2377397790859,800.5199075521989
1731015132.7067423,799.593698915983,798.0206873374558,805.669810979306,800.9508011517427
1731015132.7106483,800.8919662149159,799.6490577692672,805.6010348279126,801.327524960108
1731015132.7145538,800.6682076040645,800.1608916928425,805.1173172196097,800.9618954315597
1731015132.7145936,798.7678580739075,799.0285920844169,804.7344023154313,799.1223169806168
1731015132.7184594,795.6023368139608,796.6243629715193,804.9869625626833,795.6698012707587
1731015132.7223651,791.9024134119458,793.9799546289594,805.9025480952312,791.4294382587856
1731015132.7250135,788.3160166003632,792.1362813244698,806.8680464437633,787.8108870255674
1731015132.726271,785.2255671388539,791.5464491232462,807.0788966072477,785.912812630126
1731015132.7276816,782.9185934187498,791.9558553745393,806.2356585929211,785.8952638679973
1731015132.7301764,781.8238915003378,792.7639715015597,804.9008672592752,787.1157672262847
1731015132.7302291,782.4383136433593,793.4878403527354,804.1812133090722,788.7921610615792
1731015132.734082,784.9437338002635,793.9690176886413,804.9436301461539,790.5678642491225
1731015132.7379875,788.912219740608,794.2878717924414,807.153961106309,792.5643730341218
1731015132.7418933,793.4480210049358,794.57929995715,809.8398082169249,794.9949354415108
1731015132.7439065,797.6785630470977,794.9180325944884,811.7134962589016,797.7619679545118
1731015132.7457988,801.1784931905477,795.3064684603144,812.0216309850764,800.4331975232634
1731015132.7458646,804.0182364385098,795.7144915980341,811.0479817540427,802.6149378641642
1731015132.7497044,806.4952212526409,796.1168532898404,809.9446754399971,804.3265941019066
1731015132.75361,808.8349712572827,796.5061827641829,810.0091911820011,805.9467414398883
1731015132.7575157,811.0767502107859,796.8874037205342,811.8749981427659,807.7393618746452
1731015132.7614212,813.1387491030006,797.267650816285,815.116455956183,809.4356361144929
1731015132.7615,814.9169594008729,797.6505535268329,818.4646035679767,810.3114138568209
1731015132.762656,816.3005255478605,798.0359691784813,820.433299618715,809.6903837959328
1731015132.7627983,817.1227480355,798.422225131137,819.974615454816,807.3896157809525
1731015132.765327,817.1700865240617,798.8080386273689,816.8854752783966,803.7407497466345
1731015132.7692325,816.3219962427438,799.1930986703524,811.8755587454491,799.2855956467279
1731015132.773138,814.7160658086775,799.5777092259209,806.309514857102,794.5338801610479
1731015132.7770438,812.7237629441959,799.9622515350093,801.6932584009717,790.0120570531707
