timestamps,eeg_1,eeg_2,eeg_3,eeg_4
1730575522.3800268,840.5581083341799,291.37822766618206,494.4144841216952,808.7287111843922
1730575522.391983,837.9909191181695,165.56397340807337,440.5321719161723,809.5683780828767
1730575522.3959868,811.4988658345791,105.66547020959979,412.55250378039455,809.984658063906
1730575522.3960087,739.9011998911458,131.95946741171582,415.05137891700497,809.8710587923289
1730575522.4000344,612.1746543697371,205.21500504937617,428.24377328646887,809.4522458408926
1730575522.4040604,437.25388298588575,255.85227639800357,426.311338373127,809.0468419397405
1730575522.408086,246.82652679497403,235.98012281623053,400.8521286965757,808.8883641536427
1730575522.4119468,83.71710354467189,153.7217260517288,367.1493166422678,809.1735621639502
1730575522.4121118,-20.31581337822047,61.39416475901862,346.62512385390016,810.1666386141846
1730575522.4161377,-62.586412866642945,9.778653445169311,343.5807536608619,812.0810517615902
1730575522.4201632,-68.99136179509776,12.51448463898538,341.91091505799005,814.7307618090198
1730575522.424189,-74.17206932200918,52.11650970994356,326.58638689246067,817.281510304818
1730575522.4279068,-97.12461139354525,113.37373487911742,306.34148319249033,818.4390159687256
1730575522.4282148,-130.78375426697653,202.06747727391922,310.87532473449625,817.04342631782
1730575522.4322405,-151.88120324561976,328.3315086001483,363.0854829917669,812.6798033894829
1730575522.4362662,-140.40539994692267,476.7515512611527,453.7490815032853,805.9540353263859
1730575522.440292,-92.21239318212315,598.5915097299776,542.9444171831944,798.4219126598813
1730575522.443867,-17.66672104459053,635.492351937382,585.7631927940555,792.2852421874178
1730575522.4443178,67.8801171943644,554.9754084753165,560.3200012802022,789.7294258159017
1730575522.4483435,152.07648896095873,374.5123867964515,479.70755399498273,791.767165200608
1730575522.4523692,227.77790452298223,162.54335623686222,384.36414831646937,797.1453909305002
1730575522.456395,291.2721231589468,12.509027807249254,320.8998547357011,802.558760583355
1730575522.4598267,339.6177082628321,-5.7110865542703095,317.1873994911463,804.7989012500208
1730575522.4604208,369.05516266131866,107.25255122617017,367.2406636143753,803.5512639460126
1730575522.4644463,376.04505284509486,274.05733080097957,437.83246192111733,802.233204979756
1730575522.4684722,361.4531862290306,393.3373073591157,493.4363170993605,805.4332146284164
1730575522.472498,334.78810519740495,416.5687228437221,518.5407392529833,814.5944418460505
1730575522.4757867,312.5979891367469,382.29103073386307,519.9413665682722,825.6659389853859
1730575522.4765236,308.85549923993403,374.1252959518584,513.1769414379467,831.1843132957993
1730575522.4765973,324.07156415060876,442.2206525239007,509.30654105309713,825.5198496454847
1730575522.4805496,344.1237564785902,564.0056596363695,511.03216104167234,809.2093516171086
1730575522.4845753,352.2280693377624,678.1122196506929,515.9311022407201,788.9751393874092
1730575522.488601,344.14043228888886,749.7425031846849,520.9424843084586,773.5361900759851
1730575522.491747,331.78905287265667,797.646080232035,524.6603148293736,768.5290742870394
1730575522.492627,330.82531411880177,859.2448222974585,527.274001435581,774.1183636543763
1730575522.496,343.74124853641734,937.5843907987686,529.5423317766988,786.3060638336607
1730575522.4966524,355.62556546647403,989.8052363782876,531.9955365468741,800.0962433827897
1730575522.5006783,347.6580045647762,968.6475125964052,534.7347531806536,811.9393146024373
1730575522.504704,315.4291027058062,871.2292283410137,537.6138231096005,820.331220690273
1730575522.5077069,273.8149693943649,744.0395548676506,540.4719167852776,825.1962264874103
1730575522.5087297,243.61380752699233,642.3066687920314,543.2426872959527,827.1716433708275
1730575522.5127554,233.57740767848293,589.5964668225251,545.9421679535751,827.261614123808
1730575522.5154033,235.5264788373786,577.5789007766223,548.6121179260856,826.6415007843989
1730575522.516781,236.20872575895532,595.6762885579974,551.279601446824,826.3554521971625
1730575522.520807,232.7872225649736,645.7733373561657,553.9487636171793,827.0229901859426
1730575522.5236669,236.40054312831217,720.0624153134027,556.6115534617907,828.8336883350723
1730575522.5248327,261.15248772913867,773.3664175247097,559.2599205385948,831.8048738152756
1730575522.5288584,309.852803339711,738.0043923857739,561.891149913438,835.8956216770669
1730575522.532884,369.408168890715,582.7875402683851,564.5070804629379,840.6795685501899
1730575522.5348065,418.53373186226236,358.87610993016983,567.1112002587303,844.8676328125487
1730575522.53691,440.0879568302994,176.21899845926447,569.7062906056674,846.3660810050521
1730575522.5396273,429.07655729273563,121.7054926055934,572.2930735641737,843.2240625309998
1730575522.5409358,393.5452435310245,192.4022378105301,574.8696390276317,835.0335235657003
1730575522.5449617,350.905815960526,305.0962287508569,577.4322725961491,823.8150020940998
1730575522.5489872,322.1275225166005,369.19653634634653,579.9788490438999,813.5647392506114
1730575522.5530128,323.9664539245883,352.9877941263627,582.514207077207,808.3542573048765
1730575522.5542097,360.42657356722395,289.58561242412884,585.0528615564494,809.8385408386878
1730575522.5555873,418.5724101744777,233.3285787695954,587.6116071353761,815.7505189405265
1730575522.5570388,474.36242485991113,218.3177585115752,590.1891457683239,820.7632672866147
1730575522.5610645,507.4022501081114,252.211534392797,592.7449579563464,819.6804644709694
1730575522.5650902,514.4722740797943,331.8819282512861,595.2070721962972,811.0563705392308
1730575522.569116,510.41943675342566,448.56433541415316,597.53580415326,798.6264043143184
1730575522.571547,515.0876313846696,575.0853782876757,599.825102474024,789.2487936958662
1730575522.5731416,537.6089949793428,660.7034668822864,602.3440842347557,788.5546257389132
1730575522.5736125,571.6727050761855,656.516912025895,605.3790283622374,797.2215835248821
1730575522.5771675,604.5862373550166,556.5908394751623,608.8407774115988,810.4147996883223
1730575522.5811932,630.1043213157282,412.27584406547663,611.8969665839026,820.7892512686058
1730575522.585219,653.0140077031411,297.49659869883635,613.1963465637768,823.0335137765048
1730575522.587507,683.1711400427057,253.46683790891092,612.1436441781163,816.9112385879367
1730575522.5892446,726.8043117803323,265.07111740371187,610.7625332600733,806.892359673831
1730575522.5930157,783.2011443925644,288.07959009954175,614.210224841997,798.9661175377224
1730575522.5932703,847.1083452856543,292.77010030209897,627.3809474758232,797.1348554556221
1730575522.5972962,911.5218239012687,277.1200322582984,647.2676122671808,801.9044887292279
1730575522.601322,967.8699436566394,244.20760297568674,656.3124985394741,811.1726823779404
1730575522.603467,1006.1590404027357,182.17026837404626,626.9680791945141,822.0856782702385
1730575522.6053476,1018.3748797159897,78.5814980761757,543.380079533904,832.195121146073
1730575522.609373,1003.4962729781068,-45.66352578163992,427.79370133992666,839.4888482849059
1730575522.612419,968.8385463056189,-127.04683806255127,343.01571481733237,842.1651950563034
1730575522.6133993,925.4647429359129,-95.23069910564789,356.26904184751504,839.0723241845858
1730575522.617425,881.8552866377106,74.48256863723225,489.42087318022317,830.6412667328719
1730575522.619427,841.997070080778,339.62421396122136,699.8087403685438,819.2500977406874
1730575522.621451,808.6917876717108,617.3436896320886,908.4963970462231,808.3367775971723
1730575522.6254764,786.2954220123123,832.3870625530858,1049.5601874819256,800.774426945513
1730575522.629502,777.5402248460992,947.0977624636969,1100.759923641555,797.6596946402858
1730575522.6318216,776.9251761043046,960.8406151898762,1079.9944466637671,798.1690027459944
1730575522.633528,769.4232229973031,895.4280992419756,1021.9590888825361,800.2806231802695
1730575522.6353867,739.5389555893776,783.7746696884639,956.5693450668946,801.8333906862902
1730575522.6375537,684.6893897857203,660.668228429476,898.0087145530767,801.5277672932299
1730575522.6415794,620.4134574202967,548.6192718393277,842.6110071112756,799.5301549234835
1730575522.645605,571.18623865463,446.3254848853827,774.729000165675,797.2960763249807
1730575522.6496308,554.1172453389458,337.03372191111,681.6775080468462,796.5238703398305
1730575522.6512249,569.6022637242429,217.3668228997509,571.5199174670483,797.8275582885216
1730575522.6513472,605.8077845525249,119.34706395807046,478.16233782109754,800.1304919405156
1730575522.6536567,650.2779593688063,95.95647686748185,442.98325372774354,801.3417187076487
1730575522.6576824,696.2305839293882,175.1749957474862,483.24126003114407,799.8433475757702
1730575522.661708,738.7589527327297,325.51737052228225,574.9873869714299,795.6288462853178
1730575522.6657338,768.2990381492194,472.4396575795591,669.5681452290169,790.2547741288524
1730575522.6673071,772.001849008943,555.992641189942,731.0878714161913,785.7920352157968
1730575522.6697595,744.5253959009992,575.4874014636725,759.4837119381756,783.70153075544
1730575522.6706278,698.049182619081,578.0610986000322,777.6705156812433,784.3679695092602
1730575522.6737854,659.7778451002085,606.304479298191,799.254616173178,787.2595225584047
1730575522.6778111,656.165679003933,661.5108024795425,813.3212152916384,791.2407007173481
1730575522.6818368,695.826806119914,716.7979189945663,801.351078525477,794.8362682381963
1730575522.683267,764.7868963211303,755.0596697232374,763.1228838374561,796.6860549872538
1730575522.6858623,836.8644323583537,780.6205478323268,718.3497406451465,796.3111705395726
1730575522.6898882,889.6630800576738,791.062179015255,680.9148648904023,794.6811229137705
1730575522.6900313,914.3978894063172,750.7834479951039,637.599932887447,793.7846234012198
1730575522.6939142,915.6047834641257,612.2999882912316,561.2488570436051,795.1077131786045
1730575522.69794,905.0792647385496,376.0945777036471,449.52382562866137,798.1346921935977
1730575522.699227,895.6442264206302,126.66605525379453,347.5121670662978,800.4151650841634
1730575522.7019656,896.4054986242421,-6.001883614588223,323.48786125927256,799.596492796029
1730575522.7059913,908.9264964161358,60.08802125875144,413.53014036939123,795.8782874478436
1730575522.709434,926.0155624364993,290.00775283180405,585.3932990650169,792.5139857759592
1730575522.7100172,936.9094640430179,553.6303375518323,758.0877826093233,793.4655760865282
1730575522.714043,938.6638426112917,725.0696775008105,862.6392342296419,800.0313474955639
1730575522.7151873,945.275795589868,774.931844091144,890.701583693072,809.5385716864778
1730575522.7180686,983.2732501644768,775.4332059150959,889.1523624395338,817.4829627366091
1730575522.7200415,1072.1362051497001,818.1348567904765,909.3892888219636,821.2745678612719
1730575522.7220943,1203.365416505195,923.4894934780875,960.6560440867455,822.1719096297896
1730575522.72612,1337.3487879582312,1024.995820142989,1009.0035494358206,823.6591916222319
1730575522.728837,1424.2349194617213,1036.8386037474943,1017.0489305439182,827.8583529899312
1730575522.730146,1434.2715011271212,935.3639465044976,981.0595585868658,833.3862542245423
1730575522.7311473,1374.2637985481442,776.2063365806002,928.0386637512304,836.663791840971
1730575522.7341716,1278.7636241630796,635.2797676534153,878.6814708660636,835.400239518395
1730575522.738197,1186.0085028218732,536.775735571169,818.656400292982,830.91332086079
1730575522.742223,1119.4408240148878,442.032085341758,713.4404000481409,827.0584360445641
1730575522.7462487,1086.6717430868991,309.64740985045864,556.3606121259998,826.7677473599864
1730575522.747107,1089.2036717533424,162.4617201064193,400.37063350896767,829.4410147170552
1730575522.7482402,1127.2159275991867,86.98691294721505,333.38903021645103,831.5562146926155
1730575522.750275,1192.9741094016765,158.3820129988835,410.37838100737275,829.8095958324088
1730575522.7543004,1263.034037426678,362.3473210909714,601.6952676516757,823.8486723620033
1730575522.7559173,1304.0713445500323,593.4379674179737,807.857569825459,816.2761124284351
1730575522.758326,1293.3033993661256,736.2213282012478,931.074764106073,810.270504379831
1730575522.7623518,1236.484677716375,754.2756426391217,941.4162184276602,807.2222070977127
1730575522.7630672,1164.8536849703723,704.9220911268443,882.4188149999648,806.3791056855225
1730575522.7663774,1111.1096908558586,671.5080061324397,819.266442339574,806.313124736162
1730575522.7676432,1085.328172920692,684.2470485378408,783.2944085101466,806.3730596277485
1730575522.7704034,1072.8464012487298,706.0055923232767,761.5409278744006,806.7203393022451
1730575522.774429,1055.2043538789874,689.0216129263135,730.0131860938873,807.3391795223904
1730575522.7784548,1032.643048175527,636.4665800785544,687.8053207856292,807.5350870022407
1730575522.7790272,1025.1819452831417,601.5946623277507,655.6585583506667,806.7346784569619
1730575522.7824805,1050.643428692329,625.3422875195106,645.0347816731324,805.7356502519915
1730575522.7865064,1101.1069132819057,679.4428276599872,635.9135574003046,806.7869559667465
1730575522.7870464,1141.821393289852,679.2713714458368,591.4498857783664,811.907023466333
1730575522.790532,1136.6451267662744,561.7483699522543,497.7790831670898,820.7168262685044
1730575522.7917924,1080.1543999444573,356.3779307582961,388.6363125826439,829.9007325788652
1730575522.7945578,1009.2068585381757,177.6780849014848,325.74394548600367,835.2214707915604
1730575522.7949872,981.6800254052488,137.2557441849661,347.3610243260066,834.7146646318151
1730575522.7985835,1035.8147875992752,250.2114543503817,430.4117041836878,830.3726409879359
1730575522.8026092,1160.4574041545236,420.95936231937355,503.619801437118,826.6838908998781
1730575522.8064494,1300.2091868589616,523.7397207986677,504.2493453547384,827.0712699602875
1730575522.8066351,1392.78288844107,505.5533896208282,429.7036799703809,831.1837957916605
1730575522.8106608,1409.634527325045,418.4861587256671,337.9577475953354,835.3095357464478
1730575522.8109472,1368.504579254734,357.1480707161302,297.39825019388894,835.4478059448588
1730575522.8146863,1311.1651693771075,367.736592446017,332.60522134959,830.3335958584479
1730575522.8187122,1269.0268158854537,416.6268607438061,412.85301321699114,821.9984225313581
1730575522.822738,1246.110892235848,439.7504760255409,486.54864269325424,813.8290943365746
1730575522.8258526,1228.718343756766,412.72219794768284,523.6511517351934,808.1477926507312
1730575522.826764,1205.999309710477,369.190267170069,528.6653276545202,805.2675619793131
1730575522.8269072,1179.934805192575,356.13220481377624,521.5673306329511,804.2541577412555
1730575522.827668,1158.7531925882847,379.43142591990465,513.4020774663664,804.1713513901457
1730575522.8307896,1145.276401930034,396.93840442795585,501.00947640757477,804.6336713646618
1730575522.8348153,1133.85694368853,363.79514956088144,480.7108469102386,805.5683348456002
1730575522.838841,1117.7368542599177,282.98334717094616,461.4539720209259,806.8790718144948
1730575522.842867,1097.344710547081,210.5862969726429,460.7576199788746,808.4967957854454
1730575522.8428671,1080.1622546690382,208.70739886666897,486.1510048689595,810.5604356499393
1730575522.8452556,1072.3077240247098,288.1162730169989,521.4270818092606,813.1775831352925
1730575522.8468926,1070.528315758786,394.3625752628551,535.0427335043362,815.7636168331655
1730575522.8509183,1062.9355113155577,453.93955611410087,507.64202857088395,816.7174705597902
1730575522.854944,1038.450089311235,441.34280916947426,454.6275522410662,814.1766654185715
1730575522.8588274,996.4734611506284,404.41873591630065,419.7211771338276,807.5841115739075
1730575522.8589697,947.6700072513031,421.29964922807534,440.82267416811226,798.732038795126
1730575522.8629956,904.8543797098198,527.7353418436294,517.59112148452,791.0655871833815
1730575522.8635435,872.3417577190703,683.5910402449354,611.0743371820374,787.5085291992193
1730575522.8646586,843.4753179198798,808.5075219713065,675.5444963288857,788.5804681090812
1730575522.867021,807.9380882665623,848.3673711799275,691.7888845684455,792.4691575685201
1730575522.871047,761.3203884179288,807.6760376935645,672.0064319391472,796.8987228310672
1730575522.874787,708.494141256845,723.665355594904,637.3226729384444,800.8964841134703
1730575522.8750727,659.4450063779959,619.1550354487619,595.6854633746408,804.7811354517478
1730575522.8790984,622.7878050178459,487.84102015281474,542.5932047260724,808.6756445224364
1730575522.8831244,602.0843768930578,324.3154762327519,478.2674515019336,811.42926667122
1730575522.8840618,595.7488433893452,159.90183649042837,416.8771911267299,811.295991831379
1730575522.88715,598.5983521347641,58.46024507853588,376.51276645482915,807.7188526785404
1730575522.8907473,603.6345830127207,68.31331322969487,363.7343600481868,802.3280071117122
1730575522.8911755,603.9562294697666,173.4681022353364,370.5286134929166,798.0358344009239
1730575522.8952014,594.9397229747706,293.58289656921943,383.66408422020254,796.970035603757
1730575522.8992271,576.2589129540733,340.9849672768869,394.2796218210751,799.0214558922085
1730575522.8994193,552.7210831654892,290.42111569548524,400.3915405629974,802.1294963505728
1730575522.9032533,532.886022069774,201.02275339688154,404.0369609882529,803.8997545944114
1730575522.9034648,525.543520187745,168.43468637797008,407.6516124555514,803.194483241707
1730575522.9067073,535.8720856413116,246.64982418103094,412.30222355436126,800.6241382244957
1730575522.9072788,563.7375922099716,407.12631065528586,417.794633027672,797.8810458373966
1730575522.9113045,605.0700553622733,568.676637241208,423.5121648573181,796.6361225353245
1730575522.9153302,654.817951671464,666.0831386570985,429.0413095797825,797.7749386138967
1730575522.919356,708.8634861118455,691.9512174398626,434.3141499058633,801.2712584562399
1730575522.9226673,763.4445866090078,678.1860062954579,439.45379039662555,806.4767595021285
1730575522.922868,813.1492938550336,646.7652615734619,444.58861773609294,812.425235774655
1730575522.9233818,850.4327147371822,586.9282566367743,449.76918923556883,817.9761863641072
1730575522.9274075,868.854577057845,480.2642479094408,454.98115416811095,821.9748931115499
1730575522.9314332,868.5315164351731,339.23558914477144,460.19137535340434,823.6509113369677
1730575522.9352944,858.5900766575817,211.06800066246464,465.3795016199789,823.0882725121792
1730575522.935459,852.252028676176,139.59234687380348,470.54355876659645,821.2557200428552
1730575522.9386272,856.5979223391718,124.82379110264174,475.69087939764086,819.3890807119296
1730575522.9394846,865.5982489412874,123.43087715205928,480.8283981967881,818.2316925684122
1730575522.942271,864.1968267044608,92.0907020653467,485.95873809090267,817.7955725399638
1730575522.9435103,841.8648956130305,33.244346676644966,491.0812307719672,817.6910141800034
1730575522.9475362,804.189756397336,-0.6766223980862378,496.1944202581717,817.5615327669166
1730575522.951562,771.1263423974704,48.97006417351565,501.2976393678201,817.2754464732006
1730575522.9545872,762.1171883664742,192.94636017322335,506.39120243373316,816.8760118520303
1730575522.9555876,780.7767738047805,378.65174125565596,511.4758825712127,816.4533668272992
1730575522.9596136,812.5384340772766,528.8135415460782,516.552407775484,816.0610680823991
1730575522.961674,836.6605895768249,600.5749635720911,521.6212796785093,815.7033576908917
1730575522.9636393,841.5135516663414,611.9917704923146,526.6828439372699,815.3605957376938
1730575522.967665,830.9327769195958,613.877059994771,531.7374244843577,815.0151442753242
1730575522.9705474,818.7824369416794,636.9492189406303,536.7854010188935,814.6612519312238
1730575522.97117,818.2794543629719,665.8467424049335,541.8272133465872,814.3018788179672
1730575522.971691,834.4293261932871,661.6684051109073,546.8633312204186,813.9418898097474
1730575522.9757164,863.3078554652523,605.0914638661111,551.8942278406942,813.5839391604593
1730575522.9797423,896.4046872346315,514.1068682029709,556.9203711183885,813.2280830501979
1730575522.9810772,925.5253386652528,420.88345653727185,561.9422276561055,812.8732364942192
1730575522.983768,944.5999968866209,336.9984601856369,566.9602693288816,812.5185127871238
1730575522.9865074,948.2854555044739,247.4980257043391,571.9749764960501,812.1636757777007
1730575522.9877937,930.8796329253466,141.36922169725142,576.9868373885835,811.8089283767895
1730575522.9918194,889.1016118544057,44.92374772108866,581.9963458558169,811.454547596576
1730575522.9958453,827.595008375282,18.318879762068946,587.0039993978321,811.1006806993254
1730575522.999871,760.9877955768233,110.46972415595712,592.0102980795957,810.7473368729438
1730575523.0004802,707.6762375614557,309.8891528863122,597.015744014379,810.3944683324933
1730575523.0024674,678.9026647386723,538.160352740635,602.020841013464,810.0420420602767
1730575523.0038967,672.9172282119089,698.754628440245,607.0260943265182,809.690067646104
1730575523.0070455,679.1587232277318,745.1344116836681,612.0320105568119,809.3385914291484
1730575523.0079224,687.1142961126478,711.4797738315846,617.0390975335998,808.9876730947382
1730575523.011948,691.7430333051149,678.115601896019,622.0478634015396,808.6373507827043
1730575523.0159738,693.1419023597118,700.0926924786015,627.0588141755313,808.2876039043375
1730575523.0184274,693.4368874924321,761.3843983014974,632.0724502382956,807.9383455252907
1730575523.0198834,694.2585857240916,794.850101946789,637.089264500619,807.5894904721889
1730575523.0199995,695.9925880273165,747.3778032612695,642.1097462011097,807.2411054981363
1730575523.0240254,698.2436168945281,627.7076189570948,647.1343914280293,806.8935377674505
1730575523.0280511,700.5256774827939,492.97975807971164,652.1637131123122,806.5473085943285
1730575523.0320768,702.6162801139301,391.41115807717847,657.1982343896229,806.2026150328015
1730575523.0343874,704.5443429138069,321.1676447984918,662.2384520534955,805.8586421932279
1730575523.0361028,706.4280051412111,246.33087460955156,667.2847827045775,805.5134338990637
1730575523.0392864,708.349205072548,150.2934028730018,672.3375461002508,805.1652501788776
1730575523.0401285,710.3224090022568,67.88454787867585,677.3970584575701,804.815410803852
1730575523.0429213,712.3233437645322,59.86077434094972,682.4638451578928,804.4704627729963
1730575523.0441542,714.3255668842762,153.47892987400672,687.5388212867779,804.1396240915299
1730575523.04818,716.3175525282303,309.1443914031364,692.6231341690686,803.8249533507328
1730575523.050347,718.3007190371919,448.5920348394108,697.7174477361018,803.5088852403821
1730575523.0522056,720.2804884260961,519.0320761378096,702.8209679443764,803.1537551242685
1730575523.0562315,722.259939159154,531.632864987582,707.931281854817,802.7299010627476
1730575523.0586896,724.2385640299485,538.5189871445375,713.0463230568096,802.2693802166943
1730575523.0602572,726.2140402495742,574.249657093458,718.1684264259327,801.9011284033908
1730575523.064283,728.1842100562521,622.3957403560303,723.3073488975001,801.7916433672094
1730575523.0663073,730.1478584015267,639.9098728627964,728.4764928898251,801.9515036924521
1730575523.0683086,732.1043328145,610.6901398783846,733.6788050228845,802.0091957997231
1730575523.0723343,734.0527435656959,568.8980296525672,738.8891526469688,801.2320814643064
1730575523.0763602,735.991545102265,564.6209696559991,744.0541247778299,799.048211656595
1730575523.0780926,737.9190305066245,606.5835892440864,749.1326609764438,795.839285181585
1730575523.0787964,739.8346790596133,644.0540871870587,754.1726068480093,793.1647015374406
1730575523.080386,741.7403358222163,612.5846323072501,759.3595692911183,792.8213945781022
1730575523.0822675,743.6393674030337,502.0132191267323,764.9303167048063,795.423190078781
1730575523.0844116,745.5324859858604,377.83225669072124,770.8969623659981,799.9911438535512
1730575523.0884373,747.4119780636122,329.4573633231886,776.7319872422062,805.0809661364617
1730575523.092463,749.2606162270494,391.55419257761196,781.4203610966738,810.1928497843845
1730575523.096489,751.0630156036266,514.0722753386596,784.2909665716221,815.7939593505558
1730575523.0974956,752.8294062052104,610.4374925301414,786.4555523612864,821.8924108997879
1730575523.0982275,754.6137245984258,636.4223896461092,791.5788316283031,826.9186663950436
1730575523.100515,756.4921929287001,622.7581408501309,804.0022186689548,828.4693109332227
1730575523.1045403,758.4811114105398,632.2988919244157,823.5281719586601,825.3517716245149
1730575523.108566,760.4327167734693,687.8875824907808,840.293990077076,818.788592002689
1730575523.1125915,762.031335606986,744.0737668322554,837.2181285255399,811.4865143177152
1730575523.1141877,763.0282677960289,730.1000236240025,803.7817797817966,805.5876805097773
1730575523.114672,763.6900196024371,621.275505001262,751.2192940456569,801.6478256274846
1730575523.1166177,765.0894183166249,469.4712659519348,710.6700487941158,799.5073686087753
1730575523.1168988,768.6021799876426,363.0391198097219,709.0060994882942,799.7500394440415
1730575523.1206434,774.2688854916726,352.0276482736912,741.6663541741673,803.7994191187606
1730575523.1246693,778.8434464290805,406.3190649495992,769.7742086144511,812.2555772865037
1730575523.1286948,775.7798258100821,445.4164942535411,749.1461668287021,823.1431980266468
1730575523.1301477,759.2267052565488,414.6625911565486,669.2119768408511,832.1493697584651
1730575523.1327207,730.6262001560348,339.13174245103653,567.6875818297917,835.2015758272355
1730575523.1363018,701.9968056212712,303.496981621444,504.84666285812955,831.49201633006
1730575523.1367464,690.5159035945626,372.6772081828067,516.2465265555938,824.3837958275948
1730575523.140772,706.4791237187168,525.4633194455239,584.2176870262609,819.205410412713
1730575523.1447978,744.0498838090799,665.3113976636639,654.0706510819333,819.4772648362143
1730575523.1461074,783.3480223015468,701.7088715740005,680.8027165662583,824.4849273211948
1730575523.1488235,803.4290230406257,628.0831409029871,663.7988306251631,830.0916349917178
1730575523.1505475,796.243907813122,524.9361965225819,639.4210429250027,832.052944175859
1730575523.1528494,770.2380283577385,487.7290944251853,642.3220581207822,829.0921036672215
1730575523.155705,740.8704506503897,547.8823192084247,674.2754916760897,823.3465137707839
1730575523.1568751,716.7422283137587,656.2072580641141,707.7827934098768,818.1378317909291
1730575523.1609008,693.6130191675619,734.9986981672209,715.717597454766,815.2246287716324
1730575523.1620674,660.9151294433531,742.9529959645756,695.2516729389044,813.860985589759
1730575523.1649263,613.9420810264568,694.1473139394723,664.5424074791783,812.1511553194548
1730575523.1689522,560.5020375541085,624.3987734103864,639.9685758535499,809.1826987983444
1730575523.1729782,516.7295510086531,549.2682813375171,619.7807320803081,805.9950155857136
1730575523.175108,496.31371679896455,459.0056344715127,590.9599112244885,804.6985052172229
1730575523.177004,501.938159939779,351.26267802102177,550.8715509211355,806.6659625065126
1730575523.1780276,524.7161706221111,260.17506208015385,519.0323495535494,811.3553611570607
1730575523.1810296,550.852179967616,242.7153827630832,523.04524602554,816.6823311364225
1730575523.1850553,570.0208234257801,327.8763897792388,569.369620337162,820.5528192233865
1730575523.1864233,579.8671283620945,477.4135769889054,628.6092433464084,822.2067670919785
1730575523.189081,585.0813878404952,603.3481769640755,654.9660453298007,822.238455615621
1730575523.193107,594.0500548017005,635.268678566968,626.180852920097,821.4626206929394
1730575523.1939876,616.5835399168799,578.310494100994,565.9176473990075,819.969898509497
1730575523.1945112,662.1854217229117,505.2286253660597,523.1689314621574,817.4683271242831
1730575523.1971326,735.4144282817792,486.37890286726207,524.6985750711269,814.4903133557623
1730575523.2011583,828.5616594070981,522.4646601966854,546.2049025970624,812.9078599537006
1730575523.205184,918.8211637370541,544.5460827529978,533.1623572365795,814.8055272884541
1730575523.20921,977.3664876870916,481.9937748866409,454.5299031647936,820.5581361440865
1730575523.2099476,987.4678869431001,334.01976978651174,338.55488760140656,828.0028766614003
1730575523.2132356,957.7174020901764,177.6417258569815,254.96957110349382,833.6855798679471
1730575523.2139142,917.7954769593694,105.29589836905546,258.3436861998535,835.1851312546204
1730575523.2172613,898.6165396117741,149.1370811914578,343.8370478213651,832.5002411074576
1730575523.221287,912.3906083945764,257.88624674252185,454.09861115053627,827.4310018329455
1730575523.2222984,947.9437485012902,342.66695728068424,528.2479797723872,821.7936420671008
1730575523.2253127,983.3154528941677,348.7752921785607,547.2447286181224,816.2572391122771
1730575523.2259076,1003.7503332799372,292.1761876276199,537.2230363162989,810.7397883931063
1730575523.2293386,1010.3336614214069,234.2196702355832,533.271399910655,805.6283069511562
1730575523.2333171,1013.8440699008027,222.54823198532975,541.2032261062519,802.2882022220812
1730575523.2333643,1021.2316552389369,253.27920389419057,533.6201541176939,802.1205324392283
1730575523.23739,1027.7401978571743,286.74373875087116,482.6280419308805,804.9813480370091
1730575523.2414155,1021.7013036425781,297.0830419612761,396.42246080463565,808.597531141351
1730575523.2418675,996.9532346349525,303.16772375697235,322.53713549844633,809.8778980222072
1730575523.2454414,960.7687284221404,347.98248533848465,311.9219360708473,807.2880454648063
1730575523.2494674,929.7784309416099,448.40725397491747,376.4937631866099,802.2779870658403
1730575523.2527204,917.9602922133658,570.5166332192231,479.97473734644956,798.3518127606734
1730575523.2534933,927.6533150949566,659.4063593287001,568.9298636371007,798.3955430350416
1730575523.2575188,950.3552117471837,693.395925742087,612.2588094526553,802.4898895518941
1730575523.2578275,974.2466578625975,704.7871768224152,614.349405184146,808.0229364024076
1730575523.258174,990.4947057550003,743.969324519121,598.770178973818,811.8362265643376
1730575523.2615445,994.2601867060882,823.16707070592,585.6492951680175,812.4177942891187
1730575523.2655702,983.0427480948267,897.4492622697492,581.8490802309423,810.4002464445106
1730575523.269596,956.7834538482964,902.8808400446717,584.4157830468713,807.3952928624748
1730575523.272123,920.0505457626837,814.9163200186376,588.0784456648763,804.63039768863
1730575523.2736218,882.5108232766245,670.955248154125,589.8818291276532,802.6471208970806
1730575523.2737875,855.0300201297152,536.5749165591862,589.7184272900961,801.9303787512551
1730575523.2776475,843.8269212446229,449.4016172660999,588.7737585220458,803.3000409955275
1730575523.2816732,847.9302278768921,395.33447051706014,588.0488858530244,807.2346602403188
1730575523.285699,862.0658562314043,339.04840196697387,587.8401926933528,812.6276881707669
1730575523.2897248,881.3901695565625,275.65705440960335,587.9559500889591,816.4517336224665
1730575523.2897477,902.810581122767,247.27844417333304,588.1143498077716,815.3337328670079
1730575523.2915266,922.0670260420458,302.40112826656883,588.1708622527144,808.3003187962713
1730575523.2937503,931.1936602461459,436.18551346331316,588.1301834023209,798.4245997564386
1730575523.2940495,921.0098696525038,575.311775885294,588.0581312889818,791.4449580022552
1730575523.2977762,887.5828462482232,631.5013940877527,588.0055892956499,791.8271173499652
1730575523.301802,836.4567296681827,578.2549285684349,587.985150420305,799.2975250599709
1730575523.3057077,779.8158414833946,475.7915647005521,587.9850071481729,808.9958150574093
1730575523.305828,728.6009753834473,414.8652028714423,587.990171521825,815.4371495440663
1730575523.3098536,686.8570831089322,430.046504464855,587.9935868825199,816.9408785728914
1730575523.3109295,653.6645311102187,466.3985796416193,587.9959517865734,816.5689679693696
1730575523.3138793,630.5605144381733,433.3995620776467,588.000802113168,818.7592792534393
1730575523.3179047,626.4899527830572,295.2391445079708,588.0106278306953,824.7996694819512
1730575523.3216677,653.7638747119024,111.79759561138911,588.0258607965089,831.2865495380443
1730575523.3219306,716.5670547746336,-7.592557312216172,588.045728993283,832.900309846875
1730575523.3259566,801.5359780986195,5.676284748582873,588.0693791919704,826.9603676889185
1730575523.3299253,880.269659728917,126.15176632292474,588.0964134561299,815.8151969739555
1730575523.3299825,924.647267223148,261.94329068735067,588.1268384164367,805.2210707992133
1730575523.3303325,924.4565800094724,334.4529982388533,588.1607937742564,800.3362180570539
1730575523.334008,893.4795451248809,338.00952130190115,588.1983554911109,802.6728154504705
1730575523.3376276,858.8803611758361,329.52476515303437,588.2394939915736,810.0428451063177
1730575523.3380337,842.4101344535,364.2166290013667,588.2841250481968,818.7639590408912
1730575523.3420594,848.3194747872365,442.1721968455551,588.3321686455107,825.8352927145335
1730575523.3460853,866.1318458316922,515.9798518982803,588.3835744294364,829.6162253791827
1730575523.3497355,883.1128260276918,545.9177424788785,588.4383168279171,829.4323571053266
1730575523.350111,894.0520553420544,541.2234442663723,588.49638011881,825.3371269886715
1730575523.3535876,900.9720851456216,544.1660602276686,588.5577484407345,818.3919488987949
1730575523.3541367,906.252941019168,577.6179769356542,588.6224041031761,810.7237398827997
1730575523.3581624,908.055723766658,615.9528766718914,588.6903304521312,804.7453624034639
1730575523.362188,902.5843311096315,611.1882441705825,588.7615148350292,801.9827824063668
1730575523.3658004,889.6798641788604,544.2743702756071,588.8359496868209,802.4944770711592
1730575523.366214,875.0103854231622,444.64201029730293,588.9136320602893,805.2611705017774
1730575523.3691387,866.0347997806746,357.5162767380336,588.9945627108897,808.9853127855716
1730575523.3695476,865.3435691375901,296.1145172860532,589.0787454910627,812.5253004460315
1730575523.3702395,867.8549827598739,231.815550429626,589.1661871845159,814.7936515701393
1730575523.3742654,865.3334136208767,134.10196791893742,589.2568975610442,814.63045238781
1730575523.3782911,855.2054687986985,18.462758137796186,589.3508894191725,811.2214597919283
1730575523.3823173,845.8167777343886,-49.98259010477335,589.448178523613,804.9907577695103
1730575523.3855076,851.7151002236428,-6.575648973825935,589.5487834627114,798.1390820711883
1730575523.3863428,880.6735802130163,153.19074937975552,589.652725486137,793.9287389025118
1730575523.388542,923.0609616800534,360.7556115745316,589.7600283605163,794.7565615843391
1730575523.3903685,954.8569149727866,523.0440001633477,589.8707182474768,800.3290680044942
1730575523.3943942,954.8387182944863,590.0074876869435,589.9848235915061,807.5767504509233
1730575523.39842,922.6391914368203,580.6793822013983,590.1023750055896,812.6987034422561
1730575523.4014678,881.4446773423826,547.5569719497736,590.2234051503622,813.8538694556365
1730575523.401676,861.8414157629409,519.3258810425214,590.3479486085417,812.2990661364129
1730575523.4024458,880.3415682951527,481.15825569483735,590.4760417579107,811.0311160898747
1730575523.4064715,930.5517255637072,409.3748262119161,590.6077226447424,812.1164098877582
1730575523.407945,992.2380534361862,317.3945908523964,590.7430308578103,814.9462828310444
1730575523.4104972,1046.738343548163,256.8324252424981,590.8820074023007,816.7847148204406
1730575523.414523,1083.4072316829465,266.65426911418984,591.0246945730418,815.0748095967551
1730575523.4174278,1094.135980256574,322.96239400191564,591.171135826891,809.6373771213717
1730575523.4185486,1067.256922212246,347.7147144560382,591.3213756544317,803.0311136009445
1730575523.4225743,992.4918793973483,277.56399127504926,591.4754594511858,798.7310248245032
1730575523.4266002,874.9305974440236,131.15414888222057,591.633433388476,798.4628526994449
1730575523.427348,743.4835294850542,8.834322911110746,591.7953442839739,800.8165691794575
1730575523.430626,641.403076484363,18.677685781573302,591.961239471936,802.37724186931
1730575523.4333878,601.8027096458226,190.04495945723528,592.1311666731356,800.5383696027556
1730575523.4346516,625.8148620134428,448.2038919003479,592.3051738645283,795.6639972426457
1730575523.4375515,681.7713430391562,670.635285725125,592.4833091486989,790.8263549997628
1730575523.4386773,728.2798137483144,776.0218311472217,592.6656206231446,789.4670048593139
1730575523.4427032,743.764410227838,772.0174149863808,592.8521562494442,792.9455411746752
1730575523.4467287,737.9431807408725,728.0109648857233,593.0429637223614,799.6808825492825
1730575523.446751,735.7866057847191,705.9330564613738,593.2380903389258,806.115643299392
1730575523.4493475,749.8903933843783,714.1317087565199,593.4375828675398,808.6179089220823
1730575523.4507546,768.3225600911827,719.4939053409739,593.6414874171618,805.3075223810736
1730575523.4547803,769.3449224735057,694.133205790125,593.8498493066156,797.1043955299288
1730575523.458806,746.804700601526,643.7750498371007,594.0627129340797,787.532184852146
1730575523.462832,718.8116353632699,591.2077383903351,594.2801216468099,781.1623484214058
1730575523.4653077,709.5637804675694,539.193369434864,594.502117611148,781.2871000473972
1730575523.466154,722.280238033312,459.51263429588465,594.7287416828749,788.0650465318654
1730575523.4668577,731.2835103541818,325.93026573081016,594.9600332779594,798.3200901375045
1730575523.4708834,703.1063205876462,158.7262019378112,595.1960302437658,807.2465427231076
1730575523.4734273,628.212683517726,29.515479355099217,595.436768730775,811.053709086412
1730575523.4749093,534.0404203010938,10.865542723712508,595.6822830648796,808.9182473330176
1730575523.478935,466.7085339779868,113.91255132610371,595.9326056203145,803.0404317568241
1730575523.4812677,456.9373450876024,276.3441430258675,596.1877666932843,796.9142953529736
1730575523.4829607,499.3700447861035,413.75213436671083,596.4477943763508,793.166941005513
1730575523.4855573,561.7055250215843,481.1404033301089,596.7127144336432,792.4903067947337
1730575523.4869864,613.5293915090523,488.56603221357733,596.9825501769583,794.1564141944563
1730575523.491012,648.7729053593964,472.1908561140024,597.257322342815,797.3090103803353
1730575523.4950378,683.5408195662542,460.6052619719543,597.5370489705311,801.7612778136627
1730575523.497228,733.9645775699422,462.5174270702961,597.8217452813914,807.6668874959648
1730575523.4990635,795.8061687784613,473.0505172385437,598.1114235589748,814.511129298352
1730575523.5030894,844.4921476078314,484.66648936405045,598.4060930307132,820.5042100109246
1730575523.5049603,854.9743331448675,493.43603654606903,598.7057597507523,823.1878644375693
1730575523.5071151,823.008714209074,499.4500371359352,599.0104264841867,821.0663284481211
1730575523.5093024,768.9875973975132,504.4751385263967,599.3200925927453,815.0687914072431
1730575523.5111408,722.1779511227577,509.89595812690834,599.6347539219987,808.5139573254417
1730575523.513188,700.6971962629563,516.0683017616067,599.954402690168,805.2859528769711
1730575523.5151663,703.9148481113486,522.6836652246595,600.2790273786085,807.4192105061857
1730575523.5191925,719.75820288249,529.3408732340068,600.6086126240493,813.9154484441592
1730575523.5232182,736.4914744846092,535.8496429171937,600.9431391126669,821.6752621075457
1730575523.5243635,748.9555790315313,542.2292684269376,601.2825834760723,827.6619837004508
1730575523.527244,757.7489454816881,548.5770896271374,601.6269181892933,830.465128674704
1730575523.529148,765.4756093725484,554.9631765401215,601.9761114708334,830.2113412931453
1730575523.5312696,773.9436410933896,561.4020860679772,602.3301271848912,827.4506362831332
1730575523.5352952,783.4791909577443,567.8753951820449,602.6889247458239,822.4774064782849
1730575523.5393212,793.5643852113202,574.361984801033,603.0524590249437,815.7450637009465
1730575523.543347,803.6410840346894,580.8527388455285,603.4206802597336,808.598516319062
1730575523.5437665,813.4822270158857,587.3493592872079,603.7935339655668,803.1034678415651
1730575523.5451078,823.1448035098176,593.85707836101,604.1709608500117,800.7620661788656
1730575523.545178,832.7722225456644,600.3792732289083,604.5528967298048,801.2506940333972
1730575523.5473726,842.4553858631022,606.9162475947294,604.9392724505822,802.5471398504421
1730575523.5513985,852.2057853022241,613.4666013561431,605.3300138094828,802.6151214701275
1730575523.5554242,861.9935597554261,620.0289601065957,605.7250414807473,801.2714170858759
1730575523.55945,871.7896939888963,626.6028888953954,606.1242709444202,800.4766932347125
1730575523.5610678,881.5836222766796,633.1888505877237,606.5276124181972,802.5994888716635
1730575523.5631697,891.3792425366518,639.7874597453845,606.934970792384,808.1062881626174
1730575523.5634756,901.1841246225388,646.3983796026524,607.3462455679381,814.7799784232725
1730575523.5675013,911.002547929702,653.0195245739022,607.7613307977579,819.2374249086932
1730575523.571527,920.8345956062718,659.647671721327,608.1801150317299,819.4700937488382
1730575523.5755527,930.6785038997696,666.2812911892911,608.6024812662488,816.3236870179751
1730575523.5770278,940.5329631169848,672.9244859931407,609.0283068984984,812.8722478922266
1730575523.5795786,950.3977984700005,679.5879083160125,609.457463684513,812.3617593231805
1730575523.5810535,960.2731789752127,686.2813822394511,609.8898176986538,816.2818517727043
1730575523.5825727,970.1584081741173,692.997961537947,610.3252292924957,823.7283586755298
1730575523.5836043,980.0515814135889,699.701209870102,610.7635530550136,832.1859280850705
1730575523.58763,989.9510252449669,706.3384454114974,611.2046377824215,839.0137126107398
1730575523.5916555,999.8581662129372,712.8951316244975,611.648326469049,842.6574050810412
1730575523.5929878,1009.7793671044753,719.465932023888,612.0944563212994,842.9344130725567
1730575523.5956817,1019.7228090293443,726.2612461235067,612.5428587721702,840.4191898664253
1730575523.5997074,1029.6885553755249,733.454131732821,612.9933594495557,835.5903339766023
1730575523.6019757,1039.6572881047664,740.8783737887294,613.4457780632582,828.534966771057
1730575523.6037333,1049.5923272446405,747.8190447061914,613.8999282540085,819.4690294663693
1730575523.6077588,1059.469577946761,753.3223696079561,614.3556175673316,809.5160439461594
1730575523.608948,1069.328886104406,757.2622755817865,614.8126477566425,800.8499608544356
1730575523.6117845,1079.3005364954083,761.6137328296925,615.27081541965,795.8673798539766
1730575523.6158104,1089.5353992195992,770.3462357204992,615.72991250035,796.0060302296498
1730575523.6169293,1100.0124425968513,786.2313135580885,616.189725771313,801.1417756796378
1730575523.619836,1110.3406842961908,805.017418964235,616.6500347265512,809.8199999252645
1730575523.621379,1119.835880595589,811.6589642777029,617.1106088778139,819.7607603451007
1730575523.6238618,1128.1242270150733,785.9175044186301,617.571207639354,828.156264124099
1730575523.624908,1136.0924426875117,718.8911451011186,618.0315864565134,832.0834702023309
1730575523.6278875,1146.2560446092746,626.8563387630285,618.4915086140367,829.6419761789366
1730575523.6319134,1161.2185042007459,542.6594239253592,618.950753163531,821.5254451893669
1730575523.6359391,1179.8666714473413,487.9533732135243,619.4091023771414,811.6041609715834
1730575523.6399648,1193.6394413336998,458.60852544201487,619.8662998946916,805.3104963153322
1730575523.640782,1187.8040924117445,443.4401808688874,620.3220016261262,806.387168576476
1730575523.640868,1150.7221190915814,451.6738502212454,620.775781277398,814.2557803069585
1730575523.6439905,1085.2530713469052,509.1631012990677,621.2272550415306,824.1296697082212
1730575523.6480162,1009.6236046458473,621.0149365828756,621.6763023930442,829.9942006430674
1730575523.6520422,943.570946522469,742.1210327515357,622.1231896362569,828.3865663405574
1730575523.6528044,892.7055474323188,794.094224525908,622.5682877488629,820.317734852025
1730575523.6560678,847.0315706886756,720.7781691197123,623.0112566612223,810.1312312309235
1730575523.656828,794.2684278224209,534.7995212967357,623.450174150317,802.418799519786
1730575523.6600935,734.3317924760336,313.5959173244798,623.8818023712315,799.4501824534628
1730575523.660185,682.009901990631,146.87965441832444,624.3041138686325,800.8380239129643
1730575523.6641192,656.4569491677694,78.07920140900399,624.7204024923725,805.0437275899197
1730575523.6681447,666.9187407467526,85.9912658080791,625.1411058388474,810.8281333014094
1730575523.6721709,706.0474586129701,117.97459165168596,625.5776544191307,817.2870556032428
1730575523.672788,755.1170802461766,142.0306018858211,626.0267123722601,823.0039049264944
1730575523.6761966,795.8125437243758,170.06755894887704,626.4549731536101,825.9304863230116
1730575523.679588,818.9301424290513,233.36688012404656,626.8073489494236,824.632494765733
1730575523.6802225,824.5580088411438,338.1281193736086,627.0576814692375,819.701284002634
1730575523.684248,816.6488309624496,447.8943525611271,627.284661633875,813.6915196665454
1730575523.6882737,799.0172615274586,510.62967446229476,627.6960322748778,809.4757904553821
1730575523.68868,775.927463420446,501.5926852930411,628.4972782124474,808.5919985216804
1730575523.688748,753.6530624752102,438.7367513614983,629.5893700953071,811.0054752125662
1730575523.6922996,738.0196830418965,359.1001843503933,630.3081056845524,815.9832532365627
1730575523.6963253,728.8034101640641,285.3990704344532,629.6389061359872,822.6341848257678
1730575523.6989913,717.7816343910891,217.31012522863097,627.2247856142684,829.4614445598543
1730575523.700351,695.2566972374447,150.06514186743078,624.7521068071973,833.9228831489667
1730575523.7043767,660.9226267694529,93.11498250535891,626.1937891417203,833.3538415709086
1730575523.704708,628.5654818351084,65.80688106291689,635.0192083239634,827.0873202004038
1730575523.7084024,618.0985335911059,75.92200708810498,648.3365520715208,817.8811456260354
1730575523.7124283,639.9892828649181,106.27989543475405,652.2093870755197,810.8490720337098
1730575523.716454,685.1611208815798,125.76722120953531,625.8849718134386,810.149129154672
1730575523.7183945,729.7549860459294,116.47695651480456,558.6763145704278,815.859713246746
1730575523.7204795,751.5300304266859,92.55828306850822,468.78002316242635,823.7081930765299
1730575523.720668,744.4292334278603,91.96155375030384,402.0384000527613,828.1794908783345
1730575523.7245054,719.3747131942308,144.86027320137856,402.21694351575593,826.6683304833449
1730575523.7245555,691.6338158568697,244.7288291879244,475.90716357943415,821.2501316682766
1730575523.7285314,667.0514005075984,349.6301756966988,586.2562202471736,816.5582297134614
1730575523.7325573,639.8373041778059,416.03170507785944,682.5568094992868,815.6917693486671
1730575523.7365828,602.9120249576727,435.6264205956323,737.1480600326921,817.8426452247727
1730575523.736628,559.4241983051426,439.73061263021634,756.2317445503436,819.6009955905373
1730575523.7377973,523.2582824150388,465.7637987618902,760.1617060817955,818.3468556086698
1730575523.7406085,507.79204484657095,517.7469678901415,758.6138405404058,814.3365987930538
1730575523.7446342,514.0829299723059,559.0547334682176,746.0452667750675,809.7302997812137
1730575523.74866,530.1287528402675,543.9787757915631,716.7072519510737,805.9744152152196
1730575523.752588,541.8675735084445,457.4544590858034,677.4551768946679,802.3773776875538
1730575523.7526858,545.3732037378079,326.43583441307453,643.4845834708457,797.1833808269138
1730575523.7567115,548.8217056837407,195.53487362012504,624.9035849874555,789.8017036059074
1730575523.7572005,562.3115561791694,93.03204445731262,620.485594221713,781.8198531111801
1730575523.7604313,584.4866143443369,19.24206259063976,622.4370983024547,775.8389446757803
1730575523.7607372,597.9925783965457,-35.37053081926376,623.9355606913997,773.3471715157775
1730575523.7647629,578.9339251903959,-64.50109651119783,622.4888199045669,773.6293718409228
1730575523.768548,514.2246695238564,-41.74348200455819,618.9093225499514,774.6053936861646
1730575523.7687888,413.9638403561028,54.78284491853276,614.8851301652965,774.7648845884631
1730575523.7728145,309.4412278814156,211.43972838638695,611.4137129364069,774.5214519527937
1730575523.7766037,238.46210454657353,374.38285095168277,608.5683719995004,775.8697396720634
1730575523.7768402,228.71765400542643,482.1918457913664,605.9779322653803,780.6520983998763
1730575523.780866,289.0676913713638,510.9166569729614,603.3115103308762,788.9088674293617
1730575523.784508,410.0286219614711,490.9256522087768,600.4619882145671,798.7140092167384
1730575523.7848916,568.2175713392726,478.10576183287344,597.4851565475896,807.5695223021892
1730575523.7889175,730.9357158569551,504.4938535406668,594.4718024753621,814.038378472113
1730575523.7929432,862.2807766725039,553.3934306466462,591.4708762838251,818.1979728920402
1730575523.796007,933.287160230623,580.1357700691717,588.4826098551274,820.7686952665208
1730575523.7963064,933.9594990892871,555.406535832333,585.4859986725006,822.0656741448469
1730575523.7969687,880.0778798494218,488.13972220435625,582.4638904990334,821.9211588979483
1730575523.800468,807.9279316181618,408.52189654557105,579.4113881746632,820.5332739502626
1730575523.8009946,756.7182300602256,333.31713309524804,576.3318460948524,819.1308741123033
1730575523.8050206,747.6939565274412,252.77674300546633,573.2300212648821,819.4993599335925
1730575523.8090465,773.8629851726514,153.9365422676662,570.1082166676673,822.5874816271872
1730575523.813072,808.7573627763445,54.569130372184645,566.9660342998511,827.4190227249917
1730575523.8154097,828.5722952868495,7.63153614080403,563.8018219041809,831.3935967149534
1730575523.8164282,830.6674256025469,63.955155013493936,560.6141219290541,831.8880126720708
1730575523.8170977,833.8898342093115,224.31853093066812,557.4025783372296,827.904844753142
1730575523.8211234,861.2910803345342,427.25083329634157,554.1683078902299,820.4457566308638
1730575523.8251493,920.15492142647,588.775646160744,550.9134613691349,811.475546293772
1730575523.829175,995.2518740874186,662.0301476897552,547.6394450210245,802.6839855635491
1730575523.832182,1059.0840102496813,664.8181025271634,544.3441165062784,795.2908056849681
1730575523.8323882,1089.4020604764169,652.2647726481116,541.0203138015308,790.7266615742201
1730575523.8332007,1080.8539919528957,662.6832887208444,537.6595486049707,790.780398330127
1730575523.8348126,1044.8441516448647,688.1674058917469,534.2624393700412,796.3499427407844
1730575523.8372264,1000.7922412415273,694.5945287183796,530.8497655312664,805.8013563756771
1730575523.841252,965.5796243763823,665.5244908034771,527.4589442692486,814.916832870587
1730575523.845278,946.6653705197206,621.3273231314467,524.1117056770565,819.1318370873447
1730575523.848348,941.6173970509985,592.7485895689788,520.7617240856705,816.4341041074499
1730575523.8493035,943.0799006150569,578.8660402805617,517.2717282348038,808.44413745166
1730575523.8533294,944.7101048088882,539.2662366130074,513.4924710574012,798.8187111354208
1730575523.854216,943.9619496701517,435.9414383865063,509.4638992211729,790.5638607764876
1730575523.857355,941.316609925804,285.95815805169826,505.60822884329025,784.6368252455746
1730575523.8613808,938.1923246102548,168.6473905088494,502.6236348870286,780.70007274864
1730575523.864308,935.5034201729128,171.1180373000962,500.8363036745037,778.757628079288
1730575523.8654068,933.3697617838274,315.2311598168657,499.2353505670935,779.765608252292
1730575523.8680575,931.4928099295709,530.3248439951542,495.17618745129425,784.5908525559819
1730575523.8694324,929.5801651734579,698.3954406538165,486.0805553309841,792.4640091595134
1730575523.873458,927.5246893375338,736.5396038989472,473.3421692773346,800.6295084549143
1730575523.8736188,925.3658931760548,650.773189467424,465.7834854459915,805.804732303218
1730575523.8774838,923.1817576823736,521.285680809177,477.34238141716827,806.3841469289747
1730575523.880268,921.0182131162284,435.98053890417515,515.6181966645222,803.574806107738
1730575523.8815095,918.878856568999,427.0187866309369,567.2318644654492,800.492287129409
1730575523.8855357,916.7469823875376,456.74116397904567,595.619415343619,799.938962950839
1730575523.8895612,914.6077346742638,458.51061434441726,562.1396195602796,802.6285803833875
1730575523.893022,912.4564700259805,398.1943821702485,459.8243840600404,807.120963347176
1730575523.8935869,910.2959674289935,308.3318290842233,331.0009957314963,811.2317896569698
1730575523.896228,908.1305874740461,267.0016114201436,247.42378274312154,813.5853058157531
1730575523.8976126,905.9627695993554,336.1415034669037,262.49594005118246,814.1664219447113
1730575523.9016385,903.7927227053774,509.41023377832806,372.6956248617438,813.8031781800391
1730575523.903933,901.6196814836408,714.320479641867,521.0345914895149,813.333854657977
1730575523.9056642,899.4430505588355,865.9052093206176,639.2416125967688,813.1490387374419
1730575523.90969,897.2627853529957,922.5768200187781,691.3945474735118,813.2275578842318
1730575523.912188,895.0792067508047,896.6494830254475,684.2938944677213,813.3925340189435
1730575523.912425,892.8926880684555,820.5876837212566,644.8565213338082,813.5133124983989
1730575523.9137156,890.703482607982,713.265890744977,594.0521017394947,813.5616126610992
1730575523.9177413,888.511719280972,582.8833127570792,541.8701097628646,813.5711235985344
1730575523.9217672,886.3174731069473,455.82411438447866,499.3130878750506,813.5812306906032
1730575523.9257927,884.1208237468836,387.5407076557865,484.9510148535537,813.6092082262588
1730575523.9281485,881.9218722254109,429.2876798798164,513.0677743232118,813.6520631789451
1730575523.9298186,879.7207291555667,574.6426704795949,574.4648274130168,813.699984969006
1730575523.931828,877.5174980356314,739.7544783686697,632.8008612066077,813.7463842311671
1730575523.9338443,875.3122668784044,808.7148075908601,646.3398735700347,813.7901943034767
1730575523.93787,873.1051086802584,718.1713837009995,599.4352979184212,813.8334093909018
1730575523.9398084,870.8960853475136,513.9144652368853,515.4077540043376,813.8781135672818
1730575523.941896,868.685250442526,326.2495013549945,437.8335106175574,813.9251471812502
1730575523.9441082,866.4726493791655,274.81086554282047,397.68531872846955,813.9743103405406
1730575523.9459217,864.2583182516712,376.3364672572448,396.39864778778565,814.0251002718907
1730575523.9499474,862.0422832736723,533.5251842351294,415.2397337715661,814.0772180366442
1730575523.9512312,859.8245620399803,617.5985797935052,435.0284114390115,814.1306598011201
1730575523.9539733,857.6051659696742,574.7657550677563,447.32024965684224,814.1855716224185
1730575523.9579988,855.3841011511945,463.98184435524183,453.29439616330416,814.2420909143975
1730575523.9600682,853.1613641520969,396.00885203590224,457.443093497611,814.3002787623266
1730575523.9620247,850.9369325087572,434.34245959995474,462.84788390825247,814.3601344902937
1730575523.9660504,848.71075698892,549.0670282078943,470.0497521042963,814.4216439278691
1730575523.970076,846.4827694087958,657.1820708470018,478.15711461557817,814.4848237918603
1730575523.9706342,844.2529153402962,699.1551042876971,486.2191933947933,814.5497413832815
1730575523.9741018,842.0211972204308,675.8398578885915,493.8539684257356,814.6164927368316
1730575523.975684,839.7876790714145,620.7609256503528,501.1629227079661,814.6851306670537
1730575523.9760282,837.5523951695181,549.9406657706068,508.3923589945839,814.7555735879113
1730575523.9781277,835.3151681668279,446.74232912391386,515.6973594115452,814.8275899147923
1730575523.9821534,833.0754811067087,295.11346434565417,523.0973333452279,814.9009742254813
1730575523.986179,830.8326610334473,121.82017205196883,530.541685711532,814.9759132563772
1730575523.9900374,828.5865207828487,-1.5373030995123145,537.9817869644262,815.0532642141774
1730575523.9902048,826.3381339425332,-6.693400969345134,545.4006841895769,815.1342267468327
1730575523.9919882,824.0897932500995,113.07017790050736,552.8060811610011,815.219081710824
1730575523.9942305,821.8431298798295,289.5338918297925,560.2119065595914,815.3055917647181
1730575523.9982564,819.5956881212219,429.1600181736362,567.626480174142,815.3889395699272
1730575524.002282,817.3388859823863,485.65777054726215,575.0509067792206,815.4653328272464
1730575524.0063078,815.0621649095046,490.2540784823981,582.4828964583735,815.5388999052067
1730575524.0079482,812.7655060719102,511.54833644716325,589.920585579232,815.6262177860958
1730575524.0094404,810.473215893864,584.2814737578824,597.3640112870513,815.7487513711059
1730575524.0103335,808.2306210901185,676.6602874010259,604.81460316608,815.9081652756171
1730575524.0115595,806.0657953053365,726.429534007107,612.273945854725,816.0576959764873
1730575524.0143592,803.9255335389518,706.4884000439478,619.7427600138126,816.1060329534666
1730575524.0183852,801.6443793565344,652.6070481814704,627.2206134343063,815.9913715645187
1730575524.0224109,799.0352448500275,626.2389515905761,634.7066868528075,815.8116278905992
1730575524.023908,796.1301692088651,651.4169810494333,642.2015645604992,815.897731905435
1730575524.0264366,793.4172604606109,689.2275659212945,649.709008827821,816.6531990786658
1730575524.0288436,791.7146864109451,674.0433532580257,657.2354154896643,818.0993187423742
1730575524.0304625,791.3538007961681,574.6034028346139,664.7848186004081,819.4463327925822
1730575524.034488,790.8512941387334,420.8882433964291,672.3507956011475,819.3724769061711
1730575524.038514,786.0424569707305,273.5829039952574,679.912857973898,817.2671860558042
1730575524.0398684,770.9268073268814,169.08627188110233,687.4484694074436,814.3816328026014
1730575524.0425396,740.6540937480573,94.82084460326314,694.9639367391042,813.2927119960904
1730575524.0465653,695.664645527563,17.55342592834819,702.5243142339532,815.6606757360718
1730575524.047435,644.8258713580664,-66.15648969917561,710.2375540949838,820.3422552812972
1730575524.0482466,604.789608860427,-111.11215539927014,718.1552509764689,823.910845283124
1730575524.050591,593.6548932910769,-59.32696299426334,726.1236088077335,823.4194135045592
1730575524.0546167,620.7162836330042,101.62740219626392,733.7351918996451,819.0528408449392
1730575524.0558283,678.9507276509694,315.5073252447934,740.5851351907347,814.2367735128404
1730575524.0586426,747.4368072488923,495.3871098477971,746.8627609138914,812.9347748408798
1730575524.0626683,803.9059070724036,588.5924916108728,753.8620365478715,816.372315032315
1730575524.066694,838.3644038402675,607.0322146742748,763.5566606191092,821.9792877285151
1730575524.0676496,856.9762994026323,596.6528135974289,776.6028099604041,825.4178153796537
1730575524.0707197,873.9938458590218,581.7834689352633,789.5445478386254,823.9538095474512
1730575524.0717883,899.9636902452082,543.3646059366678,794.0955240959845,818.4644733659854
1730575524.0747457,936.2332382022848,450.9221162259511,781.891968570008,812.679756152257
1730575524.0787714,978.1861298354199,310.4456713722816,753.824278130141,810.4680499873997
1730575524.0827973,1021.425027198583,175.08912221773681,724.8167606080985,813.2940847816872
1730575524.0833104,1064.0688486146273,105.54166077977226,713.7155120394606,819.6067827542298
1730575524.0868227,1103.815956788987,118.08184721708437,723.216897507772,826.3207557394966
1730575524.0870528,1134.1459943913546,170.30116023433453,731.5681523520677,830.9785205171057
1730575524.0877483,1144.9969815382121,198.95954280441862,710.2333231739673,832.8543754255592
1730575524.0908484,1129.1153022917267,176.59637925282846,653.7707205322188,832.4313253000271
1730575524.0948744,1089.455995872238,136.1308355202694,591.9507332771287,830.217072796286
1730575524.0989,1040.4967663415794,140.58052426124078,568.9985911062691,826.2586329152917
1730575524.1029258,1000.3709362296781,224.44039595370876,606.7803948601405,820.6897239581613
1730575524.1037085,978.9574365150161,360.178359936774,685.8644455026606,814.446550295231
1730575524.1064558,971.8450011692928,480.90089937394146,762.1918592887607,809.2069687449
1730575524.1069517,965.6704633080192,537.3381141330559,802.8699534929768,806.5416012215862
1730575524.1109772,950.0542550898915,535.1489784253631,807.4179391905524,807.050699349308
1730575524.115003,925.3097783539147,519.9879321553808,797.8515785736454,810.1492104424327
1730575524.1190288,899.5506572130599,530.4203680664203,792.7289540439192,814.4989939694105
1730575524.119186,879.2333425708375,567.2359301907736,792.7896977581181,818.6367692355548
1730575524.1196682,862.9853733659379,604.1132176909153,788.4664049634055,821.4188774863117
1730575524.1230545,844.3093633529927,619.2738271615505,775.0124340346199,822.2314693924965
1730575524.125859,819.362815311075,612.5540662655244,757.251801855441,821.0918523283871
1730575524.1270802,791.186162221333,597.6507940307725,742.7247306060266,818.6587871698985
1730575524.131106,765.9721009531938,586.5357103143997,734.556443841925,815.9967475928951
1730575524.1351318,745.5130157357089,582.4906731031883,730.9056097287661,814.0163472154354
1730575524.1356285,724.0653839392892,582.6872576566161,728.4235724745784,812.8607092288726
1730575524.1391575,693.4393152366226,583.3325678125051,725.0359927666073,811.7543886386323
1730575524.1431832,651.671363395556,582.5548961005039,720.4569546778595,809.5936194305153
1730575524.145262,606.7591882021936,580.4667798989124,715.3297616861643,805.9172683679212
1730575524.1472087,571.5899352968369,577.9598044968735,710.289136065575,801.439431042724
1730575524.1512349,554.6348995509074,575.7022447606788,705.567420760561,797.5959529178247
1730575524.1515884,554.7799939601939,573.8485452305324,701.0780044660561,795.44158946171
1730575524.1550615,564.4456204400014,572.2357549305021,696.6508775320075,794.9084128311175
1730575524.1552606,577.5572287300068,570.6663547498558,692.1861135971141,795.1438020728326
1730575524.1592865,595.1556330080757,569.0514429728538,687.6760823606161,795.5815572963445
1730575524.163312,624.1404700407211,567.4044127146728,683.1573311619654,796.6294654004919
1730575524.1646652,670.4932008393047,565.7743066461503,678.6622930848215,799.2092137896126
1730575524.1673377,732.2788889777926,564.1948768054442,674.2010919749429,803.5272928571757
1730575524.1675484,797.4720213491837,562.6722217237239,669.7676519244939,808.2513846622112
1730575524.1713636,848.2620523693519,561.1967423433232,665.3524359820101,810.9699596644506
1730575524.1753893,869.3599654225136,559.7581074461666,660.9500749308188,809.738433309261
1730575524.179415,855.2193702327692,558.3521825256801,656.5600332998994,804.5992523410889
1730575524.1834407,811.8093750521425,556.9801502384335,652.1838668101256,797.8986556544668
1730575524.1835084,752.6901819796842,555.6447292067323,647.8227287367528,793.0272557823685
1730575524.1840682,693.4354604653872,554.3473876235213,643.476541742978,792.3419343516478
1730575524.1874664,648.4856715221765,553.0877202912797,639.1444034244568,795.7123872671057
1730575524.190937,629.9996511991006,551.8644154759904,634.8252691310277,800.7930268303743
1730575524.1914923,644.735909234008,550.6768197705713,630.5183277243053,804.8349365768574
1730575524.195518,687.7297775421807,549.5261239254651,626.2230109785386,806.5742413964973
1730575524.1994684,738.2900496377353,548.4150776417591,621.9388400578289,806.6573363898842
1730575524.1995437,766.1907435967979,547.345392938624,617.6652983161908,806.4193908369467
1730575524.2034712,748.8574658780335,546.3136174110448,613.4017953209535,806.3833780391243
1730575524.2035694,689.0716146552525,545.3092058461459,609.1476930004061,806.008617806717
1730575524.207595,618.4977773697999,544.3202844834582,604.9023425951023,804.7950446281714
1730575524.211621,581.1245361125316,543.3488552080365,600.6651036080028,803.3570482823931
1730575524.2154284,606.3259796463626,542.4258940110001,596.4353436249022,803.1330949532748
1730575524.2156467,690.3356480817728,541.6043159562118,592.2124304763605,804.9349054363132
1730575524.2196724,799.1646547941033,540.9107072689469,587.9957264563825,807.8892081365228
1730575524.2228744,889.9955804291002,540.271296811994,583.7845874823319,810.0135899485966
1730575524.223698,935.2123854285388,539.4855983418204,579.5783653402202,809.9956141916938
1730575524.2268124,933.4896703113328,538.3492725703967,575.3764102898745,808.4476641740672
1730575524.2277238,903.925300598355,536.9455700773243,571.1780726528473,807.3435806834685
1730575524.2313883,871.1916792201993,535.9053876176055,566.982703461622,808.1042451504293
1730575524.2317498,852.8299895035983,536.2164806424356,562.7896548089938,810.1494096051022
1730575524.2357757,854.257625413806,538.2617877297482,558.5982803102601,811.3297705661003
1730575524.2398012,870.2498735738827,540.464290735084,554.4079356454993,809.8759969208863
1730575524.2422774,889.5884752708489,538.9927355145535,550.2179789661408,806.0801699259328
1730575524.2438269,901.2133057811661,530.3826885620057,546.0277711925622,802.2149772098609
1730575524.2473483,900.7273723620124,517.1897399877138,541.8366766932277,800.8362662565372
1730575524.2478528,894.0486076830076,512.6628239052848,537.6440649987399,802.9767689327597
1730575524.2518785,894.3030421690091,536.9094999785289,533.4493134952929,807.6329000051794
1730575524.2559042,912.2734367780304,600.5804269081278,529.2518094486974,812.6984298947492
1730575524.25993,947.0838477654376,685.9526864413929,525.0509484385113,816.3849053134733
1730575524.2616806,985.2831467829518,746.9931566428114,520.8461276093259,818.0644555433357
1730575524.262688,1010.0943103800913,738.0343329747503,516.6367375655798,818.1796215743458
1730575524.2633083,1013.6321786355988,649.2584371739165,512.4221637759457,817.595684101404
1730575524.2639556,1001.798236604908,513.4491456639233,508.20180892295014,816.9902578222824
1730575524.2679815,987.4858902105811,374.56527136728766,503.9751323264109,816.6209806544229
1730575524.2720072,977.7885012526325,248.9608516553175,499.74167258231006,816.4351996500018
1730575524.2760327,966.545221057353,120.8541222025425,495.5009990134488,816.2899203151634
1730575524.2792685,939.5519948703911,-19.564651776242158,491.2525688157635,816.0959437085222
1730575524.2800586,888.7865033720428,-134.32615404570356,486.9955731786304,815.8439802935798
1730575524.2810836,823.2159319714592,-143.57098146992882,482.72898212475394,815.5652209479211
1730575524.2840843,765.4492340206154,12.350272497144374,478.4519871377221,815.2888612103884
1730575524.2881105,735.372577969312,307.5619794701753,474.1647264178866,815.0250150054322
1730575524.292136,734.205669527641,629.939781853936,469.86861395115636,814.7692690497706
1730575524.2952285,743.572141234236,856.3546055951145,465.56526899814617,814.5137099619542
1730575524.2961617,741.6061017502182,939.8919754394827,461.2537460948614,814.2538488220863
1730575524.2985637,722.3440488915336,930.1989000846113,456.92783830917733,813.9894574256598
1730575524.300187,700.7529131648654,912.3469065947511,452.577471568594,813.722265740644
1730575524.3004866,698.4874700843247,927.229601938514,448.1975904401818,813.4537492454677
1730575524.304213,723.3929681022344,948.7365873167682,443.8015561590749,813.1843376216245
1730575524.308239,761.7075543177443,931.1925136540501,439.4255662585942,812.9137287703445
1730575524.3111885,789.9448397663963,870.6950366472549,435.10576127977276,812.6414813278445
1730575524.3122647,794.9732613101955,814.7751639818703,430.82506766036585,812.3673560685411
1730575524.3162904,783.5862311616737,810.8581473443539,426.46690703425134,812.0913358544291
1730575524.3198898,773.5317683631976,847.28705623261,421.8521791170448,811.8134959625369
1730575524.320316,775.6860592391067,850.0498570045154,416.916240505598,811.5338934856668
1730575524.324342,784.5007991440452,745.8012730570567,411.95437382039154,811.2525361049685
1730575524.3271484,784.5803168717314,536.5896728054433,407.6699435199564,810.9694028702114
1730575524.3283677,765.4781852991798,314.87976875564675,404.69404070180644,810.6844665052018
1730575524.3323934,730.2114402942095,197.42443596746722,402.5755071690229,810.3976915088
1730575524.334439,690.8076190918922,230.8962594537875,399.01217052378263,810.1090208335552
1730575524.336419,657.1867363450863,352.66115899148247,390.77680017874354,809.818387260546
1730575524.3392928,630.8060093640092,444.50763900623673,377.2890149743617,809.5257732707751
1730575524.3404448,607.9929438682816,433.5402440313252,365.30192834694355,809.231289095137
1730575524.343109,587.6659796050144,350.2152252183784,369.834767103934,808.9351702097142
1730575524.3444707,574.6819631650337,292.7018776544006,406.4477260093333,808.6375867752263
1730575524.3484964,575.8865497946513,333.957965598442,477.3550353900838,808.3382931600457
1730575524.352522,593.879594558967,458.94185877750454,563.9043534759701,808.0364172088705
1730575524.3565478,624.9561126090762,585.1063924497661,636.1404101183186,807.7308825785562
1730575524.358696,662.1266137747054,637.16809428491,672.8990172793391,807.4216902725695
1730575524.3590686,698.9713062330422,601.2193247351877,673.1961687291849,807.1113357036306
1730575524.3605735,731.1257219072828,514.6348148094651,649.4166570637357,806.804480550241
1730575524.3645997,756.6736463614999,416.32643618602543,613.1880847998628,806.504041001697
1730575524.3686252,777.7780399874847,315.17118821327387,570.7971299430026,806.204624707989
1730575524.3703144,802.0144134430116,205.48026022734925,530.9760163744593,805.8893388489543
1730575524.3726509,838.9130862900163,103.60595153328046,511.3981182620061,805.5390772948459
1730575524.3750286,890.6530302974767,56.21718884600881,530.0364233121597,805.157327533232
1730575524.3766766,943.4266369153908,101.33098143417561,584.7818535331437,804.7949844575076
1730575524.378099,969.386893134587,217.66441770035064,642.1792217002042,804.5389893810461
1730575524.3807025,942.6519384307635,320.5624277929527,653.9031940250214,804.4329562970959
1730575524.3847282,860.318500157885,324.34411964437356,594.9812007808044,804.3538224392046
1730575524.388754,751.8824893385533,222.16222109515152,492.0951529083926,803.962033849465
1730575524.3909886,666.51063099245,104.87866986571879,411.709949285971,802.8845642632309
1730575524.3927796,644.2950022051896,89.84391327857395,411.4840688947272,801.1407718024412
1730575524.3968053,691.2845498261954,218.36839901783324,494.94800670027297,799.468100708685
1730575524.3975022,776.346628897683,417.8473219376647,610.4827633640272,799.0256192219283
1730575524.4008312,851.7579053573535,566.5350902260061,695.8677403384045,800.4617964847189
1730575524.4048567,882.5203796883503,600.3276350610909,727.110331015905,803.2142571555266
1730575524.40619,864.999466192711,561.1885083936736,727.9076839527442,805.941560482872
1730575524.4069486,824.9030650780403,545.2555592822573,735.6590282877736,807.76083635629
1730575524.4088826,798.5363911183579,604.7091450119249,760.7095977584265,808.9015369682589
1730575524.4129083,809.9947095665984,697.2295602523046,778.143845705403,809.9875482576783
1730575524.4169052,857.4035166313707,726.908930831642,756.7496711606456,810.8472501416986
1730575524.416934,915.4438120930035,633.675648538635,693.6622111545469,810.4434204164538
1730575524.42096,952.2103491900209,446.72752652698995,619.560004314252,808.2354778869967
1730575524.4229083,949.6795239184286,255.8245555123507,569.5683691042202,805.4565808011533
1730575524.4249856,914.1362967007728,132.62799363761297,549.3663095709444,804.609406093331
1730575524.429011,869.6164257580286,78.30760252511675,531.3104428267753,807.3248469586752
1730575524.433037,840.2049545190094,43.489610493667385,485.8554200092193,812.6071569734025
1730575524.436308,835.4106116754521,-6.62142142942929,417.33858559484713,817.3028504028757
1730575524.4370627,848.8838116823008,-52.53271503422951,366.97367208367905,818.5150426745771
1730575524.4388683,868.1854241554589,-46.68870104873338,377.83718739996664,815.8154988739904
1730575524.441089,884.5195725355775,25.97134341562554,455.25377403134553,811.3219653844816
1730575524.4420657,894.258862492225,122.2073409135279,561.0668148255012,807.7082015089799
1730575524.4451144,894.0801162863985,180.1477284909293,646.1013156436582,806.0497149976446
1730575524.44914,877.5751611124414,182.09582961438207,687.7514906636989,805.413339354843
1730575524.4531658,838.2442428083947,171.07908734377008,697.8168299718583,804.353381714241
1730575524.4548287,776.5965425968809,201.47331109754256,698.8853489689726,802.6685929355384
1730575524.4557114,705.0888795520426,275.89297762923417,698.3944342020676,801.6326124922421
1730575524.4571917,646.1422205970815,335.7724242790203,686.7074192862453,802.5388969651697
1730575524.4612174,622.8495028298076,316.62883985560563,656.5134282947814,805.133642366474
1730575524.465243,646.3767872563261,212.83367353459215,618.9073673931391,807.5997387336461
1730575524.4692688,707.069866845841,88.42914129804728,597.5449196596093,808.1760516251248
1730575524.4707887,776.1478808501124,23.81107125957743,606.1582026329106,806.8912121131874
1730575524.4732945,819.7302887157831,47.53262146836113,631.514137020769,805.7847597304747
1730575524.4751143,818.4298976027113,114.17871387299016,639.6181121257459,807.3400410644135
1730575524.4773202,780.0818473395193,147.55233918162094,603.0387959872121,812.368932032417
1730575524.477941,736.1549388780822,111.76845506646123,527.9934271017,819.0597452098499
1730575524.481346,723.0970787839859,48.086725980800395,456.883274853489,824.0480130186412
1730575524.4853718,760.5497683839029,43.23586137957028,440.2194987852897,824.8154954716368
1730575524.4867487,840.7697979437839,154.4485879395267,498.6523055478574,821.5866622545209
1730575524.4893975,935.6464480223951,356.49015829813266,606.8145686153439,817.165330074723
1730575524.4934232,1015.2126112082617,557.6531360948518,712.6024278982756,814.8129326526243
1730575524.4945176,1064.0004555772834,669.2612717920993,773.9024569464248,815.9387612858154
1730575524.4974492,1084.7481560632298,666.3523437744852,781.0857161832587,819.444562403224
1730575524.5014749,1089.7807998008047,590.9881870881615,750.8358795337978,822.9529339631283
1730575524.502709,1089.4220158081935,506.4593257077437,704.936150220033,824.5221490929953
1730575524.5055006,1086.8360047119595,451.1301265013271,657.0774193204736,823.4064854871845
1730575524.5095265,1081.1372490169442,428.6860761469475,615.4926020301139,819.7327158961676
1730575524.513552,1073.0792441672854,428.15121277184863,589.7155194162563,814.0293110201693
1730575524.5138164,1066.4680827250434,440.7948091343092,587.4244248599315,807.3189218887678
1730575524.5139203,1063.7746320590477,455.10706589938525,602.4140753945388,801.4688679588318
1730575524.517578,1060.9945282626938,443.99064522643334,609.1662547952915,798.9185129884997
1730575524.518669,1048.3896071995312,371.6688823778504,576.7750744891226,801.3948954075112
1730575524.5216036,1018.3196438035017,226.39598430442226,496.1710323370145,808.349207444682
1730575524.5256293,973.7294268060195,51.0988785949325,397.40583055816114,816.5502055773837
1730575524.529655,928.8545235174861,-65.33158642384353,336.87450997408826,821.7261674534175
1730575524.5333235,900.159896402678,-43.06009787376888,358.9461911775444,821.4960342912626
1730575524.533681,894.4916246156762,126.09521388461508,461.5997290057041,817.3697404232596
1730575524.5346286,904.2086205393248,363.66690042187884,595.893614415035,813.8742413901095
1730575524.5377066,913.2494534643463,557.1805275159134,701.0106479570676,815.0846800326686
1730575524.5417323,909.2423242120611,640.6692322493055,745.5351980617368,821.2209708437651
1730575524.545758,892.2407157033637,635.2672667763019,741.4378542859785,828.182508277721
1730575524.549692,873.505729497005,616.8137629527796,723.4870964391745,830.5123573956762
1730575524.5497837,865.4974018091408,644.2439775837101,717.1079498389507,825.4456233855523
1730575524.5505886,871.1562386468826,715.8348731005187,723.4789465878545,814.9565918802086
1730575524.5527267,881.267889912614,786.956319555747,729.4731287897528,804.475207761763
1730575524.5538094,882.163045093739,819.8692457709952,725.9250744246666,799.4031721061542
1730575524.557835,867.2358901786337,812.2439583321993,714.9342353363187,801.8536602877647
1730575524.561861,842.4099368290708,786.3637518800183,703.8976649412218,809.6613967803322
1730575524.5658867,821.0764355201426,763.6931716060004,697.4390654270367,818.1653401850799
1730575524.5665488,813.3956118053115,751.845440405064,695.285109081114,823.4054832096756
1730575524.5699124,819.4084642452373,747.457291956847,694.8269157213794,824.3515949991524
1730575524.5721295,831.0530860222257,744.4627497624022,693.9514152176317,822.5872944422056
1730575524.5739384,839.6967858920746,739.396531430282,692.0366423390863,820.0996393185683
1730575524.577964,841.8118215769872,732.0675634264604,689.4764846590863,817.4572900086079
1730575524.5819898,839.046014770456,723.808811931643,686.850975555562,814.0182541381952
1730575524.5825088,834.822571266568,715.7747524247986,684.4563775293772,809.5720801903572
1730575524.5855677,831.4280280931545,708.3217567219037,682.2814883694476,805.4022903373534
1730575524.5860157,829.3087339051733,701.2406581211122,680.1898854523779,803.5715815947452
1730575524.5900412,827.8661247843095,694.2101469157897,678.076599481398,805.203592092567
1730575524.5915327,826.434492153933,687.0617418469664,675.9158322584423,809.4893309492236
1730575524.594067,824.7376878653714,679.7981918655602,673.732003175069,814.260612103422
1730575524.5980928,822.8402183922856,672.4943866477408,671.5559226941866,817.4266968896626
1730575524.5984688,820.9127821120167,665.2096721353348,669.4019542557554,817.9977416446711
1730575524.6021185,819.0649426906176,657.959857438235,667.2684690685643,816.1550252070963
1730575524.6061442,817.3113381689699,650.7323883096444,665.148034136614,812.8159445446931
1730575524.61017,815.6164424034167,643.5106247454867,663.0354233509224,809.3074394692374
1730575524.610936,813.945135715905,636.2868756652545,660.929683811778,807.1606928394789
1730575524.6141958,812.28417899054,629.0624088927623,658.8323368764103,807.5995751514329
1730575524.6144288,810.6377649892563,621.8417356067463,656.7450144419071,810.651950755867
1730575524.6182215,809.0147070368466,614.6278891221461,654.6683222206009,814.5890462190528
1730575524.621443,807.4200378776519,607.4211448669678,652.601991079307,816.5957099393829
1730575524.6222472,805.8537542483455,600.220408231249,650.5455986755848,814.6553988275625
1730575524.626273,804.3134200850116,593.025461565343,648.4991764378759,809.276947255488
1730575524.6302986,802.7968054660423,585.8383567378814,646.4633000231634,803.3618292088328
1730575524.6303391,801.3028929108219,578.6625592064996,644.4385246159013,799.9490437516681
1730575524.6303887,799.8315463933396,571.4993471528954,642.4243909498348,799.6613071786456
1730575524.6343246,798.3827979435541,564.343300478882,640.4188068898162,800.2618439970048
1730575524.6383502,796.9564046805784,557.1818903519087,638.4190272594301,798.9186100993339
1730575524.642376,795.5518122301188,550.0048281908579,636.424817762698,795.1443037781055
1730575524.6463487,794.168366500866,542.8223719110649,634.4420876339447,791.5633399395033
1730575524.6464016,792.8055642903043,535.677894926732,632.482368820484,791.6181063590572
1730575524.649742,791.4631666650571,528.6289318880519,630.5534246416382,796.2702439726839
1730575524.650427,790.1410379818153,521.6825006734828,628.6428860917165,802.8199775042062
1730575524.6544533,788.8386909614396,514.7180783303079,626.7094501586935,807.0559943295465
1730575524.6573184,787.5548081845224,507.4938063671008,624.7044579310564,806.8388887661498
1730575524.658479,786.287356362747,499.83730151094534,622.6327810450762,803.8687260411532
1730575524.6623087,785.0348757173748,491.98859963068037,620.6166554432066,802.0685310681471
1730575524.662505,783.7986193183962,484.7986017566416,618.8735960815476,804.1213120885628
1730575524.6665304,782.5835687783501,479.3031486275875,617.526575110152,809.3097031567181
1730575524.669145,781.3953707803778,475.4645098229748,616.3000514867267,814.4702471796581
1730575524.6705563,780.2322425001588,470.807993665501,614.3927788795902,816.9308639811021
1730575524.674582,779.0769393852943,460.8047157985849,610.9482352729326,816.5771252135672
1730575524.678269,777.9005435054537,442.785704869476,606.2360179817633,815.2832588825273
1730575524.6786077,776.688248496043,422.4596087472688,602.7835919084712,814.6494847795204
1730575524.6826334,775.4788501091077,417.2521531337139,604.7893207555915,814.534729388625
1730575524.686659,774.3787577444891,448.132394416182,614.5193284962182,813.7823685389441
1730575524.6885483,773.4964858727925,518.7982948681749,627.3224903644989,812.116246093452
1730575524.690685,772.7877544755863,599.0040049767046,631.0657374210679,811.0126894390115
1730575524.693194,771.9189803613291,637.747894279234,615.0627979701227,812.5139564843148
1730575524.694229,770.3756438817366,607.2595123812173,583.5568269201314,817.0967706533715
1730575524.6947107,767.9940526520339,537.5121341436547,558.7691348123063,822.6921781755268
1730575524.6987364,765.7396412832766,497.8407441197873,564.490675649727,825.91519970854
1730575524.702762,766.0335987590082,533.1435398436972,601.7722603262802,824.5420598893842
1730575524.7067878,771.8804360602927,614.2391413453181,641.1623422577053,819.1292770873316
1730575524.7079513,784.9872265804765,656.0850604892563,643.9996825601804,812.4479526638569
1730575524.7101889,804.0412418126572,594.548388097323,597.27304036288,807.3745948901635
1730575524.7108138,824.0453816290562,452.16480551616615,529.6593442847313,805.1263696627525
1730575524.7148397,837.1010612392699,327.0607563532178,489.7997993223527,805.0978335004185
1730575524.7188652,835.2208261587897,308.9425574338352,502.617435417356,805.9309381901663
1730575524.7228909,814.7994391394055,397.5838362553012,543.3346289087402,806.6073922376038
1730575524.7261488,780.0173471179863,500.9933767504402,556.062370745687,806.8216051748786
1730575524.7269166,742.1335623020511,516.4083192491655,503.0194541504522,806.7426517010246
1730575524.7273543,714.6082751190459,418.5404383301652,400.14520302938047,806.630644221209
1730575524.7290697,706.969552807578,274.342803987338,306.0571057854156,806.6199215316861
1730575524.7309425,720.548445103198,176.14375755301523,274.44700489318365,806.7060590191778
1730575524.7349682,747.7139018872818,161.4705190532423,313.2601973296662,806.827513453429
1730575524.738994,775.0458326517067,193.7253619895257,385.3286514883521,806.9365756279929
1730575524.7421088,789.7697404470481,212.7999479311099,444.73791698313505,807.0212786750371
1730575524.7430196,786.7397055098412,197.99966611071466,472.1780346612521,807.0924995504557
1730575524.7467575,771.4884105883394,181.49752095383326,479.5020842447671,807.1641470051248
1730575524.7470455,756.1078583251481,205.33293323861278,486.8021967231746,807.2427532266859
1730575524.7510712,749.6860822627333,269.6520768245861,499.137587404866,807.3276095205772
1730575524.755097,750.376467944313,324.4132439020624,504.6359509137516,807.4153486672448
1730575524.7580688,746.6353763507672,313.5044430356472,492.0094210197987,807.5035750009663
1730575524.7591226,728.4049325357001,231.32438924201722,467.6599143730159,807.5918169934776
1730575524.7631483,699.4913506310425,138.75640866539436,454.3135015944568,807.6807343779991
1730575524.764945,679.1591346573149,118.87731143934388,470.905039330869,807.7710714573252
1730575524.7661607,689.1254868768683,206.6185759466283,512.0040960413883,807.8631557871341
1730575524.7671742,735.7920109793495,354.9373797422785,548.0336709006556,807.9569430122148
1730575524.7712,803.5714295624254,472.705488575497,549.8862880082451,808.0522645280545
1730575524.774029,866.2219329493919,504.50293271385453,517.2564005643554,808.1490037306801
1730575524.7752256,906.6145179650391,479.21623911278147,482.96589007964644,808.2471333254709
1730575524.779251,927.3811235152293,479.7667665132544,486.1564374590591,808.3466820524286
1730575524.783277,943.6621777698095,561.5062741323493,537.6367145530928,808.4477107876254
1730575524.7855637,966.0345816765683,697.7067445806221,609.7507554999122,808.5503140696374
1730575524.787303,990.142828077322,803.7054541024015,659.9189429444586,808.6545996595678
1730575524.789989,1002.2194878432374,813.7959932386118,664.9315805518177,808.760596557934
1730575524.791329,994.5159038633115,736.3146086482284,635.0574504837247,808.8681238125224
1730575524.7953544,975.7126481553667,638.6484382414222,599.2516050109947,808.9767751417015
1730575524.79938,966.0218751631354,583.0503613405488,579.8204832397591,809.0862112642433
1730575524.8008204,980.49295191648,576.3501943276849,579.8726365005464,809.1967489289464
1730575524.8034058,1014.9410221254831,576.2809377744397,589.3684085733865,809.3097817470948
1730575524.8049667,1047.1864410098299,540.5906067565138,597.9045132677734,809.4271936748282
1730575524.805949,1053.1824137266472,467.6600118615609,601.5671956370161,809.549278990679
1730575524.8074317,1024.795123978124,390.90395005188503,601.8082317730672,809.6722111803789
1730575524.8114574,974.954817993967,337.6619593888009,601.446078097246,809.7881429719082
1730575524.815483,927.2077630322443,299.41102628129937,602.0891975005782,809.8912840411126
1730575524.8195088,899.6854983120459,247.73454609627376,603.8091219730135,809.9890536754192
1730575524.821909,896.3357260024078,179.59503357909642,605.968227653698,810.1088357590199
1730575524.8235345,909.3391503230827,138.48138679367696,608.0212295995472,810.2847070424359
1730575524.82437,926.2144714711021,179.3219654852159,609.8028310927939,810.5169410340096
1730575524.8275604,934.165518579352,307.9319412222879,611.4142084129255,810.7272748735895
1730575524.831586,921.886444092993,461.3019494033758,613.0078084810448,810.7700622795194
1730575524.8356118,883.947225559677,557.3181985798315,614.6628442516229,810.5594351359576
1730575524.836696,827.929331839444,567.4440322596474,616.3775492672174,810.2882793515429
1730575524.8378687,776.4097262798457,536.9683981648287,618.116451337869,810.5633231483235
1730575524.8396375,756.6929226095151,530.5299306177737,619.8517540367712,812.212751885513
1730575524.8436637,782.3245767655973,559.8053208572023,621.576327296284,815.7329127161631
1730575524.843773,840.3448424631125,569.3459917222578,623.2963767452985,820.740981607437
1730575524.8476892,895.9018938822461,495.3752731086796,625.0199594712227,825.9575721355725
1730575524.8517148,912.7879310593811,336.9473549398452,626.7508935695155,829.8825696619284
1730575524.853829,876.1512631452081,167.12810977085525,628.488796357629,831.6990149031278
1730575524.8557403,801.7555735273661,72.3314421266503,630.2317338993873,831.6578917730109
1730575524.8597662,725.3965067492999,77.53438096803688,631.9783279533839,830.6700744193283
1730575524.863176,679.6741658798541,127.53989267869156,633.7282931863763,829.5855690307858
1730575524.8637922,674.119172055192,141.84353868402025,635.481948430726,828.7875122583736
1730575524.867818,692.2667434628829,93.32624597010084,637.2396096924251,828.2483507490737
1730575524.869789,706.6830810907239,38.86002735566814,639.0013802593436,827.7907630440515
1730575524.8718436,699.6078964285562,72.32018409686282,640.7673307961459,827.2869412270594
1730575524.8725717,673.811022133393,240.61611875286096,642.5377398442473,826.7112128182039
1730575524.8758693,647.6794397741123,497.90449489317365,644.3130148082765,826.0981597138489
1730575524.879895,641.1770162213074,738.5935925722573,646.0931470020239,825.4867460159351
1730575524.882579,663.8322356597478,877.374994902252,647.8770531611179,824.8934923612385
1730575524.883921,710.5452111659192,903.9290042743619,649.6626836956917,824.3149452480033
1730575524.885749,763.9868739832741,869.5913230845274,651.4487400621673,823.741210903454
1730575524.8879466,800.9599944348442,830.1560970810451,653.237593652433,823.1657936709703
1730575524.8919723,802.1617022985885,804.3389522149914,655.0367276416177,822.5877003428378
1730575524.895998,763.490460375738,780.029754103124,656.8546425454967,822.008905996575
1730575524.9000237,702.0078259871705,746.3793220191684,658.6898429512893,821.4314098286476
1730575524.9017093,648.8418349272956,708.2685880799927,660.5197466498477,820.8559544489757
1730575524.901982,630.0920093499809,668.7546901409528,662.3055395222452,820.2822601599726
1730575524.9040496,648.7661995723686,607.1347998190728,664.027070271747,819.7097635115241
1730575524.908075,683.1228562613508,487.7654424160654,665.7369056926916,819.1381107638226
1730575524.908447,704.5660018285739,300.49165136719773,667.5803836015236,818.5672382060092
1730575524.912101,701.1022635227268,94.36454132968555,669.707410723552,817.9972265886304
1730575524.9161267,686.198300715521,-36.127550343183486,672.0606311453557,817.4281517171611
1730575524.9176693,684.6649487549101,-12.722657241576314,674.1839363567143,816.8600267019643
1730575524.920153,707.645645620907,164.30504638112382,675.3567637353877,816.2928142784544
1730575524.9213853,739.6976207958154,409.26175227138185,675.291416495004,815.7264515502303
1730575524.9241784,751.3408528591708,611.6217979253955,675.1274818211855,815.1608585021213
1730575524.928204,727.4544616638067,715.1943827618238,677.6746438968263,814.595946061845
1730575524.9322298,686.0106716865685,746.935349751788,685.5623908886682,814.0316553555253
1730575524.933629,668.5517687983992,771.4402191217043,697.2359594295043,813.4680265366873
1730575524.9362557,708.5599016850355,817.4366046971631,703.8426259634841,812.9052288205598
1730575524.9402814,803.8600858466883,848.7491854342339,692.4174644902589,812.3434445162364
1730575524.9407885,915.7582969345707,806.3162810385314,657.001917128044,811.7825755088787
1730575524.944307,994.5758631830137,675.7992285279802,608.9529802724628,811.2219633838004
1730575524.9443223,1010.4219744775739,510.5306373339021,572.739473054687,810.6605509741808
1730575524.9483328,966.9282481759406,386.29038601368836,565.4890747340611,810.0978383448405
1730575524.949589,891.9331157682819,333.7515033299145,577.7401668525828,809.5352979796365
1730575524.9523585,816.5014786032315,316.17037523593774,576.4438128045872,808.9768005267348
1730575524.9563842,758.8904827660342,273.64924298598623,532.0888280315986,808.4261186752193
1730575524.9601915,722.2613184572847,188.77624429784566,447.6412300543026,807.8812602850733
1730575524.96041,702.6618592119388,107.8261826852027,362.00349614964534,807.3296587617793
1730575524.9644358,696.9630788823995,96.37306921081137,321.9650462113113,806.7523378461691
1730575524.965549,703.5939586044497,173.34545856099606,346.01669599674835,806.142864848187
1730575524.9684615,718.1895067086451,289.02667488362374,412.4618465956319,805.5330447456633
1730575524.9724872,732.0519351250648,369.1768250614333,481.86421704557466,804.9965986682266
1730575524.976513,737.4130036756418,382.2138916876314,530.8705816962196,804.5952069717131
1730575524.9795945,734.3968704161582,364.1376834125765,564.7634315011659,804.2656130308352
1730575524.980198,731.2580734238626,378.44899040773544,599.9037020181842,803.7236124070753
1730575524.9805388,736.4376153100304,452.3415001967206,638.559966199758,802.5158048780712
1730575524.9815092,750.4011632031132,551.9709910670879,664.2404946325094,800.2743436755169
1730575524.9845643,765.8902137777633,618.5876304551174,661.309518504375,797.0321108182908
1730575524.9885902,775.988485585867,626.0509377000005,635.6687265087011,793.3608723884765
1730575524.992616,780.7829660334066,600.1748591729286,611.9778812409961,790.2579157035798
1730575524.9966416,785.2395808849275,581.406119205991,608.1576340579172,788.89167285264
1730575524.9974692,790.9702794708415,572.7867407638244,613.6081205777081,790.2331566670675
1730575524.9989977,791.4431528257822,532.3159202969064,596.7104674379692,794.4687536551288
1730575525.0006676,776.6232376865661,423.04050535266964,538.669685187484,800.371546548988
1730575525.0046933,743.3899675215764,271.18340813847834,461.7872203025303,805.3307720866518
1730575525.008719,702.3182341342516,168.08780277903008,420.91434735066537,806.6356022833199
1730575525.012745,674.3878409875954,203.3637791158043,459.76352787332644,803.484760685784
1730575525.0134292,679.2699703902929,384.6596638892927,568.8648280163619,798.0408298594973
1730575525.0160737,723.0656479079612,617.0991057590885,684.4809053357169,794.189660361845
1730575525.0167706,793.6282528974635,765.217137430327,733.1934879381074,794.6374232447845
1730575525.018401,866.4344268041805,748.8995479408538,686.3877797452931,798.758074415465
1730575525.0207963,917.0405887198341,596.1918426626745,579.6284935751339,803.2001208659709
1730575525.024822,932.1552127627536,413.1061974556559,482.1822217800336,804.8010816381757
1730575525.0288477,913.3033651793359,299.462392589993,444.21771241340207,803.1992484717756
1730575525.0293891,873.2591957193977,281.0062792947628,465.90172771648497,800.8552182226807
1730575525.0328734,829.8974015744451,308.4746774379792,510.154018468015,800.6566390667981
1730575525.036899,800.8316914948441,314.473691615657,541.5043938230386,803.4028257797357
1730575525.0378036,798.2745511227454,272.7581833197804,553.4341756798918,807.3092338046822
1730575525.040925,823.2388318764815,209.766686320927,561.7780855041714,809.6796395245585
1730575525.0449507,862.1683441374336,166.05779907893447,575.5758216347199,809.08228277873
1730575525.0453491,891.1815898033592,151.13039283585277,577.8090854550626,806.2172848557967
1730575525.0489764,888.6671969462438,138.28125844181773,538.2960232491832,803.0224411428193
1730575525.051949,849.2497296198466,104.04822231164422,448.69137497139735,801.0815417748429
1730575525.053002,788.9577215204333,68.9600517390873,344.6716668954888,800.7402173412091
1730575525.057028,736.7104751580941,91.16706636762308,288.5651794412746,801.3769985165626
1730575525.0572069,717.1110883639036,211.52053798432067,322.69161824141156,802.1991703805401
1730575525.0610538,735.9895117819334,402.7886108083871,434.48961380593687,802.7777690408672
1730575525.061309,778.1578645676658,578.9374736142418,566.2897820885214,803.0893698690078
1730575525.0650797,818.2911378919133,663.757148713225,661.0954843059068,803.2933711261593
1730575525.0691051,837.2116850293706,656.4498895973386,702.2785976778671,803.5261654148192
1730575525.0731308,832.8064252868321,629.8110958394732,713.2806022319772,803.8283884668479
1730575525.0766098,818.8494987624125,660.1134065883685,723.5026209265916,804.1739182021164
1730575525.0771568,813.4699377652115,754.5972271423248,737.267916014587,804.5241941572418
1730575525.0772693,826.380395888643,845.3641439689436,735.1245231205552,804.8593838505132
1730575525.0811825,854.5424086413152,854.4001435173943,701.8101379342473,805.1800924775251
1730575525.0852082,888.4374364764559,766.9226495297646,649.1266997909964,805.4953329937458
1730575525.0878243,921.6577307562494,644.277465611543,609.1248896517269,805.8121039735951
1730575525.089234,954.1336703958971,566.6001237064763,604.2405374565515,806.1321696197124
1730575525.0932293,986.5739713297871,561.4477779885192,624.9502754389702,806.4539471429971
1730575525.0932598,1013.2317000396183,585.8465824868838,638.7911539225856,806.7754100246991
1730575525.0960133,1022.007374770564,576.756501302724,623.3858987304368,807.0956136083335
1730575525.0972855,1003.2446512873273,518.7226481047325,590.5250104979539,807.4146747822084
1730575525.1013112,959.3224054883983,460.3458878684578,574.8122420434408,807.7330994622025
1730575525.105337,905.7042238488846,461.57076462594773,595.4657332511104,808.0512503106547
1730575525.1091893,861.8571959680175,525.0627811861357,630.0402209166455,808.3692089477238
1730575525.1093626,839.6564475648441,585.202072904168,631.0458642773672,808.6868960151018
1730575525.1133883,838.600977329833,571.856834772082,573.9850979455305,809.0042273467047
1730575525.115416,850.178225789084,487.0219885392655,489.92733391349446,809.3211834991201
1730575525.1174142,865.5365813040091,413.69954801532776,446.3821311386558,809.6377893070622
1730575525.12144,879.3899638299749,441.6497989243177,489.6501654830488,809.9540607686304
1730575525.1237,889.000554239174,578.9601983686536,600.9587148970244,810.2699799812142
1730575525.1251493,892.7129152037338,735.3608018011349,707.5614147139413,810.5855301992134
1730575525.1254656,891.4282671862752,795.3453279753703,739.5191562250043,810.9007747698356
1730575525.129491,890.6042939468134,714.2637786064456,682.3914483962843,811.2159049936804
1730575525.1335173,897.8081658495165,550.9316475460747,582.6091783704206,811.5311506211572
1730575525.134819,915.7098233130739,411.65393550455616,506.23109531127335,811.8465123908816
1730575525.137543,937.3091851042392,361.07060178114835,490.22245511611527,812.1614766518155
1730575525.1411092,949.9761421494545,379.70157570423345,525.1670423182151,812.4751040548155
1730575525.141569,945.9282727799039,399.20372799879766,575.2396369479477,812.7868571558971
1730575525.1455944,928.786495910316,374.74798461560545,610.1033354749391,813.0979416568993
1730575525.14962,909.5136775013915,325.12524275320334,621.3666416985283,813.4118919832922
1730575525.153646,896.861678340629,306.71549057709535,617.6934264231401,813.7325477808799
1730575525.1542222,892.272175372298,351.03842468955946,611.2245436878295,814.0589023356044
1730575525.1570692,892.0711895980626,428.6674933175409,608.6291722713285,814.3801622695618
1730575525.1576717,892.1845596210235,475.4336054727425,610.2589644738886,814.6784795743973
1730575525.1595757,890.7502720175928,455.72127679811416,613.5958685296894,814.9455591982294
1730575525.1616974,887.968123427231,400.571381808154,616.4829556836406,815.2073978249284
1730575525.165723,884.7822568010856,382.0401419849927,618.2730909821437,815.5319520701252
1730575525.169749,881.861307627614,447.7863142151151,619.3746162546446,815.9858660026846
1730575525.1730292,879.3359301795361,579.1407633290652,620.3950552245885,816.5353479119307
1730575525.1736252,877.0233376592481,711.7797005803188,621.6481043658586,816.9604634664823
1730575525.1737747,874.720050842248,795.2209449502552,623.1251539761233,816.9229585126043
1730575525.1778004,872.3407786257989,830.5843802908169,624.6843785555145,816.2856801840541
1730575525.181826,869.9042989352376,852.0552063298302,626.2152290316899,815.5314754153733
1730575525.1858518,867.4623710280621,876.819104063743,627.6895826291699,815.7980190798728
1730575525.1889892,865.048570020598,878.7111506620151,629.1322176097347,818.1223998540536
1730575525.1898775,862.6676502789477,813.303497556401,630.5750606417442,822.2766721466794
1730575525.1930285,860.3089723848063,667.8397158490704,632.0330492968133,826.3462059400237
1730575525.1939034,857.9618823650076,484.0220118741091,633.5043727061017,827.82887384678
1730575525.195451,855.6223231429415,328.9402204712449,634.9810458513373,825.6273253027676
1730575525.1979291,853.2915535021133,241.02312849238066,636.4573162165595,821.2580051502822
1730575525.2019548,850.9722825735419,203.30328946050375,637.9318688142023,818.0104342982653
1730575525.2049494,848.6661061645134,170.56299938239994,639.4059606080391,818.440943053225
1730575525.2059803,846.3730824204073,123.76890172223631,640.8809599295784,822.1390462065197
1730575525.2100065,844.092456952662,96.3339684072975,642.357210262407,825.7342102658611
1730575525.2124314,841.8234145742153,143.1838325185946,643.8342787975776,825.3704447922008
1730575525.2140322,839.565427928888,281.8095093274279,645.3117433809609,819.7496168320175
1730575525.218058,837.3183519689635,465.2332303464834,646.789658001386,811.2519755349658
1730575525.2209094,835.0824784836547,615.8037930999694,648.2682456003995,804.2171651593328
1730575525.2220836,832.8584612966571,686.7080557302583,649.7469494377832,801.8327383697895
1730575525.2261093,830.6467880148988,690.718316759058,651.2236622670378,804.1122152926288
1730575525.2301352,828.4467361614156,671.6758217022505,652.6954191290746,808.3371086907669
1730575525.2313263,826.2555756987853,653.3521876273273,654.1613063031587,811.2677442561193
1730575525.231835,824.0695449961297,619.5076313554864,655.6261815217192,811.2597030182176
1730575525.234161,821.8875978977507,541.518911937115,657.100858497332,808.9052931276849
1730575525.236869,819.7161848274578,419.5478517270203,658.5938351654165,806.1654767755604
1730575525.2381866,817.5694895585374,292.37373020300817,660.0954098460572,804.9289815028426
1730575525.2422123,815.4587350598321,206.5229642907291,661.5671918673972,805.9918822035826
1730575525.246238,813.3715931196325,177.07198179215135,662.9594070543535,808.8815135800209
1730575525.250264,811.258500207458,178.87031434476455,664.2677051619827,812.3195474433995
1730575525.2512376,809.0549388504048,175.18095507398084,665.5992920366413,814.8444295446715
1730575525.2528293,806.755015159667,154.3273874345267,667.164645149907,815.2874652375581
1730575525.2542896,804.4974451678476,138.29651292642285,669.1082188980213,813.1293726834539
1730575525.258315,802.5554861496482,155.40101493612264,671.2108958814971,808.8140076745154
1730575525.262341,801.1182535265165,205.40418579434734,672.7273253288222,803.8145792534954
1730575525.266367,799.9052778446583,254.80340997816342,672.775783619739,800.1292286230704
1730575525.267202,797.9555301350035,270.56663452753935,671.4536570882099,799.3018757933556
1730575525.2687893,794.1355837277665,259.4654261266421,671.0407619948417,801.6359537598054
1730575525.270393,788.6022703200623,270.25114887587574,675.7230478280283,806.2461304564047
1730575525.2706406,784.4216101934869,351.10854833320997,688.4764092276084,811.8599230735795
1730575525.2744184,787.3882033293463,500.9329081705149,706.4912095382508,817.5871625232822
1730575525.278444,802.5059381467445,661.7129225688412,720.388932744369,822.9845267858632
1730575525.2824695,828.789834752407,760.1739398277093,720.9043708730513,827.5541989873304
1730575525.2847493,857.3793614195669,759.593899952778,707.3867295371228,830.4595879108367
1730575525.2864957,876.3330706834874,675.550611210734,688.1154972198309,831.0006611656892
1730575525.2900438,879.1867687043297,547.8337069851549,672.2760176687003,829.4822956432438
1730575525.2905214,870.109767920359,403.1457180215859,663.2617645775879,827.495882185726
1730575525.294547,860.8051345793347,246.8316061040714,658.9316653955726,827.0375879766103
1730575525.2985728,861.2054455699121,87.13811376286964,655.6502681413302,828.9999062927311
1730575525.3007095,871.6584756882603,-39.40572628273094,651.2638235188234,832.3218745386283
1730575525.3025985,883.139622217826,-74.29585982732226,645.5530617188213,834.6641122787523
1730575525.3030777,884.6030095308506,23.16253483127832,639.2513944554554,834.1605535889598
1730575525.3066244,870.5647462354962,234.77904511466127,633.0381531784349,830.7660313867639
1730575525.3094468,843.5096746381989,479.9310372448834,627.1430650657716,826.0090273606085
1730575525.31065,811.6189568464179,660.1423585053503,621.4582853573924,821.4302907326229
1730575525.3146758,785.0714970476001,721.0230874908865,615.797839874111,817.2763848587783
1730575525.3166697,772.1104846958293,682.376808029713,610.058078183233,812.7714355917334
1730575525.3187015,774.5190643524871,611.7713238368561,604.2352449954872,807.63235220445
1730575525.3227272,784.5235099891094,565.7563003931583,598.3706320307589,803.0946425233655
1730575525.3267531,787.4722873289049,551.27168823354,592.4988600007931,801.1324797684532
1730575525.32885,771.3909306404653,538.7306885665296,586.6298112194055,802.4744203184587
1730575525.3307788,737.2925439709243,506.77178938079237,580.7563122556599,805.4454134372478
1730575525.3326294,701.0550564810892,468.1893877784825,574.8680970611299,807.0274667695154
1730575525.3348043,683.7054799910734,449.2045440949476,568.9597744790001,805.3800754229779
1730575525.3388302,697.1434230308214,447.22731792644845,563.0312654440523,801.5379664931783
1730575525.338953,736.642111121348,418.93606011464493,557.0847088352426,798.6367502544955
1730575525.3428562,785.5481097284656,320.17432992630097,551.1216844296703,799.2259152340238
1730575525.346882,827.2618365210812,162.04347584657847,545.1421733365756,802.9702552828248
1730575525.348253,854.3503087622939,24.13845443520279,539.1448929554567,806.7648935645269
1730575525.3485894,868.4979706279386,2.926700175182532,533.1282845884199,807.2502850467774
1730575525.3509076,873.6675443048722,135.89450545909085,527.0917233801152,803.6386688328821
1730575525.3549333,870.455492974789,369.0024197322619,521.0364839648565,798.4167811374851
1730575525.358959,857.3727849952379,598.3655977341324,514.96547710106,795.2618884282346
1730575525.362985,836.8811909999699,749.5921657913351,508.88067956347396,795.9607052062833
1730575525.3645494,818.3144000016797,823.6920402592195,502.7787509332285,799.0406221683464
1730575525.3670106,812.680014152376,871.2043536030249,496.64858429224626,801.267182867803
1730575525.3676562,823.4115237671657,925.3389740714185,490.4768185482776,800.5565724176748
1730575525.3710363,842.632695698088,962.7947038641591,484.2638760917694,797.6785673326862
1730575525.3748283,857.6643433725357,930.4199699960475,478.04122907489483,795.4114924770824
1730575525.375062,861.8566713658712,808.0582609983019,471.86646198702243,796.1681918279103
1730575525.3790877,858.7850862240633,640.8017729214125,465.7738612249528,800.2746988173845
1730575525.3805094,855.2388955268118,504.89474944687845,459.693354819741,806.1502218670132
1730575525.3831136,850.051350717244,440.12693559867705,453.41364655189733,811.7585551524903
1730575525.3870592,830.8820102949151,418.2829627802207,446.7017675996926,815.7572542748662
1730575525.387139,784.1622367499956,382.580038700292,439.61278160601387,817.5087517893222
1730575525.391165,710.6615127625829,319.46308436809346,432.791776173719,816.550702325073
1730575525.3951907,632.2892887851567,286.4803737871875,427.3192187445226,812.6606603943198
1730575525.3964694,581.6591552609451,360.07826235902945,423.71969754896776,806.7442750927282
1730575525.3992164,580.4149904188703,548.4551366291507,420.46818287740706,801.4576199611071
1730575525.4032423,623.1065583037856,756.150578029634,413.5077574688969,800.2906656354107
1730575525.4064622,680.3166506721883,844.4999034836371,398.84953264564444,805.2270436216241
1730575525.407268,719.2474654307438,743.0122105859077,378.64971345263825,814.7885817286852
1730575525.410704,725.272466504193,514.8141170620754,366.8061884417638,824.4393115122854
1730575525.4112935,707.5745194276211,314.78461130977837,386.1137211000619,829.4603738972332
1730575525.4124296,686.5677786789579,271.8010001676121,452.41390162838854,828.1080154636359
1730575525.4153194,676.6317336742682,393.41912370472056,555.6340805553095,822.4490372007809
1730575525.4193451,679.7145492623389,571.4233464945352,659.1362594751024,816.3457607026272
1730575525.4233713,692.3039276298427,677.6131674508613,724.9523224666524,812.5992609101531
1730575525.4258654,714.1977101356069,662.1209726983395,742.0366401050846,811.6400113313057
1730575525.4273968,747.3658965148823,571.2298568252414,727.8520209960392,812.2601678925512
1730575525.4283895,786.6539727616341,480.8526145779685,703.226474901555,813.081966424582
1730575525.4314225,815.4732932364033,418.9028602532311,670.2966303203391,813.4285285670674
1730575525.4354482,815.2184016979439,352.56329438624476,618.3114465512353,813.3188943329266
1730575525.439474,781.2241811043501,245.88611651852665,549.3856893092739,813.0501281934835
1730575525.4434998,728.9612654911912,120.99859234465589,492.48449596924905,812.8501798201296
1730575525.4443495,683.2491686282538,54.02549530782653,484.7719743433578,812.7738760030602
1730575525.4452684,660.7167243217284,105.40195437605598,534.5469951229342,812.7670434858572
1730575525.4465797,661.4925677673289,253.62528044589885,603.3387943375897,812.7623903131612
1730575525.4475255,674.735486028948,401.9522028940255,630.728280259782,812.7289842730663
1730575525.4515512,689.3457729404361,458.0281480973495,585.0387922747968,812.6708238244258
1730575525.455577,700.1338219235089,414.2122281686753,494.71800997972247,812.6044055051967
1730575525.4596028,707.3958148602225,352.35788391362223,428.87030094027006,812.5412751988799
1730575525.4603095,713.5042449110027,367.38534045339065,441.46892498532213,812.4836225133644
1730575525.4636283,720.2103044121825,481.69327144478325,528.7231852176059,812.4282336605829
1730575525.4646716,727.8937935439632,630.0794642958846,637.1181309658577,812.3715669715563
1730575525.4676542,736.1044948542236,724.6491169551715,711.4435062161117,812.3121395547909
1730575525.47168,744.3157319806746,732.60225623207,735.9101906610057,812.2502669489169
1730575525.4757056,752.2967707351651,692.8111737746901,732.5915417702839,812.1868277045504
1730575525.4762695,760.0882098825007,662.5400358320671,726.0396033295175,812.1223807927225
1730575525.4797316,767.8219442728118,654.5685259750063,714.6810524249382,812.0569861460622
1730575525.482455,775.5867623895465,629.5380704624429,678.2399939794698,811.990439563352
1730575525.4837573,783.3975207331861,547.7953086433672,610.1913579591082,811.9225389500345
1730575525.4840746,791.2280930646657,422.6550149878023,537.0717550174888,811.8531976804993
1730575525.487783,799.0511414069209,316.2485820815972,500.1060007138161,811.7824214257266
1730575525.491809,806.8559676573602,280.6382305339058,515.380665397913,811.7102407829369
1730575525.4922297,814.6457892179754,306.686431866819,554.3660929466305,811.6366670133011
1730575525.4958344,822.4278742681944,336.8692492129211,568.4218477328343,811.5616853799729
1730575525.4998603,830.2067744156328,330.1700162714463,535.7873955698519,811.4852688211542
1730575525.5034776,837.9831185214356,309.6828682843747,484.5873185168756,811.4073918276175
1730575525.503886,845.755546636784,340.0447606239445,468.1497225744558,811.3280357389878
1730575525.5079117,853.5227745369291,455.9920206203371,516.3261280731505,811.2471870426929
1730575525.5081894,861.2844131291495,615.7662643107452,609.1161356282098,811.1648337380074
1730575525.5119374,869.0407442786179,728.3162665564813,694.8224662184058,811.0809631716946
1730575525.5159633,876.7922208999578,728.8259494372348,731.852558015252,810.9955619083503
1730575525.5183303,884.5392136601542,630.6211037269345,715.3428442687584,810.9086165904575
1730575525.519989,892.2820443861174,507.2191101753611,670.2446259229017,810.820114648416
1730575525.5228808,900.0210408944407,425.746993917997,625.0306824985124,810.7300443656766
1730575525.5240147,907.7563628125864,395.00264788904155,592.4208390135999,810.6383944722251
1730575525.5241497,915.4876439580332,372.43718897073506,569.6898136504108,810.5451538333547
1730575525.5280404,923.2138906530496,318.0182221897195,550.634384389442,810.4503118277529
1730575525.532066,930.9342129326948,242.08108122240384,534.1692246982662,810.3538595469422
1730575525.536092,938.6494325966172,202.03859985380836,523.2896214919557,810.2557909816443
1730575525.5401096,946.3633566763104,249.66156529311672,519.742074501532,810.1561024213287
1730575525.5401175,954.0813905302599,376.35785288646116,521.7353834130167,810.0547886347107
1730575525.5422838,961.8049687364692,508.81906844883554,525.8054848411144,809.9518371925413
1730575525.5441434,969.5243577262795,563.9727434848559,529.4131062711749,809.8472267698301
1730575525.5481691,977.2181415836005,516.4146951114791,531.8341154206514,809.7409371920456
1730575525.5521948,984.8690081538819,416.80935431713954,533.5223680624302,809.6329722056765
1730575525.554206,992.4945094561301,344.78536096002085,535.1369605646756,809.5233787601103
1730575525.5560696,1000.1679402067641,342.4505172928797,537.0079599568239,809.4122301596605
1730575525.5562208,1007.9858672615053,390.9336292819172,539.1162785754107,809.2995496709854
1730575525.5602465,1015.9587236020958,445.82760388888966,541.3044651899629,809.1852066701299
1730575525.561687,1023.8813940244147,488.068386709836,543.4541791541017,809.0688998909067
1730575525.5642722,1031.3451994754482,535.9537782531368,545.5381727382872,808.9503676855581
1730575525.568298,1038.0608727493511,609.1598012607742,547.5857627499734,808.8298207980173
1730575525.5720296,1044.4338470515177,687.0936103513523,549.6326618690421,808.7082637160445
1730575525.5723236,1051.884999657753,709.9026282955352,551.6954233154801,808.5870896672635
1730575525.5763495,1062.0967235493245,627.3075801156099,553.7724283719319,808.4665744945979
1730575525.5803752,1074.8048757481567,451.4603684954816,555.8556655352576,808.34399821272
1730575525.58109,1085.2641547545907,261.8638576676521,557.9397921515048,808.2136311049356
1730575525.584401,1084.0396129956719,151.07382203373368,560.0243715410858,808.0710781457349
1730575525.5879896,1060.9168762632667,153.663908196705,562.1117792273217,807.9214483445571
1730575525.5884266,1011.0857501818998,219.85376722932054,564.2045430326148,807.7845489594285
1730575525.5900817,939.3268388044739,259.97086076071105,566.3040767663596,807.6856126312588
1730575525.5924523,859.7100823539905,223.96817835764327,568.4107868233829,807.6258630311559
1730575525.5964782,791.3271956325837,145.99870990827418,570.5247278557194,807.5490141965305
1730575525.6004932,751.429674399515,112.42567761919474,572.6461726439869,807.3471677368375
1730575525.600504,747.6673166005747,181.28394579002418,574.7758938001703,806.9502856747209
1730575525.6039495,773.053081493783,327.5073117706088,576.9151370648804,806.4815396460759
1730575525.6045296,808.3273530037591,464.18439053351864,579.065218653488,806.3447107093438
1730575525.6085553,832.5819507059197,517.1917681907084,581.2267450312154,807.0661923806869
1730575525.6125813,835.6071372876733,481.0862414575114,583.3988869699508,808.9289470956871
1730575525.616607,822.137590007006,407.22241742764555,585.579710585314,811.7545746119034
1730575525.6198962,804.8212862001388,344.63227703148004,587.7684722101585,815.0649576957328
1730575525.6199098,793.4021315024469,297.38801376914364,589.9691880787587,818.2990169583952
1730575525.6206326,789.7400161035005,237.4449317200172,592.1920201201673,820.6598994248164
1730575525.6246583,790.3446969617676,150.77925047051707,594.4475797512056,820.8504938954617
1730575525.625957,791.2299737397974,63.13157926310828,596.7330292682988,817.4441123620093
1730575525.628684,790.564574584813,18.996611930467623,599.0192933438221,810.0523108103732
1730575525.63271,788.5478478127629,39.45989576295125,601.2594380487053,800.3242996454513
1730575525.6358695,786.1144318362152,105.09503146212211,603.4341183948475,791.516955722341
1730575525.6367357,783.9268014405329,180.74195544315506,605.6172111042878,786.5251868234216
1730575525.6392992,782.1151384455245,253.33190161853236,607.9930282470066,785.87943995039
1730575525.6407614,780.4990393005145,340.06545559552353,610.7359439231489,787.5875718447976
1730575525.6447873,778.8771743853617,456.28940599112383,613.7451668682194,789.1620362105864
1730575525.6488128,777.1649638478152,577.74605096471,616.4288683782738,790.0331531827647
1730575525.6518295,775.3808376389063,642.980323717271,617.9194248193655,791.9846362428627
1730575525.6528387,773.5759775416057,603.3759465720507,617.9863852938839,797.0656959423147
1730575525.6568644,771.7836587808684,476.39850383176906,618.2689852766534,804.9769361079536
1730575525.6587024,770.0086660192213,346.670033826701,622.5325060781399,812.5977524158926
1730575525.66089,768.2405460223978,305.89437599495403,634.502737404535,816.3225826234977
1730575525.6618323,766.4688255430382,382.7560984152813,653.8962510101592,815.1303779329365
1730575525.6649158,764.6895683489558,525.8893149476717,674.6897848387797,811.522920939439
1730575525.6677897,762.9041174033503,652.1948403787745,689.007581252652,809.4011129152566
1730575525.6689415,761.1152660380225,711.0663388252956,693.3043873045701,810.7652968674313
1730575525.6729674,759.3247092961357,707.6828915696913,690.1238560399158,814.1923718513596
1730575525.6769931,757.5326200945511,678.1992359795572,684.5122345585517,816.383317584506
1730575525.6781054,755.7383867994145,653.6747176829226,679.9671062074761,815.2580739300063
1730575525.6810188,753.9413997617772,644.307404565146,677.2748397824201,811.7482734429116
1730575525.6837497,752.1414264468907,645.0011033047641,675.6107432458318,808.8064342877715
1730575525.6850443,750.3386613587329,647.2845999461997,673.9879505082772,808.8013274590147
1730575525.6890705,748.5336290279721,646.5339204328093,671.9715584637006,811.7956069997779
1730575525.6930962,746.7269295427196,642.6695842910661,669.6374533500925,816.0288295839988
1730575525.697122,744.918729516859,637.6157219257061,667.2343967873649,819.6494343003991
1730575525.6975086,743.1081744947198,632.9556815144005,664.9304149062,821.7652449634028
1730575525.697708,741.2934017009263,629.1371691817941,662.7541177373015,822.0607579700288
1730575525.6997097,739.4729711734371,625.8401440182488,660.656544641766,820.0269589570592
1730575525.7011476,737.6485793959646,622.6146462993811,658.5861959126652,815.1807740418917
1730575525.7051733,735.8268454650366,619.2361224214865,656.5228577149628,808.2323107022742
1730575525.7091992,734.0163429465767,615.7173031116349,654.4725829296666,801.7184661049531
1730575525.713225,732.2178711190033,612.1650288135797,652.4491126997036,798.8798437891578
1730575525.7156696,730.4131286655748,608.6598801418572,650.4610784188147,801.3329353351343
1730575525.7169116,728.5661329348522,605.2208259164818,648.5096848674617,807.5412047752676
1730575525.7172506,726.6522328174183,601.8285339407352,646.5923459642704,813.6595681238412
1730575525.7212763,724.7091506234175,598.459378254382,644.7066072671998,816.3026614398959
1730575525.725302,722.8650899194033,595.1028107402146,642.8517407327539,815.0111966787306
1730575525.729328,721.2726643322206,591.7606471323659,641.0283424174472,812.3302116548243
1730575525.7316298,719.9198794279682,588.4388375286567,639.2373230917774,811.4184479667169
1730575525.7333536,718.430209406432,585.1409843601584,637.479268545566,813.236097251043
1730575525.7335837,716.1290411843304,581.8667911526588,635.7543584410712,815.7314164344879
1730575525.7363143,712.636662305045,578.6142243917752,634.0625758985784,815.722042347901
1730575525.7373793,708.8347706961474,575.3827885884167,632.4039110500901,811.8226853647622
1730575525.741405,707.3293566230745,572.1754061203386,630.7784347813773,805.8421083348693
1730575525.7454307,711.1685681171471,568.9968265429866,629.1862705768799,801.4179061984066
1730575525.7475898,720.6709030251117,565.8479594965091,627.627540141632,801.1268933384156
1730575525.7494566,730.8114766444869,562.7192406101467,626.1023317187437,804.6347410941248
1730575525.7534823,732.7713873825618,559.590891390685,624.6106979546472,809.3689738449441
1730575525.7557178,719.9926860315907,556.4483179603269,623.1526678014781,812.8095584786364
1730575525.757508,694.2475187732962,553.3101402625224,621.728257025153,814.1744030739247
1730575525.7615335,666.5608697148692,550.2449197974905,620.3374715635382,814.2064057112447
1730575525.7635498,651.702317536766,547.3374132916051,618.9803057340449,813.7720242328745
1730575525.7655594,659.4039521832143,544.5865382350779,617.6567393738412,812.9596863717433
1730575525.769459,687.7047965845294,541.7928015840394,616.3667363401759,811.5107023727376
1730575525.7695854,722.9165127644094,538.5848348152864,615.1102445697916,809.835498951548
1730575525.7736113,746.9775156329366,534.7309794159382,613.8871968139025,809.2495754482229
1730575525.7751207,748.3698658444357,530.6611404307591,612.697511251298,810.9571176507388
1730575525.7776368,729.8939375581754,527.7193709323045,611.5410917165218,814.7164500604532
1730575525.7795098,707.4933929206062,527.4232684007867,610.4178276737816,818.5820987667545
1730575525.7816625,699.6948702951889,529.4906790977949,609.3275941559302,820.1516934012303
1730575525.7856884,714.550205065819,529.8713116048406,608.270251791514,818.2951967234284
1730575525.789714,744.1804066120179,521.6642505698279,607.2456469266306,813.8514883279432
1730575525.7937398,771.5892488802394,501.45597735127916,606.2536117916444,808.7475544006397
1730575525.794524,783.937127011723,479.1793493254159,605.2939646599868,804.4593788973889
1730575525.7954698,780.9949866025493,482.2122096329788,604.3665099655411,801.2352630475872
1730575525.7977655,772.7602968836638,541.284964166377,603.4710383731594,798.6109940662654
1730575525.8017912,770.5264454230843,658.1477012281633,602.6073268389549,796.4523474201133
1730575525.8053343,780.3050847080757,782.419102952277,601.7751387445652,795.3707628200457
