timestamps,eeg_1,eeg_2,eeg_3,eeg_4
1731653393.4253964,811.4669213211497,799.8415518694541,791.7070914577562,830.3859266997127
1731653393.441,804.9348769371785,801.2972385360258,787.3015543881454,823.3309447807684
1731653393.4566038,801.0161348374692,803.6777930896963,780.9114935011509,817.452784198266
1731653393.4711034,800.6306212264568,806.6337492315641,772.7493495918296,812.9984683271922
1731653393.4722073,801.7134526138236,808.2879175679823,765.933991001427,808.8203828738832
1731653393.487811,799.4685229998847,806.369514776425,765.2247887256855,802.8274433164107
1731653393.4894,789.2775818593734,800.0370953992586,774.5299722809176,793.539930292789
1731653393.4933002,771.3418073829944,790.9617595541519,794.6135014420656,782.0790937879653
1731653393.4972005,753.5047140139893,782.5982985832774,822.2789840326981,773.1097043034576
1731653393.5011008,748.5179831513536,777.9812757725053,851.3893529197748,773.3672088826037
1731653393.5034146,765.7822729296527,777.707477265222,874.9661638169908,787.8310954333083
1731653393.5050013,802.8913302028766,779.7170413364183,887.2322937818415,815.637616421895
1731653393.506,844.2436919921216,780.9924651554177,885.0563834052411,848.877983844377
1731653393.5089014,869.7297764954462,779.7094967788258,868.907832249102,876.1609596852659
1731653393.5128016,868.4996729499424,776.1490546530327,843.258955965344,889.4723665672088
1731653393.5147643,847.5077726369216,771.9270111323596,815.8246765666959,889.7319525674832
1731653393.516702,827.213549011821,768.5493461770603,795.230976728415,886.4716128175703
1731653393.5190184,826.5630724235241,766.6198655772432,787.7624545198385,891.0759547101627
1731653393.5206025,848.6099600719427,766.0966518903374,794.6776262536991,908.2503733030113
1731653393.5245028,878.5075268212681,766.901265839401,811.4087914524182,932.3129401353915
1731653393.528403,895.8261100433483,769.0347229784566,829.1377807316463,951.4292443657597
1731653393.532303,891.1779777406163,772.1489739898858,838.4339811067946,956.6062902379754
1731653393.5336175,873.4709236039052,775.269839498555,833.8626156606243,948.3910212809367
1731653393.534622,862.0508539843033,777.2238113207292,817.4678891954933,936.0722261248563
1731653393.5362036,870.5276836994707,777.4897346388524,798.4692308556395,930.1907952281886
1731653393.540104,895.5601702432577,776.6344324394365,787.9227421004888,934.3793092133012
1731653393.5408964,919.4058763864666,775.8344961649564,790.9093203604681,942.8991407645956
1731653393.5440042,923.8595068440213,775.883046277346,802.3237097573652,945.6387639824442
1731653393.5479045,904.3972449942481,776.5949471368648,811.1547446684552,936.4864201963354
1731653393.5502255,873.5941207574458,777.133416731178,811.172493907467,918.4493912394054
1731653393.5518048,851.6092918192995,776.9043515328239,808.7106389438255,901.5954712072584
1731653393.5524712,851.5964716937133,776.1816820497176,818.857012564426,895.6216775232162
1731653393.5557053,871.3384151485337,775.9433917528135,851.43749253559,902.9804339429307
1731653393.5596054,896.8438121832329,777.1057179122461,898.9331290558179,917.7526973423467
1731653393.5635056,913.9826843001454,779.7719045226511,938.5483824858497,930.6408943391805
1731653393.5658293,918.3814794132093,783.0138281348818,948.4821891832501,935.6828954831958
1731653393.567406,916.1535470103594,785.3144637886048,925.1853798965444,933.4413286691672
1731653393.5713062,916.1001734058514,785.4218909243477,886.8851812450682,928.8128795886342
1731653393.5713243,920.814198390083,783.1411451976836,860.355295057071,925.9923742557548
1731653393.5752068,924.2992633232145,779.5864436232786,861.8300169126162,924.9545761914175
1731653393.575793,917.7686856468383,776.6786911708003,886.9847668222982,922.1377260997428
1731653393.579107,898.4248641971301,776.1047641479273,916.6045350804541,914.521365317902
1731653393.5814333,873.5941480116958,778.3085369438477,931.857391531726,903.5278788696324
1731653393.583007,856.2886404585224,782.1405740892249,926.475278186864,895.0887885986657
1731653393.5869076,855.2692964454455,785.4798314088004,907.2415633457949,895.1915559140859
1731653393.5901775,867.5822300005757,786.5429997172649,884.6969978148511,904.3028315246897
1731653393.590808,880.1011900296901,785.0383449346273,863.6598073582117,915.7081560910531
1731653393.5947082,879.4538424077266,782.3025189304791,841.7514539829524,919.932962465513
1731653393.5970366,862.5630487696455,780.2864598002908,815.6962599489719,912.0526544097667
1731653393.5986085,839.1816339702744,780.1974121805075,787.9224244086778,895.7508600381435
1731653393.6025088,824.2783259185112,781.864050073076,766.4825322005838,880.4974864788937
1731653393.6064093,826.4439877824102,784.1939510167083,758.4752732342264,874.1110386283186
1731653393.609031,841.5302596658233,786.1457108084406,763.6970441723787,876.8818567368046
1731653393.6103094,856.2290051597683,787.3551704132408,774.8476828818676,881.9294692020452
1731653393.6106896,858.4190954034231,788.0766973745859,783.9981997395591,881.1648584177887
1731653393.6126404,846.2273255195325,788.7620909164846,789.0485568029826,871.8605832938765
1731653393.6142097,829.1362284310312,789.7529011619661,794.3556075206906,858.749535325634
1731653393.61811,820.5345036715572,791.220224689366,805.5632514980754,850.2828053827624
1731653393.6220102,827.3635287334286,793.1584677091245,823.7868203902618,852.0177593936602
1731653393.6259103,844.6528335952964,795.287235400865,844.177684132466,862.0272955755393
1731653393.627884,859.1688992086039,796.9926983236412,859.6082927994742,871.6887337292062
1731653393.628244,859.5292257663796,797.5460369212984,866.1740705901748,871.4591218736728
1731653393.6298108,845.084835734854,796.604534816879,866.3819131143471,857.7582444077815
1731653393.633711,826.696107694042,794.6622149309834,867.9487908028301,836.1147908349302
1731653393.6376116,818.7299727998617,793.0295550462575,879.0554270567271,818.0573390756924
1731653393.641512,828.3295354378079,793.2075350249776,903.0033777523581,813.5238885257257
1731653393.6438477,849.9478342831195,795.9693388581289,935.600149561814,823.8895706203199
1731653393.6454122,868.96815826124,800.7314896809265,967.0145487588865,840.4958974675974
1731653393.6455865,871.5416197228026,805.680729402657,987.0832024836459,849.822660912362
1731653393.646737,853.6742119095236,808.6781935450045,990.8352604184267,841.9274344267128
1731653393.6493125,823.5461624086322,808.4501889766344,980.8505663084496,816.652697802473
1731653393.6532128,795.7945910809352,805.3279237746215,965.0786969193862,783.6355379969026
1731653393.6571133,781.8742762021704,801.0375778676731,951.6111418450811,756.2823430872983
1731653393.6594512,783.3384700217631,797.6714480927584,943.843865324855,743.9529781056675
1731653393.6610134,792.7947458693917,796.5396082635757,939.2326795009988,747.7051223087175
1731653393.6649137,801.2661476433084,797.6344728926427,932.3892747680717,761.9710034155394
1731653393.6655908,805.3875005374734,799.9189248056729,920.0934922553246,779.8044652061786
1731653393.668814,808.2805925906654,802.0633671114869,904.2863713492804,797.010269806282
1731653393.6727142,814.0163099739311,803.0929346648111,890.722100806391,812.4248910944746
1731653393.675055,821.5361271664294,802.6662386922766,884.6453262682853,825.5244931752857
1731653393.6766143,824.1148646005892,801.0296686512695,887.4745387443729,834.556477859122
1731653393.6804826,815.0257407318392,798.8097710237324,897.4238530048212,837.1279483710748
1731653393.6805148,794.3049230349787,796.7554312619982,912.9786506917093,832.4456367041574
1731653393.684415,770.4580647555374,795.4851635097276,935.0055048642712,822.8334113311312
1731653393.684444,755.1972440723317,795.3016998544236,964.4871915034009,812.8734411256584
1731653393.6883156,755.129165665609,796.1474477668029,997.7005598099007,806.6509027382674
1731653393.6906586,766.998460089131,797.7207928845778,1024.3094937058881,805.2830441390951
1731653393.692216,780.4375193636088,799.6796252328124,1032.0942862440088,806.783685132129
1731653393.6961162,786.1746637267995,801.8146786884249,1015.839978213571,808.407991810947
1731653393.7000165,783.0945287681413,804.112281806927,983.000989013138,809.4449372545173
1731653393.7032971,778.3266075297051,806.6843200847132,950.2441378155469,811.8397116741297
1731653393.7039168,780.2873626961822,809.5890385679155,932.2160175118624,817.7646603623663
1731653393.7062624,790.6282683784284,812.6437974870664,930.8351417469552,826.1172917596183
1731653393.7078173,802.1435914017544,815.4186195857374,933.8986233394264,831.447107054426
1731653393.7117174,804.7040581089906,817.5319164045811,924.8712465320948,827.2228197512555
1731653393.7153792,794.3013155752305,819.0697832314961,896.6603551443023,811.4555736719833
1731653393.7156177,777.3232720752106,820.6786709563356,858.3940359120886,789.8282338611205
1731653393.719518,765.9811483810747,823.0333961984725,829.2166424679351,772.7710102996978
1731653393.721866,768.3231157750661,825.9728823199073,823.2547300636539,767.9527943476654
1731653393.7221506,781.138028401058,828.0988189723312,837.1311276711837,774.1448661955525
1731653393.7234182,792.0278596231985,827.4545628140919,849.8896870352205,781.9427875319822
1731653393.7273183,789.4443302158417,823.0166890587312,836.0629163803445,781.2493372242274
1731653393.7312188,772.5761231177792,815.8401791810567,782.8560315781441,769.4443191708467
1731653393.735119,752.5754071435802,808.7084345747422,699.3748174320644,753.3064197149456
1731653393.7374697,743.5976542279931,804.2947237427088,611.6576447315267,743.095750283438
1731653393.7390194,750.9163666257379,803.253660313791,547.3840307407174,744.0323805960312
1731653393.7410038,766.2349944605578,803.937204527529,520.8569730041311,752.4611321933036
1731653393.7429197,774.3990972799347,804.0796975029782,527.6355624574628,759.5512832566204
1731653393.7468202,766.0028169852934,802.9687923904207,550.8022813872622,758.8199850290365
1731653393.750276,745.3102202795443,802.1092398716198,573.1471228145442,751.0218325764553
1731653393.7507205,726.8080153549281,803.7751065986954,586.6664687976934,742.8663440646462
1731653393.7530732,723.2120373875703,808.805789424676,593.9092173218886,741.34108259893
1731653393.7546208,734.8999781167247,815.630999634729,602.0034493497009,748.4831826193127
1731653393.7585213,749.6213954694639,821.2808534915922,615.0145332290997,760.3526178534806
1731653393.7598567,752.8242879385195,823.3561083001061,630.4505707930658,770.3826270954304
1731653393.7624214,740.0178219071609,821.3100702962181,641.7513188921785,774.2344366351048
1731653393.7663217,720.7707225094109,816.3222727717495,643.9607405163086,772.6473763296875
1731653393.768677,710.9584967086602,810.3709254392166,637.9398774226845,770.4904923141677
1731653393.770222,719.8381204979362,805.4852681019319,630.2183092559667,772.9084273820074
1731653393.7741222,742.7784054199985,803.4414739115332,628.9559595642738,781.3816394328429
1731653393.7780223,765.3566355067295,805.4181295390927,638.8609942650133,792.4796235749088
1731653393.7787104,774.8388259707174,811.2931892166033,658.092177143063,800.1213939857544
1731653393.7819228,769.4026943488084,819.08803503152,678.7903888646636,799.66900741889
1731653393.7842803,758.188845554091,825.4494334523849,691.0849713870687,790.9526394362302
1731653393.7851725,753.1138093271505,827.3689493528526,688.7291856358697,778.1769164647228
1731653393.785823,759.4877581759606,824.1304836469318,673.2248968685179,766.9187676849332
1731653393.7897234,772.598511372884,817.951692519912,653.4001687005263,760.5171552641431
1731653393.7936237,782.3607231004169,812.6008292779708,639.9405327472434,758.5759221429614
1731653393.797524,781.973536778415,810.8605503393857,638.3233461633392,758.5909030395411
1731653393.7975636,773.6150285848274,812.718658158872,645.5591740976666,759.0516769722461
1731653393.7998843,766.5883177876974,815.6512640088254,653.5151966684282,761.022279174665
1731653393.8014245,769.3647054604892,816.7014364082278,656.091985553142,766.5893473107718
1731653393.8053248,782.0297827422015,814.6473579178024,654.1727036137692,775.6087442503987
1731653393.809225,795.5163644877168,810.5858320160111,654.3478060377943,784.0417271113673
1731653393.8131254,798.5494636240156,806.6672155834153,662.975831408279,785.9587059004157
1731653393.815488,786.8420884360658,804.2611009804612,680.9588119544952,778.0090876078252
1731653393.8164167,767.1103573687673,803.166501261017,703.4174432866668,762.7784611518165
1731653393.8170257,752.5455460185165,802.3662709346639,723.8163649897389,748.0828110320092
1731653393.8200688,753.1116428292949,801.3620083495637,738.4723127180359,742.3247800273593
1731653393.820926,768.122125310211,800.7057106087701,747.784730958003,749.08200048672
1731653393.8248262,786.9216316668254,801.2834559552299,754.0479669427926,764.8019216541104
1731653393.8287263,797.2919527061981,803.1677979134165,758.7718564652195,781.2784931460801
1731653393.8310916,794.9563199767606,805.1885499803999,762.2745770906854,791.0505479878219
1731653393.8326268,786.3356943576306,805.5975668028451,765.4110919238929,791.7349745296556
1731653393.8352702,782.1289767059352,803.2344021771438,770.7917432615776,786.3737516695035
1731653393.836527,787.2495872885738,798.3171237727285,781.3466909358774,780.1875823978473
1731653393.8404274,796.0863347399338,792.4011061296841,797.1095618361644,776.7441734978313
1731653393.8443277,797.4498405477897,787.6129580467052,813.529923041827,776.3725163134271
1731653393.8466952,784.8720063657022,785.5978089415701,823.8194034566092,777.3318068265934
1731653393.848228,763.1408360653458,786.7111778980174,824.2073191871829,778.1086164155585
1731653393.8521285,745.3753544998024,789.8915730678698,817.8325760018942,778.8457984604183
1731653393.8541234,743.1719533919727,793.3265235601549,813.5465276670222,781.0392099651355
1731653393.8549654,757.9869156820753,795.552459963028,820.0512201008274,786.0472486184277
1731653393.8560286,780.5527603015499,796.3128517933751,839.8654613910746,793.7032184428111
1731653393.859929,798.5000183436217,796.6166738847254,867.7485012490574,802.124655835606
1731653393.862299,805.9406969162344,797.9461017384838,894.3203920332817,808.8820262788996
1731653393.8638294,807.3509845048732,801.1171106164786,911.5107315198322,812.6167729022836
1731653393.8677297,812.6900933586437,805.5413496318477,915.8714782573934,813.7891337097375
1731653393.87163,827.8587705639113,809.4277779031077,908.5789784365186,813.9131497633426
1731653393.8729763,848.597033333636,810.8992453141983,893.774619220784,813.9321335919224
1731653393.8755302,863.2097751713047,809.3638377436021,877.1487788703605,813.2149814640895
1731653393.8779025,862.1162992362896,806.1725512509597,864.9945572596063,810.2246710751672
1731653393.8794303,846.3367931453938,803.9520652671766,862.7720973520743,804.4586811105576
1731653393.8833308,827.6870086797079,804.9356739920464,872.7860789238348,797.9413419232851
1731653393.887231,820.1609651287688,809.4480042180221,892.0200243794224,794.5807629813348
1731653393.889862,829.201076820992,815.6597944958518,911.9387225330937,797.3436400488783
1731653393.8911314,847.3974124421509,820.7677801307792,921.4556224800779,805.3036517357351
1731653393.89183,860.1809908831805,822.6898297321604,912.4968040925802,813.3175379966765
1731653393.8935063,857.2322310575795,821.0876871871036,885.4121171996524,815.3342403318298
1731653393.8950317,840.6825568875881,817.1656264162787,850.3195705728892,809.1787902852125
1731653393.898932,823.4294404119877,812.6189667550836,822.1733277731031,798.8069137472664
1731653393.9028325,818.6431834904605,808.6072414196509,811.9731491892296,791.6472031940349
1731653393.9067326,828.9259340779729,805.4298173258986,820.4660329363484,792.8377861605466
1731653393.9091098,844.2385137103595,802.9361291472703,839.3319147755831,801.1737286616506
1731653393.9106328,850.4639453494161,801.1451436265297,858.4303120597132,810.3095326228853
1731653393.9106832,841.3361834822849,800.4953892743063,872.4291154811986,814.1560065058707
1731653393.9145334,823.5994099027928,801.5537816678345,881.5538044082423,811.7493831626407
1731653393.9184337,811.2118363863449,804.462145330912,887.4911302397529,807.4886253091017
1731653393.922334,813.6814885148447,808.5543757801395,889.7393846353111,806.7736698659171
1731653393.9247136,828.1735433191188,812.4344723161787,885.9927293053433,810.9388263801249
1731653393.924759,841.5645392680327,814.5434389464383,875.3433925099683,815.7944500792776
1731653393.9262342,840.6427126298317,813.9777147075108,860.5341515441348,815.024423682517
1731653393.9295363,822.5270126130476,811.114984114853,847.0047436368378,805.7506885819193
1731653393.9301343,797.2757692823905,807.5794503478814,839.561584883586,791.7577392268416
1731653393.9340348,780.4192135548819,805.3816243537941,839.1950131615248,781.5064031056629
1731653393.937935,780.8690673085104,805.640357221968,842.2256708877467,782.071769974969
1731653393.9403172,793.7292847818111,807.7498786535099,842.489864909202,793.584318238155
1731653393.9418354,804.2081311959809,809.7079821809855,835.4361736330823,808.7537876005371
1731653393.9457357,799.9384571278742,809.5001792182973,821.4679065011167,818.1999169480298
1731653393.9483898,781.7087308632816,806.5352862696287,805.8556997049607,817.5245280693651
1731653393.949636,763.4949245458807,801.9902981999985,794.8553805255451,810.4276603091524
1731653393.9535365,761.397217494064,797.7957255126736,790.9253131312101,805.3033787621999
1731653393.9559207,780.2944137630451,795.156963817847,791.1313826791538,808.131936329513
1731653393.9574366,809.0462567034245,793.8796391224105,790.3542761157053,817.5783793280892
1731653393.959655,828.374524041463,792.9799362594863,786.6831910923032,826.3713626313482
1731653393.9613369,825.5328001567849,791.8792260224681,784.2160366128762,827.7500273014589
1731653393.9652371,804.3069851559856,791.0395617713725,790.4315401018001,821.4214082590645
1731653393.967243,782.203507853252,791.5396804611267,809.7671123812798,813.7978863607705
1731653393.9691374,776.6731137501955,794.0906528464781,838.3950081201315,812.1894583531908
1731653393.9715245,791.2203058195449,798.3877591983812,864.76296523859,818.0070728970261
1731653393.973038,812.7282998859915,803.2665564596591,876.3757465537376,825.1053755789885
1731653393.9769382,822.3222721980685,807.4312372331221,868.3828840482072,824.9760604634679
1731653393.9808383,810.8243797646434,810.1667879820326,847.6285505743577,814.3730522827836
1731653393.9847388,786.0146997714918,811.5758400334018,828.8112455109072,798.6414874509238
1731653393.986096,765.9594773844304,812.2651248179296,825.190262820389,787.7258757476941
1731653393.9871285,764.3877416626611,812.7653096202272,840.193323515247,788.2264907953315
1731653393.988639,780.2954100230464,813.1137391575285,865.3597551847662,798.2000479533957
1731653393.9925394,799.7875375584692,812.8876505566785,885.5559866782565,808.8720448752649
1731653393.9945517,807.8750064276493,811.6347788529367,887.9473911230114,811.5812296781351
1731653393.9964397,800.2442168662138,809.3489589404109,869.3840994007769,804.2553716303131
1731653394.00034,785.6789154120395,806.6067890659563,838.0507009704766,792.5760005296113
1731653394.0027318,777.7336016238838,804.2440933827701,808.5212685901182,785.4496119734739
1731653394.0042405,782.9649140731086,802.8114142312874,793.154300652663,788.5636091957291
1731653394.0049496,795.659554670836,802.2363115954545,794.990105800318,800.6841351731542
1731653394.0081406,803.4351752160254,801.9746272722924,806.4404167486692,814.936384900811
1731653394.0120409,798.779698994704,801.5192575250508,814.4611106933382,823.7804386553273
1731653394.0159411,786.3330961867179,800.7929875450931,808.8823382668531,824.0920085927141
1731653394.0183356,779.2447385508915,800.0796475200221,788.7188901218369,818.8890807653606
1731653394.0198414,787.4606153612486,799.6578587916702,762.6766596747193,814.6470269478589
1731653394.0237415,808.0072179256108,799.5647318947896,743.7498936529545,816.3377640129723
1731653394.0238028,825.861350740735,799.6510936749004,741.4516018801925,824.0509453039527
1731653394.027642,825.1672364941994,799.7544757703896,756.5112361547342,833.7129013651395
1731653394.0294485,801.9670905457714,799.7996024707041,781.0092447962757,840.8218080116628
1731653394.0315423,768.2363608707432,799.7928964334777,803.3308757441653,843.6063405695066
1731653394.0339391,743.7392511932791,799.7709527134339,814.5722170949165,843.2228262592167
1731653394.0354428,741.7224885647909,799.7601510295038,812.6880057008618,841.8451304876601
1731653394.039343,759.4714639692853,799.765877823289,802.3821791019853,840.9283798401241
1731653394.042656,781.2384833108235,799.7810754089404,791.1911226020964,840.7753382592374
1731653394.0432434,791.3520694169994,799.797712943458,784.2778675035188,841.0257118238054
1731653394.0471437,786.9555823181072,799.8123316527643,781.307411762296,841.2663472518974
1731653394.049543,779.9105338458717,799.8255735783961,777.6801933862794,841.3218510090762
1731653394.051044,786.3098461623151,799.8394172483787,769.433098317613,841.2294199519134
1731653394.0549445,812.3821753784143,799.8551545171391,758.006194955618,841.0946931256116
1731653394.0588446,848.4359394835176,799.8729500577899,750.5182655428061,840.9868661266058
1731653394.0615094,875.5936178708592,799.8923564544732,754.431626517893,840.9163259136132
1731653394.0627449,879.6290076148281,799.9129182364519,770.4148728604844,840.8617645996429
1731653394.064345,860.9856088863872,799.9344365279861,789.5784994791331,840.8016303230045
1731653394.0651464,833.6609456816625,799.9569219859009,798.4162192306297,840.7277944306541
1731653394.0666451,814.463976034711,799.9804427422625,788.5272550472653,840.643036237741
1731653394.0705454,811.2165529582828,800.0050225735368,763.7174813719558,840.5531441149669
1731653394.0744455,818.7982696228642,800.030625936392,738.576749284385,840.461638121618
1731653394.078346,825.5377123162152,800.0571920069381,729.2331346050346,840.3689169448078
1731653394.0803626,824.1688950614738,800.0846690380984,743.1031148364137,840.2738395445042
1731653394.08075,817.9336870507632,800.1130230066897,774.900571112683,840.17536496325
1731653394.0822463,816.6635058198715,800.1422204120316,810.9961511679812,840.0731923164899
1731653394.0861468,826.5052704671526,800.1722033328284,838.1590972132174,839.9675708387318
1731653394.0900471,842.717964821646,800.2028848038784,850.3781829798202,839.8588717377208
1731653394.0939474,852.3788588369043,800.2341881084026,849.8357366479088,839.7473255657882
1731653394.0963538,845.0782036913478,800.2661221426507,842.7816420810202,839.6329958374578
1731653394.0978477,822.5549122251783,800.2988282751035,834.4342794674797,839.515871624815
1731653394.0992155,798.9395850270173,800.3324943398491,826.7988054277125,839.3959528313932
1731653394.0992413,790.9535029910361,800.367087063316,820.0295519275114,839.2732756583089
1731653394.101748,805.4949998068946,800.402052417267,814.7288788856306,839.147891496084
1731653394.1056485,834.2034279896664,800.4363769915315,812.2264347856051,839.0198375397157
1731653394.1095486,859.3511913037623,800.4693995357757,812.5267601233224,838.889131004093
1731653394.1119573,866.7049568993074,800.5021876150587,812.5692861863782,838.7557969244799
1731653394.1134489,855.4360006380662,800.5382276309168,807.6441517986976,838.6199096771634
1731653394.1173491,837.3893875215792,800.5815142221398,795.6341604121568,838.481599514687
1731653394.1180692,826.608604834768,800.6313662334985,780.0851687297203,838.3409732541124
1731653394.1212494,827.9316692427275,800.6771612066485,768.120073806638,838.1979574195077
1731653394.1251495,833.992891667061,800.7005291896334,763.9779441281688,838.0521923800349
1731653394.127561,832.7089648501641,800.6916946062777,764.1693211279127,837.9031988065868
1731653394.12905,818.5767957197847,800.6749251840948,759.8636896325296,837.7509341058148
1731653394.1329503,798.17667310305,800.7180113414576,745.3590066491575,837.5964460968582
1731653394.134138,785.3291120961316,800.8903118645563,724.8286116090762,837.4418024661113
1731653394.1368506,789.9392393473058,801.1605880707345,710.3163656439989,837.2884382184961
1731653394.1369224,809.629118055179,801.2985403321259,712.0207349178506,837.1342252880015
1731653394.140751,830.9624029607893,800.913538993566,729.3990411522472,836.9718293664636
1731653394.1431646,839.4741267845218,799.7114642322191,751.1344959979914,836.7924503035317
1731653394.1446514,830.7572963348829,797.8107255742909,764.0899171094525,836.5966504334726
1731653394.1485517,813.8182888009986,795.7615794895695,763.5603029062522,836.4059329505604
1731653394.152452,803.7718804875535,794.1320107823775,756.3907265411758,836.2592363425724
1731653394.1557755,809.4673314232873,793.0288036777616,754.9571962756194,836.179438886384
1731653394.1563523,826.0587560029534,792.0749984708178,767.4699673623137,836.1188050329475
1731653394.1587684,838.8307257010133,790.9140134930431,792.2806249180258,835.934811924463
1731653394.1602526,835.3659367016038,789.7433458411106,819.8721372387793,835.4720070287278
1731653394.1641529,816.0346211823256,789.298739256126,840.11191947754,834.7722002386977
1731653394.1680532,794.003640452801,790.2246382864156,848.9566531400815,834.2796606189916
1731653394.1690345,784.6527005814977,792.4087942661039,849.9712172543913,834.7425042062885
1731653394.1719534,793.1148351464284,794.971240770256,850.3149359762538,836.5693954880193
1731653394.174372,810.2211377919522,796.9921712788605,855.0001991510097,838.9119602575464
1731653394.174629,820.2299796448673,798.3027424827212,864.1289541124062,839.4779324722123
1731653394.1758535,814.0675654159751,799.5479437053124,874.7243069976391,835.98145756933
1731653394.179754,797.1847084407606,801.4438188315158,884.4494260751006,828.4936239820422
1731653394.1836543,785.3625125674909,803.9843706962674,893.0927704892134,820.323499279808
1731653394.1875546,791.6808870711864,806.4033406134233,900.5717422088102,815.9037414374353
1731653394.1899755,815.3348962499172,807.8747228499877,904.2462903521861,817.0959806073657
1731653394.191455,841.6114287160083,808.1501253378411,899.1619030779772,821.1954460350859
1731653394.1934822,853.1225577645718,807.4768493200797,881.6580332697048,822.6517912076669
1731653394.1953552,843.1277799847954,806.0240193150363,853.1570438765323,817.3150310612889
1731653394.1992557,820.2070102397105,803.6087636004075,820.6603676568261,805.7730595504223
1731653394.203156,800.7871073880982,800.1287414928975,793.4280833434924,793.0090767376948
1731653394.203931,795.9360702640737,796.2616190650853,778.2643902002351,784.5999309038084
1731653394.2055793,803.2685329640985,793.615972959895,776.367026763106,782.5035642471721
1731653394.2070563,810.2479210222974,793.9503241359326,783.3042735088305,783.8270357905122
1731653394.2109566,805.5889703266635,797.8895605718131,791.9924992961339,783.558899732968
1731653394.212335,788.924681166734,804.103926499343,797.1496225609022,779.0339297194815
1731653394.2148569,770.7609584005517,809.7544516942378,798.6023142693651,772.4517541285478
1731653394.2187572,763.1976974507677,812.1562188150646,800.9313779165151,769.294523956351
1731653394.2211833,769.6347224953745,810.5893080270707,809.2350458975299,773.8259430303428
1731653394.2226574,782.1911014545735,806.8434964233313,824.0709162655439,785.3030030996167
1731653394.2265575,788.7066005719079,803.9090546753122,839.8096958889869,798.0168546677558
1731653394.230458,783.1219989972027,803.7085913073441,848.1303168050965,805.1903133168983
1731653394.2311888,770.5633996852257,805.637380702308,844.2651063476299,803.6910685927994
1731653394.2343583,763.1743307413681,807.0874887364417,831.383173554155,795.9783487572066
1731653394.2367866,770.2540722231331,805.5358792048396,819.663819002543,787.9528874524755
1731653394.2382586,790.5442011686655,800.5537831535728,820.0199394044317,784.4660747665711
1731653394.2388277,812.6827245459259,794.2288949892086,836.10676149513,785.8464150045786
1731653394.242159,823.6076144857984,789.757444958603,860.2664994170517,787.9600475546225
1731653394.2460592,818.5695784633126,789.2944812723803,877.4701846310328,785.7579163200198
1731653394.2499597,804.8862897921352,792.6030092878749,875.738878455031,777.695515285218
1731653394.250042,796.1512634110976,797.4014048141155,855.5022694927677,767.6074502064379
1731653394.2523904,801.2068757272133,801.0754037923234,829.8240741485878,762.3591561106441
1731653394.2538598,816.7608512091674,802.4470230120771,814.5203180586476,766.8790825666848
1731653394.2577603,829.9006330260747,802.2864948810799,816.2425622261368,780.4909079928067
1731653394.2616606,828.6789460331697,802.2774046597622,828.6978310248825,797.6237147044747
1731653394.2655609,812.0998641330848,803.4178837512459,839.6678227505103,812.3073163548091
1731653394.267994,791.1878537889887,805.2527127675937,841.5532931798858,822.4886005797696
1731653394.2688951,780.181873094873,806.4811556921092,835.6763912976966,830.3758237697671
1731653394.2694612,785.0115787921726,806.1937346278769,827.6382925086561,838.7428755689373
1731653394.2733614,798.384784858049,804.5293142243314,819.9440769693429,846.908725922242
1731653394.273724,805.5151952901025,802.2963505260667,809.8588520982802,850.3651657097579
1731653394.2772615,796.0998099577997,800.1847348324619,794.0735127991678,844.6031110612583
1731653394.281162,773.1064486619222,798.4644539151626,774.4663842370124,829.8275692594837
1731653394.2835977,751.1885430580818,797.3483327550091,758.3462005372326,812.3655954264054
1731653394.2850623,745.6315366564615,797.3794989192975,752.3524878672354,801.2515761338585
1731653394.2877486,760.4617778049902,799.2044032919557,755.667995113999,802.3538569608262
1731653394.2889626,785.3196138912382,802.8569049100681,759.3129850356098,814.4002834028655
1731653394.292863,803.7268704798623,807.3072551961857,753.1060139259316,829.9007056705469
1731653394.2967632,806.0102176346917,810.8149527330249,734.8896316961835,840.2883080963205
1731653394.2992013,796.2864804842402,811.836049832603,714.0006459403926,841.404832610702
1731653394.3006637,787.9695873057137,809.7616812893182,705.423339105409,835.3092929483882
1731653394.3045638,791.8977076100994,805.0545401445194,719.0073106638077,827.4656582244689
1731653394.3066018,807.1211793482604,798.9455454708628,752.3677213464345,822.0261989381426
1731653394.308464,821.7952910098649,793.0509016015354,792.69732176917,819.048980941703
1731653394.3086207,823.0875957338703,788.9990615501342,825.1505658076321,815.4042545399353
1731653394.3123646,807.7830456496271,787.9455495767154,840.8640721980332,808.0296294723121
1731653394.314805,784.984238043844,790.0450391479085,839.5291900589477,796.7214314858029
1731653394.3162649,768.8630624998594,794.2635012492647,826.731922974271,784.5141881643613
1731653394.3201652,767.5128119012362,798.8504365160418,809.6953433854719,775.6868239977343
1731653394.3240654,777.1070048889819,802.2926123711331,794.4484634246514,772.9872424730621
1731653394.325455,786.1142605458826,804.1101451280631,784.8692163151661,776.008579805198
1731653394.3279655,785.8138513620079,804.9135202581512,782.5365109269297,781.7805885252337
1731653394.3304086,778.0133935165829,805.6956140136184,786.7158136829391,787.0746036962618
1731653394.331866,773.3473297885765,806.9123562304982,794.7390486255331,790.6343454687261
1731653394.3357663,781.6798120077392,808.0504784602176,803.1424675471773,793.5715903017687
1731653394.3396666,802.8783969065523,808.0094294735176,809.2201887986076,797.6764181050744
1731653394.3435173,825.8704791931177,806.0247851033613,812.0748248869575,803.2176205987666
1731653394.343567,836.9328715124384,802.4503943997559,812.5011819938892,808.3061088310232
1731653394.3443084,830.5201310424025,798.783727781169,811.9558457060931,810.5141807645304
1731653394.3460124,813.8258618866345,796.8405352823826,811.5262433270357,809.3659431541828
1731653394.3474672,801.2850009714626,797.6136067516985,811.5628664909909,807.3981034263954
1731653394.3513677,803.3217888038798,800.6223620395531,811.9133654274565,808.584275672936
1731653394.3552678,818.3568343496582,804.2351072193708,812.3151612789887,815.1454825915607
1731653394.359168,834.5063307516378,806.7403417303819,812.6258583165363,825.3063819894634
1731653394.361616,839.4950963113006,807.4087612458076,812.8448397530952,834.0700664879862
1731653394.3630683,830.6043366008721,806.84642461642,813.033198564717,836.7824629507396
1731653394.3631616,816.6286477560926,806.4966657562228,813.240514648729,832.8519047348892
1731653394.3669686,810.5368846725607,807.709325404297,813.4804939814966,826.5146596169017
1731653394.3708692,818.9728554263934,810.9632846912028,813.7428856750375,823.687833211429
1731653394.3747694,836.8775446613216,815.6073773826738,814.0135636320506,827.2084749750112
1731653394.3772197,851.1621344455854,820.1432221481773,814.2855754657222,834.3537139683463
1731653394.3784137,850.3962614145454,822.8437601928322,814.5594068105502,838.8460801087953
1731653394.3786695,833.1734326984521,822.4433825673201,814.8384454311623,835.8067579744236
1731653394.3820148,808.9749842131126,818.6752698556705,815.1252167239595,825.5519237952043
1731653394.38257,790.9319655593632,812.4737701861757,815.4203039027086,813.065323530601
1731653394.3864703,785.9977008834805,805.7024534767805,815.7230978410757,803.6927133962696
1731653394.3903706,790.2246528575334,800.409921291569,816.0328646147963,798.8764338941415
1731653394.3928232,792.9817404337667,797.8980973846807,816.3492798352414,795.6777154560868
1731653394.394271,786.6034214664485,798.1351694847907,816.6723952824702,790.4118823437343
1731653394.3981712,773.2125173211923,799.9419043143471,817.0023800052306,782.9535654860531
1731653394.4008682,762.7884773052668,801.8420264281291,817.3393326010357,777.5828703289961
1731653394.4020717,764.1953887508262,802.9266019367107,817.6832587759004,779.3593085422538
1731653394.4059718,777.0351732626023,803.1242560387533,818.0341517477946,789.1661360426488
1731653394.408427,791.4034609362352,802.8621769788499,818.3920594429986,801.9705993868758
1731653394.409872,795.810260660736,802.5756414341223,818.7570492162563,810.1544500815414
1731653394.4133103,786.7073257720501,802.4553777560703,819.1290645927803,809.3468924447212
1731653394.4137723,771.7998967922886,802.4756153452537,819.5077916118457,801.9504176560415
1731653394.4176726,764.3380870256667,802.5361623026918,819.8927500941602,795.4151132259731
1731653394.4197214,772.7609940611103,802.5682665576928,820.2837596081198,796.5946512843639
1731653394.4215727,793.8511383477716,802.5599175424444,820.6815834390751,806.5696226785045
1731653394.4240303,814.9875794846217,802.5310868948288,821.0880442220206,819.8136136719534
1731653394.4254737,823.9499480523293,802.5030439687657,821.504744235946,828.2111256153113
1731653394.4293735,818.5121517595406,802.4843368075583,821.9304039972923,826.9428646342774
1731653394.433274,807.9792890814035,802.472708744473,822.3588577832849,818.0553069716528
1731653394.4371743,805.3213403275455,802.4626711503087,822.781491693822,809.2258070332488
1731653394.4385746,816.3639979123691,802.4507769943855,823.1964722954978,808.5605253645892
1731653394.4396343,834.920045550037,802.4366115146425,823.62035715903,819.0086849418742
1731653394.4410746,847.7504347613792,802.4213231464646,824.088367919838,836.277752068559
1731653394.444975,845.211159854395,802.4060151774905,824.6278876075961,851.6865147456149
1731653394.448207,829.0132827441794,802.3910825136583,825.2081843889409,857.851282988185
1731653394.4488752,811.0053381435172,802.3763690949952,825.7078933091933,853.0851262781665
1731653394.4527757,804.0575680373905,802.3615796703849,825.9710277028687,841.5181142041408
1731653394.455238,812.3321348397562,802.3465435744735,825.987360494557,829.3672780888708
1731653394.4566758,828.644270218458,802.3312500550147,826.0994019139025,820.6929911893465
1731653394.457428,840.8701216317235,802.3157633894302,826.96872575761,815.9587922702675
1731653394.460576,841.9674716950834,802.3001395281196,829.0262968430552,813.8962511221811
1731653394.4644763,835.2361567829082,802.2843956504373,831.5057791947279,814.1757411641437
1731653394.4683766,830.5758620174169,802.2685214469943,831.8639613318254,817.9501125276981
1731653394.4708416,835.2644263413844,802.2525008186957,826.7743213858955,825.7930558793139
1731653394.4722767,847.3770509808583,802.2363237143335,814.9314295759152,835.4138045960653
1731653394.4761772,857.3750882773451,802.2199859675718,799.7324949802799,841.9124238456135
1731653394.4762812,856.1638348091822,802.2034852152221,788.775852844788,840.8827697472519
1731653394.4800775,842.612205059841,802.1868206681634,789.2174588117597,831.8614474227535
1731653394.4831035,824.46305626646,802.1699976340805,802.0253608408715,819.1646925533514
1731653394.483978,812.2988900886583,802.1530298441158,820.0283109715432,809.3142234646698
1731653394.4864452,811.6530927728846,802.1359298725199,832.0616431442312,806.9301144649336
1731653394.4878783,819.3876054374558,802.1186859073629,830.4371357763494,811.9810776843657
1731653394.4917786,826.8360187475442,802.1012421103877,815.9119048904835,820.1559994772105
1731653394.4951344,826.9656127240762,802.0835170983206,796.3060893806635,825.9518760960374
1731653394.495679,819.8196199593033,802.0654845617687,780.4162757435646,826.3359425783492
1731653394.4995792,811.9372703662062,802.0472809933041,772.8104036933375,822.5143063725518
1731653394.502049,810.2956346206222,802.0292195626678,773.5777270298066,818.6250664699812
1731653394.5034797,815.8531091785134,802.0115653891779,781.6951199501552,818.3606731852182
1731653394.5073798,822.2376556247181,801.9940826417032,797.1367961116972,822.1207213921618
1731653394.51128,820.9002841570247,801.975709975265,819.031515719745,826.9307483885175
1731653394.5139878,808.554696540837,801.9550086325816,842.4797181838805,829.1151586701538
1731653394.5151803,790.6347133247267,801.9317635639612,858.8394703986994,827.4023038149286
1731653394.5176525,777.6468027420187,801.9089603610921,860.6715800015103,823.7878732738847
1731653394.518,777.0535402819125,801.8928267266584,847.148301059512,821.3914892030572
1731653394.5190806,787.0367030880699,801.8885077979887,824.6883020332358,821.0870350235406
1731653394.5229807,797.2833797782115,801.8924764676094,802.0905034996118,819.8511268174068
1731653394.5268812,796.6556463556692,801.8902455688885,784.6617221865063,812.6460286626167
1731653394.5307815,782.0621527395043,801.8754779216221,772.4206910015861,796.885166619048
1731653394.532841,761.381799026917,801.8910318000746,763.1547511061061,776.0206216937114
1731653394.5332563,747.5890680943459,802.0242637143607,756.5135550270516,758.7233556957578
1731653394.5346818,748.3914125122595,802.2594290776676,754.863871767463,753.2621596349658
1731653394.5385823,759.831761782,802.2740998367137,760.3134556462533,761.0195563788504
1731653394.5424826,769.4618394554902,801.5065370327196,771.2453521703875,774.7284411398186
1731653394.546383,766.7716024165677,799.654834355419,782.1073960418641,783.6507372903999
1731653394.5488598,752.2591358413795,797.2223294425833,786.9226376182263,781.8504349294366
1731653394.5502832,737.4684843027708,795.4750378678771,783.4134179934894,772.5662622847285
1731653394.5516942,735.8140734151707,795.6335631949257,774.2098795106557,764.888294366926
1731653394.5528965,751.6280653726212,797.8657221845945,764.455486612182,765.7339167503786
1731653394.5541835,776.2855875989397,800.9404864830888,758.2204059638648,774.1237284491921
1731653394.5580838,794.5027115799942,802.950196487175,756.6747979362194,782.4141720530431
1731653394.561984,795.697529706177,802.6681984030953,758.9239471014472,782.9287346746837
1731653394.5644636,781.2573190524706,800.5556073585747,763.9912420895485,774.0323998047803
1731653394.5658844,762.1258909200234,798.6075309327687,771.774620982908,760.7284164208687
1731653394.5697846,749.5232188439089,799.0331703056137,782.1794227362145,750.0131168067091
1731653394.5705476,747.2947774502804,802.6393607258143,793.5455487283571,745.655275497988
1731653394.5736847,751.7624483260057,808.1002294747027,802.1625857167498,746.7249557195362
1731653394.5775852,757.0815351751846,812.7460117919842,803.6705341804446,749.9406448240394
1731653394.5800672,759.9318471639657,814.3885635041211,795.5952102087384,752.6669796040873
1731653394.5814855,760.2969895167134,812.8420096241434,779.479484313111,754.1043379528521
1731653394.5853858,759.6830937912998,809.9635737570457,761.3017138346127,754.7269531862695
1731653394.587793,759.3397448866078,808.1931224856738,749.5990853044498,755.2556241680936
1731653394.589286,759.6354005235032,808.7565214086609,751.6763981743416,756.0654057334594
1731653394.5894008,760.3329259052114,810.9000519304975,769.5347192753451,757.1481276002244
1731653394.5931864,761.0842866927162,812.6247814420241,798.0941411055876,758.3360861218945
1731653394.5956707,761.7117814625396,812.2171381112666,827.551266653943,759.4979888268849
1731653394.597087,762.2222687160029,809.3693671593896,848.9059729752533,760.600463404518
1731653394.6009872,762.6978911588268,805.1498108446107,858.8475739803639,761.6733252863072
1731653394.6048875,763.2020439100118,801.0589932770082,860.336808487238,762.7551721010882
1731653394.608254,763.7506649849261,798.08737044994,858.8643916962975,763.8645137389485
1731653394.6087878,764.3295466105457,796.5219456847873,858.1001588068644,764.9999161200789
1731653394.6112745,764.9206123225155,796.407651450664,858.5036570553661,766.1525255121637
1731653394.612688,765.5156294329033,797.8920668050667,858.8854344658938,767.3160884822317
1731653394.6165884,766.1159529862817,800.9000756544117,858.3567218796678,768.4896344516256
1731653394.6204886,766.7264256334117,804.4979204804307,856.9484833188639,769.675328157818
1731653394.6226895,767.3505770331745,806.8809857776657,855.1726098591487,770.8755877257755
1731653394.6243887,767.989381284292,806.4035575666787,853.4619118569094,772.0916876534433
1731653394.6268785,768.6423199603098,802.9164842565289,851.9557796492805,773.3238727921608
1731653394.6271074,769.3087717682942,798.1391501397685,850.583902196091,774.5720503879845
1731653394.6282892,769.988674070828,794.5365669183748,849.2308445045564,775.8362979560147
1731653394.6321895,770.682457842787,793.5252067490442,847.83419047986,777.116974415514
1731653394.6360898,771.390710800104,794.4762073454688,846.3933420715057,778.4145910551529
1731653394.63999,772.1139342182473,795.3215117180091,844.9345920228809,779.7296598138826
1731653394.6424818,772.8524922144784,794.2456061643911,843.4792820714058,781.0626266541237
1731653394.6438904,773.6066755731092,791.1231717274239,842.0332014628161,782.4138831204617
1731653394.6459606,774.3767743426588,787.631606138086,840.5917451631268,783.7838038517635
1731653394.647791,775.1631072030984,785.9946034980371,839.1486248822833,785.1727707511398
1731653394.6516912,775.9660119241447,787.2999211926762,837.7006648835938,786.5811750317109
1731653394.6555915,776.7858249037333,790.6250871824351,836.2479185739672,788.0094082151887
1731653394.657586,777.6228728315252,793.6251603375503,834.7917010803291,789.4578561975529
1731653394.6580856,778.4774824154432,794.1756836570195,833.332955412003,790.9269027244216
1731653394.6594918,779.3499964388639,791.8798920431273,831.8717829057947,792.4169375222832
1731653394.663392,780.2407731329464,788.354013742744,830.4077675252047,793.9283560299355
1731653394.6648138,781.1501501153381,786.1343591510696,828.9404387715134,795.4615389099838
1731653394.6672924,782.0783834717462,787.054351857534,827.4695049622367,797.0168162848678
1731653394.6711926,783.0256203476961,791.2186939610697,825.994842082392,798.5944501320421
1731653394.6736891,783.9919890601162,797.1266114096367,824.5163845792525,800.1946846912074
1731653394.6750927,784.9778298865178,802.662190139591,823.0340422858268,801.8178808776731
1731653394.6789932,785.9839160506565,806.2332470743522,821.5476805257788,803.4646495478668
1731653394.6828935,787.011329793847,807.4374648039473,820.0571398479199,805.1357874538623
1731653394.6836672,788.0607158128338,807.0010990869238,818.5622605065631,806.8318466667404
1731653394.6867938,789.1311711639232,806.1335548666393,817.0628937351117,808.5524767391835
1731653394.689293,790.219902758424,805.7392602479999,815.5589003611167,810.2961939640857
1731653394.690694,791.3241680434866,805.9660564060395,814.0501449193413,812.0614791615727
1731653394.6924827,792.4457058283483,806.2854987127313,812.536491576218,813.8493698804344
1731653394.6945944,793.5945188672039,805.9375290534571,811.017803412947,815.6657605316475
1731653394.698495,794.7856490434589,804.4516415496339,809.4939435836258,817.5196787600598
1731653394.702395,796.0243370852812,802.0537979979966,807.9647765274095,819.4147055480704
1731653394.7025204,797.2857315867037,799.7901140778121,806.4301685139825,821.3369162733067
1731653394.7048965,798.5114143720199,799.1286842820244,804.8899878366398,823.2522581021685
1731653394.7062953,799.6501040380322,801.023106052902,803.3441051746534,825.1296963916344
1731653394.7101958,800.7419824737347,805.0434711405811,801.7923940724081,826.9906749553752
1731653394.714096,801.9819630949714,809.4829354019159,800.2347307322741,828.9479257435398
1731653394.7179964,803.642106380439,812.5554264455845,798.6709922770445,831.1631737264095
1731653394.7205,805.7794687477781,813.5923019152797,797.1010539828583,833.6779155601317
1731653394.7213736,807.8705244146896,813.1570208363196,795.5247883252665,836.1957669177596
1731653394.7218966,808.8094928032606,812.2486793379322,793.9420698568447,838.071213296963
1731653394.7257967,807.765881495887,811.5392296724921,792.3527867410737,838.8031653919636
1731653394.727379,805.8256308818969,811.1758689455709,790.7568511274983,839.0108527708625
1731653394.7296972,807.1656323429588,810.9998782913759,789.154191841864,841.1912953665759
1731653394.7335975,817.730618180692,810.8239951619956,787.5447166492778,849.1075882428358
1731653394.7361038,840.6766999391311,810.5669223906291,785.9282586849972,865.3635483318319
1731653394.7374978,871.4362772460092,810.2441048829083,784.3045640261915,888.5496742877358
1731653394.740227,897.7650548194634,809.9030485708705,782.6733931437418,912.563436863145
1731653394.741398,907.2250371042978,809.5753987559979,781.0347399074537,929.6033732330577
1731653394.7452984,897.330357679439,809.2662240746606,779.3890057935914,935.3659029236621
1731653394.749199,879.3314024712377,808.9660072426715,777.736816691767,932.5565127523872
1731653394.7517073,870.9102028394623,808.664909744,776.0782745717381,929.4132562611796
1731653394.753099,882.8030516043463,808.3591028875536,774.4119822283704,933.7136479528381
1731653394.7569993,910.3940843910796,808.0497335839462,772.7349578455422,946.722096575569
1731653394.7590802,937.5695643953713,807.7393707641735,771.0447439787002,961.9992403612807
1731653394.7608995,949.6877744773723,807.4295894042602,769.3435561250697,970.1979428449583
1731653394.762276,944.750258398667,807.1205531939902,767.6411457040026,966.0942606423216
1731653394.7648,933.6105230132737,806.8117171095302,765.9505101152992,952.3463337589463
1731653394.767311,929.6243737723557,806.5025723158841,764.2731973639991,937.27712733077
1731653394.7687004,937.0804349146292,806.1929435760877,762.5817641471021,928.8255549429376
1731653394.772601,948.367581919872,805.8829081180678,760.8211104258488,929.5731414488723
1731653394.7765007,951.8298111309821,805.5726023770297,758.9517861822654,936.3231470088446
1731653394.7779334,942.8513045833508,805.262101942172,757.0279792982055,943.6915102876592
1731653394.7804012,928.2064565094614,804.951409449643,755.2427773216813,948.1958248244197
1731653394.7829146,920.0587191826094,804.640497688234,753.8313636051782,949.6917794741436
1731653394.7843015,925.2147840452517,804.3293484291345,752.7840148227597,949.8182047379898
1731653394.7882018,939.1074608089112,804.0179602378387,751.5325744758618,949.5724684413931
1731653394.792102,949.4865465342801,803.7063313628107,749.0271928725114,948.3179770340229
1731653394.7960024,946.415262226998,803.3944414809621,744.5978021423897,944.8020748596799
1731653394.7967868,930.2476977836003,803.0822578698866,739.3530625327476,938.9318444738824
1731653394.7971723,911.4068785739576,802.7697761434019,736.8507828902358,932.5547833678906
1731653394.7985184,902.4413803805508,802.4570712489993,741.6860617939826,928.4481196150365
1731653394.799903,908.5070328124925,802.1442951219574,756.4039752913918,928.2147245585243
1731653394.803803,923.3277889530309,801.8315558665564,779.1101651804767,930.6934767651142
1731653394.8077033,933.7005039621044,801.5187000579737,803.8359594993696,932.2172046790911
1731653394.8116035,929.4279875395599,801.2051876768967,823.4598995176348,928.7937537828697
1731653394.814122,911.2762344050168,800.8903642821558,833.2267468101312,918.8716301271536
1731653394.8155038,890.5745463177672,800.5742609792259,832.8365072710263,904.731934005438
1731653394.81564,880.3653189412968,800.2584588468821,826.114502576065,891.244702554913
1731653394.819404,884.978907126159,799.9458465339098,818.5231915368279,882.4931054434377
1731653394.823305,896.5932915210606,799.6381551164668,813.8285721186601,878.5570971541607
1731653394.8272047,901.7875686581494,799.3319048470246,811.850013463461,875.126728295544
1731653394.8297255,892.7224009992394,799.016547653636,808.8697454304285,866.8025661293458
1731653394.8311052,873.6036058069463,798.6804130523209,800.6644192941035,851.9070520059971
1731653394.8320687,857.0435990763673,798.326149077283,786.1889049791334,834.8540390971319
1731653394.8344932,853.400845463981,797.9857570893477,769.4077250059489,823.5430173961947
1731653394.8350055,861.9295821436542,797.7126712830838,758.1663097000959,823.190064250527
1731653394.8389058,870.9859688716139,797.5314707629252,760.868548370387,831.352028460274
1731653394.842806,867.1596004205942,797.3606639657085,782.457640368114,838.5706184407612
1731653394.8453293,846.0357134211916,796.9805764007235,821.0341622072136,834.8480059813677
1731653394.8467064,815.998554920552,796.1433311422772,866.6656326634583,817.3198233429956
1731653394.850607,792.0759274865226,794.8446017345503,904.2301410684274,793.1705570320344
1731653394.8533466,784.7845861130892,793.5876921769868,920.5055758838625,775.3337981695752
1731653394.854507,792.7585310502197,793.3114088230952,911.9597806164552,773.9916474410504
1731653394.8584073,804.6107790730074,794.7877470350658,887.4087347764288,789.951221228169
1731653394.8609333,808.0143836857441,797.8030794082126,862.6475183178369,814.4438918226584
1731653394.8623075,798.6174006143366,800.8848488374377,850.7517194048772,835.1609548767956
1731653394.8662078,782.1604288605442,802.0813668852164,855.5350633639085,843.9419540921192
1731653394.8669655,768.8807959015619,800.3566153168321,872.4066770535134,840.6134974228834
1731653394.870108,765.1639845941938,796.4510949535751,893.9146807776162,830.6988589963738
1731653394.8721998,769.0721397485933,792.4341616285503,913.9333262619771,819.6066479743204
1731653394.8740084,772.9562966776423,790.3187873503689,927.7335750785713,808.483859733641
1731653394.8765366,770.6461573214717,790.859817410221,930.5954123301252,794.9973155130355
1731653394.8779087,763.0621356506804,793.3466508226661,918.8722915716676,777.6414604483984
1731653394.8818092,757.399970195396,796.3117007236195,893.5727335010475,759.0360772860956
1731653394.8857095,760.4519752791946,798.4957711004621,862.4689362851467,744.8951411301415
1731653394.8896098,771.7972512115665,799.4645064609863,837.2212806767772,739.6061196470043
1731653394.891053,783.005591336261,799.6512413526929,826.5567517855349,742.5594538295276
1731653394.8921404,784.0439819432545,799.9469687842009,830.5034377059447,748.614305718937
1731653394.89351,771.8451892058487,801.1476497573458,840.2875332599738,752.2890807226873
1731653394.8974104,753.8086916249537,803.5822826429315,844.2228661660795,751.9868435838932
1731653394.9013107,742.8370336542862,807.0612077091356,835.4087212297723,750.6303391656418
1731653394.901862,747.3757978015038,811.0170425686739,815.7492410988145,752.2604129032635
1731653394.905211,764.2709816704657,814.6226682115085,793.608535669606,757.6459873704588
1731653394.907744,780.4096672470437,816.8708668758726,777.2582397864068,762.8262171284929
1731653394.9091113,782.297077698883,816.8255157413474,769.4220477518016,762.0264624705322
1731653394.9099064,766.2685991079812,814.144627742922,766.9688121091474,752.6131858496817
1731653394.9130116,741.2458631450094,809.5683888205427,765.1063132959409,737.8895560110807
1731653394.9169118,721.780740053402,804.8392615726312,761.5830841362242,725.2627001454955
1731653394.920812,717.0378269865955,801.8517542834549,757.0871801402661,721.2087605391641
1731653394.9233477,724.6790900725573,801.4985991037474,752.3676983122956,727.1147257807784
1731653394.9247124,734.3205832315547,803.054395854617,745.9501527950525,739.170614731564
1731653394.9286127,737.0210547957922,804.6211603632485,735.2821822021482,751.9574932631251
1731653394.9287596,732.3968016918903,804.385625320606,720.2032394489851,762.4466651534657
1731653394.932513,727.5485831792389,801.8280224303705,705.1049443211446,771.2028924313055
1731653394.9364135,729.3558733878339,798.0453283473145,697.3061404740027,780.2322888084751
1731653394.9367585,737.2583176061185,794.983476354463,702.378733416455,789.6779054703869
1731653394.9389513,742.9470688674492,794.1440251260957,719.5397344478735,796.3369340158911
1731653394.9403138,737.4261535215234,795.672139497094,740.5064649204879,795.4501467270917
1731653394.944214,719.6398935643135,798.3960365120735,753.5885673259995,784.6359051364983
1731653394.9476128,699.2188740488984,800.6580724223808,751.6123021270844,766.9714660435541
1731653394.9481144,690.3072182439046,801.2597602924877,738.6442481769138,750.4292472705686
1731653394.9520147,700.7275826385932,799.9325528646611,729.4192295853724,743.3285118842198
1731653394.954555,725.1254248104369,797.2554544484111,739.7364087375342,748.6796926720698
1731653394.955915,748.19394588536,794.3161331763048,773.9872484848496,761.7598766217324
1731653394.9598153,756.1060565000215,792.356802757489,820.1824410648962,773.2968104520993
1731653394.9637156,747.272440094501,792.406916935666,857.6764999940924,776.2735093490712
1731653394.9664662,733.6093315200533,794.8713767853368,871.7730501544441,771.0791963252491
1731653394.9676158,730.9604335021156,799.2290514237491,863.1240528679126,764.6715897419041
1731653394.9701586,746.1504603458444,804.0965967631097,844.7299099843718,764.256006232436
1731653394.971516,771.0580185832173,807.749999865186,830.4139773860888,770.7355380027693
1731653394.9716551,788.6308751777099,808.8998666310665,825.1133673868744,777.5817314689
1731653394.9754164,786.2284703537683,807.3182676399093,824.0636953707998,776.2256820454738
1731653394.9793167,765.6743824810449,803.9567212910856,819.5444299843847,763.4160638022684
1731653394.983217,741.9211688945221,800.4801216317577,808.4098447707588,744.2496362372593
1731653394.9853194,731.4584275318107,798.5037320801466,794.7318260271005,728.390725144578
1731653394.9857624,739.9591208284526,798.9793926636418,786.7463109348716,722.929373243209
1731653394.9871173,759.0632835729169,801.9917147131213,791.158206349955,727.9840612024044
1731653394.9910178,774.3568689077842,806.8854663491188,808.5841256451661,738.293218906875
1731653394.994918,777.3595015039526,812.490397984875,832.4731098451667,748.5995020771113
1731653394.9988184,771.5125491125266,817.3457707617879,851.8677329829713,757.6856414984752
1731653395.001366,767.7654349095958,820.0151900536453,856.5997805728058,767.8269355979608
1731653395.0027187,774.1950028299159,819.5383586226529,842.3590633420445,780.9220388001486
1731653395.0041728,788.6507686037198,815.825092312434,813.0882549055095,795.3374344325872
1731653395.0065515,800.3576893249048,809.6958486248078,779.4353093431891,806.365285818176
1731653395.006619,798.827868339687,802.5177851023129,753.838876826141,809.723147691814
1731653395.0105193,782.6107538391053,795.7266998796415,744.4361890011031,804.984517924083
1731653395.0144196,760.7154913126016,790.5406272346863,750.882221930814,796.1031452161483
1731653395.0169697,745.5361761609818,787.8480479749719,764.7350449754414,788.6519190331521
1731653395.0183198,743.0896635828946,788.0459441827959,774.7360750563577,785.9497153282173
1731653395.02222,748.700044158329,790.8006660985459,773.9505803331124,787.022884426738
1731653395.023026,751.7960786459494,795.0048014862525,763.9427386184491,787.8535901506459
1731653395.0261204,745.7572434367984,799.1406897099057,753.0202422956784,784.7858947475682
1731653395.0300207,734.3224883639132,801.8827408535464,749.9785844780453,777.3416617839812
1731653395.0325732,728.8908184485954,802.5545784925015,757.9889049174507,768.3509377193146
1731653395.033921,738.7742334596409,801.2321019566006,772.6825521669417,761.6035157117168
1731653395.0378213,762.5152135943425,798.5729910517434,785.0906169253188,759.1416474579303
1731653395.0414484,787.6603096740455,795.5371834734392,787.0420471145072,760.2836243033443
1731653395.0417216,799.5762452233492,793.0853252241384,775.8400698464898,762.782286924152
1731653395.0418792,792.5988616913323,791.9129073753118,755.9979137928257,764.8033946135165
1731653395.045622,774.7622649286121,792.3053786242331,737.2039363475084,766.0120262228658
1731653395.048177,762.1081126827597,794.1459253402494,729.1796500566627,767.055457660952
1731653395.0495224,766.5742336711403,796.993354832581,735.9056211084812,768.1459234133699
1731653395.0534227,786.6832385764387,800.1534242792549,752.9209119141444,768.1504350114614
1731653395.057323,808.4707412045469,802.8159415030666,770.1830985947933,765.1293206096183
1731653395.0607326,816.2600463707703,804.3785836963631,779.0482339830597,758.0664747051756
1731653395.0612233,804.974027782409,804.8546190393678,778.2689291269204,748.5093423102247
1731653395.0637803,784.2055762718528,804.9933120813524,774.2633302454367,740.6952402613047
1731653395.0651236,770.7370321915494,805.8435870600142,775.5164974622801,739.6151563410941
1731653395.0690238,775.4454088935626,807.9942982177968,785.8264745359065,747.9062275019498
1731653395.072924,794.9795929677884,811.109478675081,801.8766254943457,763.5869864673911
1731653395.0763447,814.6753866908462,814.1571792068163,816.7639070688215,780.517269709899
1731653395.0768244,820.2128388516675,816.0991898390794,826.0805152371837,791.8120754940815
1731653395.0793843,808.7546655444818,816.4541292094844,831.180125768583,794.2139968006206
1731653395.0795858,790.8963297522058,815.4037002357608,836.9405585884938,790.3416058795995
1731653395.0807247,781.996783164349,813.5786234272272,846.3247039593256,786.9058281757033
1731653395.084625,789.7346681928431,811.7811612676873,856.9389938257364,789.8557324970736
1731653395.0885253,807.78013895403,810.6862653286017,862.9129471701161,799.9043362289411
1731653395.0924256,820.7987670821176,810.4754593245852,860.4330189244254,811.9157102096996
1731653395.094988,816.9694742518292,810.5904812423395,851.8343396112458,818.8849064390357
1731653395.096326,797.950991278834,809.9726248839438,844.5118396795181,817.6621409420128
1731653395.098439,778.1022286801203,807.8561083981289,845.6543562288563,811.9830568029665
1731653395.1002262,773.4415245577693,804.5786745431743,857.3875020136187,810.1847334314152
1731653395.1041265,789.149755995528,801.6266500514441,876.1483869194533,819.0052404895173
1731653395.108027,815.4979437426628,800.6589468487327,896.0584056213017,838.0683303881347
1731653395.1105917,835.2027683794854,802.1809366982078,912.7256761022109,859.4438136855213
1731653395.111241,836.2172838552001,804.996038247525,924.336446209923,872.9412195728155
1731653395.1119273,820.0589621362797,807.0230412476138,930.2260385240545,873.2829005048852
1731653395.1158276,799.6672610044463,806.9033170507603,929.5849866540938,863.6453039506418
1731653395.1172924,788.9954246571037,805.047499805111,921.9932476722695,852.7924598100193
1731653395.1197278,792.6630556419515,803.1587547303916,908.579006439234,848.1061244473547
1731653395.123628,803.5654123581664,802.5924212863769,891.5086975220121,850.1111421970866
1731653395.1261952,809.8629691548853,803.0213280525335,871.7182524514438,852.8245574865233
1731653395.1275284,805.3070735157921,802.6888474366888,847.632238197049,849.4420636470088
1731653395.1314287,794.3292741349959,800.1091552939843,817.3325863689865,838.5280431479581
1731653395.135329,787.8530164795517,795.6945864365554,782.9424226478673,825.5802233536375
1731653395.1361456,793.634253148167,791.7795133417869,752.7831571044552,818.7474829135888
1731653395.1392293,809.452273583207,790.9240812305299,738.0182417375297,822.2901570279365
1731653395.141799,824.8786483112033,793.9130387609796,745.3832650543187,833.1575694259376
1731653395.1431296,830.0229904644178,799.1179290985156,771.5429165749986,843.4373802989102
1731653395.146138,823.8466170679618,803.7009050342147,803.785869531288,846.5876633970674
1731653395.14703,815.071789601019,805.6336567858815,826.9575455157584,842.2580051367788
1731653395.1509302,814.87849481445,804.9654447845919,831.9466897805667,835.7385408601332
1731653395.1548305,827.3988047926081,803.5084134848806,820.168493439505,832.6989873825817
1731653395.1549988,845.9481905761368,803.3527336266008,801.4870098492067,833.969250159839
1731653395.1574025,858.3027316537978,805.3646024946089,787.3935349357737,835.0014761678115
1731653395.1587307,856.7707353832855,808.6410482718067,784.0743008274841,830.3424679442617
1731653395.1626313,844.5736241850775,811.133431464447,789.6735998237018,818.8935621648689
1731653395.1665316,832.9763794514685,810.9252182289274,797.0417483893337,805.2174838586568
1731653395.170432,831.52087327957,807.363833114351,799.6682107874702,796.017585911138
1731653395.1730063,839.8027476558719,801.4475587776759,796.692377926126,795.2442554508195
1731653395.1738522,847.9747236647266,795.3468565476259,793.7721439363894,801.9974581939781
1731653395.174332,845.5812243646235,791.3901690131418,799.2554576594152,812.3369019823923
1731653395.1782324,831.149733035408,791.0467813505405,817.9518368004052,822.6935510106882
1731653395.1810346,814.3633647265507,794.3710873258709,846.5650320099128,831.8696399728087
1731653395.1821327,808.875118322969,800.1359691076924,874.4318712793882,840.5462652012093
1731653395.186033,821.4857787424489,806.5606444429043,889.9993546841915,849.450426644325
1731653395.1886098,846.3014986808508,812.2097903441538,888.9069558502462,857.9925266114425
1731653395.1899333,868.545994834986,816.4974143986112,877.4064514763984,864.3033365041913
1731653395.1927054,875.1902041725019,819.4815131493775,867.9614377649951,866.3757344238159
1731653395.1938336,864.2706928424162,821.2009540743243,870.2397263987776,863.3735054191808
1731653395.197734,845.7083597104621,821.2145750636286,884.6086885817708,856.2211401016868
1731653395.2016342,832.9939274387133,818.8181726001939,902.9347059159664,847.0762641479567
1731653395.2042136,832.3400749024474,813.762393211024,915.2281869604057,837.9794137214739
1731653395.2055345,838.0399024161869,806.8035648828192,916.2928447386804,829.5859417533261
1731653395.2094347,837.8240405072115,799.5640496124456,907.5428169406196,820.9825570300289
1731653395.2115586,823.800230553805,793.7779633816401,893.8152359020168,810.9168640752796
1731653395.213335,799.8571243811232,790.4650423481208,878.8330547634407,799.6317578923674
1731653395.2159307,779.2243977592352,789.5560907115962,863.1388392474779,789.7510278658739
1731653395.217235,773.9883987828772,790.1285595275054,845.5356571621734,785.1116534355232
1731653395.2198172,785.1427887449171,791.0430275076958,826.0368220914163,788.037007790507
1731653395.221136,801.558835802282,791.5929660203418,807.289989895179,797.1184217579818
1731653395.225036,808.999950713235,791.8046063827646,792.9510431393204,807.5932236392804
1731653395.2289364,801.789377633621,792.225547000355,784.3365808654753,814.4523088549025
1731653395.230412,787.2517053085345,793.3652860045235,778.5983163929172,815.9425006326499
1731653395.2328367,779.0976548696316,795.2213470311702,770.7695988652717,814.4743486161605
1731653395.2354207,785.4910151143488,797.2933729712433,758.6456892923318,814.0437193031596
1731653395.236737,802.1477907641623,799.0870592807313,746.3739899857078,816.4175549220388
1731653395.2406373,816.2940176215056,800.636017886898,742.9554684464101,819.5432218229067
1731653395.2445376,817.7674662509155,802.4916106237789,755.8962107295786,819.6226487967003
1731653395.248438,807.5454763754461,805.1061480394261,784.6474304931395,814.8990968898011
1731653395.2492652,796.5781363944263,808.1539827225308,819.1561777805629,807.6567785219826
1731653395.2508276,796.2551117873115,810.4791211156507,845.0690829672344,802.6029501538134
1731653395.2510245,808.6689373000598,810.8367474159925,852.1670154817523,803.0153358142013
1731653395.2523382,824.6862418182211,808.860982526366,840.397013904868,807.9396249801907
1731653395.2562385,831.3579043357261,805.4223226221335,819.6602134095614,812.8537256197717
1731653395.2601388,822.6911078961384,802.0329596068045,803.6908795596047,813.3982387510003
1731653395.264039,805.0321023413674,799.8214857924902,802.1247332773358,809.2261210718174
1731653395.2666285,792.5099601279423,799.008869589429,815.7784747120911,804.7723508142246
1731653395.267939,796.0266379243038,799.2990418039171,837.6208515045913,806.1056368228927
1731653395.2681184,814.6238716214004,800.6289762985349,857.9025204824313,816.1778370551062
1731653395.2718396,836.1545144982227,803.355744364286,869.5806671486972,832.148969491643
1731653395.27574,846.5926699929706,807.6387610265293,870.9223906127285,846.9007294508001
1731653395.2796404,840.4199112002008,812.7468670189542,864.6621071730186,853.6347319970861
1731653395.2822318,823.9605575284361,817.1562673658909,855.1686960912157,850.1449025709961
1731653395.2835407,809.4952786267851,819.4454822561679,845.756379649414,839.7093386236867
1731653395.2857242,805.341948377638,819.1283955599272,837.7032674481092,828.1903633305596
1731653395.2869718,809.9544000813778,816.6617430419489,831.1930690113323,819.7640656811017
1731653395.287441,814.5092474428532,812.7686264617093,826.9457125004762,814.5807246379575
1731653395.2913413,811.5149042522041,807.9081545102347,826.7320902502194,809.9771561963922
1731653395.2952416,802.0860943311795,802.462314923884,831.925953849158,803.9461183298334
1731653395.2978354,795.5100622445037,797.3220098289527,841.2003401460478,797.7377384912774
1731653395.299142,801.0832039607453,794.0091502940589,849.7801688291692,795.27581794591
1731653395.3030422,818.9823448769365,793.8755305434265,851.7944945655918,799.875777687529
1731653395.305825,838.2744532146173,796.9004459760465,844.4523113088849,811.0922795929373
1731653395.3069425,844.439688269334,801.1941392343026,830.4533890437082,824.3553042782662
1731653395.3108428,830.6614653717777,803.8784748831046,816.0041215846383,833.66667427536
1731653395.3134391,803.7067414804494,802.8861214420073,805.825169630787,835.2329123286056
1731653395.314743,779.5169313663893,798.3800638746945,799.6878492229072,829.429003157191
1731653395.318643,771.9305086199707,792.7065724914055,793.6256889517633,819.9821575044676
1731653395.3206208,783.2806454325155,788.9114986137339,784.2318499180336,811.2958490873871
1731653395.3225436,803.8211740679745,788.9279717948248,771.5271387520354,805.9102813708296
1731653395.3246782,819.8578936832705,792.6699682317147,757.9162502694089,803.6788141420019
1731653395.326444,823.8649884600974,798.4069098271352,745.217645631953,802.8195842528587
1731653395.329043,818.751205789063,803.8252703653235,733.5680658692161,801.657071656273
1731653395.3303442,813.4615863771876,806.9775128165927,723.3497038536266,799.6074081972438
1731653395.3342447,814.2010038843082,806.8312309791011,717.3914924632077,796.9314843420734
1731653395.338145,818.964442428782,803.5591298859893,720.0363249809915,794.0023118628542
1731653395.3420453,819.9001267538814,798.5670296871251,733.0786445430851,791.0895289572459
1731653395.3435316,811.0840911821008,793.979190354632,752.3931922922948,788.8011560325045
1731653395.3446465,794.6743619346805,791.5617914391185,769.1022292594794,788.4039764261842
1731653395.3459456,780.0350244415807,791.7335527313243,775.123643437369,791.3010075748377
1731653395.349846,776.5382975013331,793.4989732897512,768.7803550668239,797.8517773956896
1731653395.3537462,785.9848090867297,795.3756742073189,755.7987955958862,806.4750372482005
1731653395.3555171,800.7910085303548,796.4453036593743,744.7991175579168,813.8737434096671
1731653395.3576465,809.477036708689,796.6737923182525,740.9350779270447,816.4883649045622
1731653395.36025,805.3340013469307,796.5137613243963,742.7944146691221,812.5474463465157
1731653395.3615468,791.6685226661136,796.383445359915,744.8698245757998,803.6546330523113
1731653395.3623848,779.4502016089574,796.4377285807525,743.2529264977627,794.7790915708484
1731653395.365447,778.8406851456534,796.6256731878398,739.5683469177404,792.0677309737756
1731653395.369347,790.9766146702993,796.8410530690533,739.7370299410709,799.287198942393
1731653395.3732476,806.6888838064007,797.0206934185837,748.6218273563153,815.1812347148539
1731653395.3758538,813.727901254363,797.1595442231642,765.1663555738313,833.9841279322869
1731653395.377148,807.0642139507488,797.2807451117602,782.2208014714089,849.093426293905
1731653395.3810482,793.759627730875,797.4051137180928,791.2766189757407,857.1744410552343
1731653395.381238,787.8885557828891,797.5394719946332,788.3393179994866,859.4841047454628
1731653395.3849485,799.1147680896286,797.680370495898,776.4945447814997,859.6851480616492
1731653395.388849,824.0004781805263,797.822106278227,763.580363460451,860.4966088243162
1731653395.3904138,847.2826117935361,797.9615771789317,757.0725024251415,862.1490375119436
1731653395.391457,852.6407864969709,798.0987433537665,759.9016870215034,863.3716098516581
1731653395.3927493,834.9684187654257,798.2349122751643,769.6393481231632,863.1902315145319
1731653395.3966496,804.644407327519,798.3711597276729,780.7765162574028,861.6987472509437
1731653395.4000914,780.1537083178513,798.5077960024881,787.8912499823182,859.621913099785
1731653395.40055,774.4781139409283,798.6446153095301,787.5949701835528,857.5977349920657
1731653395.4044502,785.9137534891278,798.7813264928527,778.8007499587784,855.8590360864132
1731653395.407061,800.6824647927778,798.9177924826586,762.3910633682838,854.3290201256564
1731653395.4083505,805.0370958549669,799.0540366245434,741.3220627593234,852.8490638404729
1731653395.4122508,796.5753190562858,799.1901425686885,720.7949087255611,851.3255617056569
1731653395.416151,785.3215953828308,799.3261696852243,707.1900177356539,849.7517028642183
1731653395.4189446,784.1872111705458,799.4621309129811,705.422061092298,848.1623646124608
1731653395.420051,797.5083203209128,799.59801968441,716.30864518203,846.5885979964414
1731653395.4226646,817.4724940868282,799.7338500693622,736.0878402876344,845.0404277813772
1731653395.4239516,830.9404528447881,799.8696747162397,758.5216851171015,843.51258639453
1731653395.4253104,830.3719312961972,800.005555956959,777.8914796749676,841.9965281895595
1731653395.427852,819.6801186086591,800.1414924850691,790.8369723048033,840.4876379061326
1731653395.4317522,810.5644432934557,800.2773541003364,796.446397599607,838.9858694852746
1731653395.4356525,812.7356949792875,800.4129242717386,795.4514479932899,837.4931614090231
1731653395.4377978,826.0909656893994,800.5481248929239,789.525975817064,836.0110813380994
1731653395.4382684,840.9754785540108,800.6833352104015,780.9490618895147,834.5400423114561
1731653395.4395528,846.0175915706703,800.8194667192612,772.371051890114,833.0796870989984
1731653395.4434533,837.005520334118,800.9573630952311,766.48320258127,831.6295369954399
1731653395.4473536,819.6556933016149,801.0965032316183,765.5907972426907,830.189346825869
1731653395.451254,804.3399447907443,801.2339685162262,771.0457780780052,828.7591022187121
1731653395.453872,797.5112250096417,801.3655259253624,782.4430980121456,827.3388516167067
1731653395.4551542,797.068676065606,801.4900592729117,796.877655105415,825.9285699556747
1731653395.4566512,795.273444095149,801.6153497733812,809.2079425898171,824.5281476627986
1731653395.4590545,786.415237689038,801.75859749576,814.1947888310893,823.1374954016885
1731653395.460207,772.645324887703,801.9339641961792,809.942871106281,821.7566744752944
1731653395.4629548,763.037021393478,802.1280755664762,800.2419627774301,820.3859063149022
1731653395.466855,766.4262827292589,802.2832634338051,793.2460578974687,819.0253334118381
1731653395.4694755,783.6684685400476,802.3236083891725,796.3696303804078,817.6745831925399
1731653395.470755,805.7665578174945,802.2440316140943,810.6462070421171,816.3325146099273
1731653395.4746556,819.9890355614193,802.2206539006796,829.0153850642685,814.9977495856313
1731653395.4755044,819.5992501478961,802.6227976295311,840.5038024474522,813.6702479282831
1731653395.478556,809.3405969257542,803.817448329292,837.6975610016483,812.353016262008
1731653395.4824562,801.7293470895454,805.8381274185579,821.9950522402576,811.0516454411248
1731653395.4850793,806.6856040214767,808.193485929509,802.5238746737141,809.769471018691
1731653395.4863565,822.9157212766055,810.0343854510684,789.4287303322227,808.4995877088191
1731653395.4902568,838.408602912059,810.6127120934588,786.6361300059225,807.2211537766502
1731653395.4941573,839.9613656370205,809.7526337130985,789.574155877133,805.9110489116828
1731653395.4943576,824.0731781193897,808.0242530670913,789.4087964634874,804.5743079533362
1731653395.4951034,800.3071107452342,806.4359871197893,780.3807727928846,803.2740045615711
1731653395.4980574,784.3007113448878,805.7839808520306,764.6806953457324,802.1164402991335
1731653395.5006833,785.917037963646,806.1430582199733,751.3974096608403,801.1539629452018
1731653395.501958,801.9256491998411,806.9521965900341,750.5225328739364,800.2376709780177
1731653395.5058582,819.0821639899187,807.640967819034,766.3839190149811,798.9684243846147
1731653395.5097585,825.1850666155365,808.2236700191154,794.9086906719746,796.9501687172155
1731653395.513211,819.0398920625372,809.2977931074848,826.1062246636442,794.3856824999467
1731653395.5136588,810.8547888058864,811.427246437847,849.5944726009222,792.6255201804565
1731653395.5162866,812.5302695059124,814.4418090340422,859.469359314077,793.8795000785676
1731653395.5175593,826.209205237386,817.262293251173,856.0459087967215,799.6128261893168
1731653395.521459,841.3346779405347,818.4492552762243,844.5095685637391,808.559938981938
1731653395.5253596,843.1431368104617,817.1167520638849,832.1892456832843,816.5266933650532
1731653395.52926,825.3585145575515,813.555229124338,826.0250224942044,819.0113276180292
1731653395.53,796.1274517552317,809.1027539682277,830.5829057175832,814.6546175709013
1731653395.5318904,772.2228613601078,805.3721534858325,846.2431039576554,806.2663292860117
1731653395.5320642,766.5587244189906,803.4172631799822,867.8571455549946,798.4187092998089
1731653395.5331602,779.3062621042454,803.3890846872824,885.405963516736,793.7932560675055
1731653395.5370605,799.3688376911591,804.7640834491364,888.0263033122193,791.3964747070054
1731653395.5409608,814.0140538342984,806.790767708194,870.316738564131,787.9550764643112
1731653395.5448613,817.8082677667525,808.7571472896784,836.9587935347311,781.1245413529513
1731653395.547494,813.8078492781304,809.9845422381984,801.6264010313423,771.763469096569
1731653395.5487614,808.1992693331093,809.785288962399,779.8833883332169,763.4077164687815
1731653395.5509174,804.925795360673,807.6785517226178,780.4061384550646,759.4553370550547
1731653395.5526617,804.3673637236354,803.8596131237085,800.3745164574406,760.4888547513117
1731653395.556562,805.039297191614,799.5108941566101,827.9775899994683,764.0009597180895
1731653395.5604625,805.552011332933,796.4694655353726,850.0779734977571,766.7094547866453
1731653395.5630977,805.4148881126213,796.2377664300698,859.8148499259028,767.4700077106698
1731653395.5643628,804.8269105546591,798.9859544247539,859.379966344814,768.352309965439
1731653395.5648966,804.1580021015659,803.373730036854,856.7625240323467,772.9861658677055
1731653395.5682633,803.6200042275975,807.4288992026977,859.3183541377454,783.4455958781899
1731653395.5697708,803.2242629352208,809.8351207334714,868.8065925463575,798.0651396732642
1731653395.572163,802.8887501605824,810.6222426127272,881.0186888799533,811.9593392022845
1731653395.5760636,802.542474927336,810.7754097008564,889.6264568427159,820.1143562077717
1731653395.5787013,802.1634735725536,811.2084133853526,890.9972133773491,820.9663709499313
1731653395.579964,801.7645073007221,812.0278403717222,886.4320383592158,817.7617316135852
1731653395.5838642,801.3652168795744,812.6425648418848,880.5480473344705,816.4209209217406
1731653395.5877645,800.9758533741305,812.4636636759346,877.4420441298356,821.2954904378261
1731653395.588624,800.5961506232223,811.4706152728919,877.6576540443322,832.0128520297142
1731653395.5916648,800.2214141123067,810.1573982132834,878.0936518720337,843.871803307201
1731653395.594305,799.8479123246616,808.9978655409869,874.7827134114194,851.4311150566125
1731653395.5955653,799.4746009239896,807.9855787436294,866.452281170803,852.3637897428353
1731653395.5994654,799.1021837245495,806.6881051867917,856.1234043130798,848.5101399817054
1731653395.5997932,798.7315945369589,804.7625094227984,849.2529189948485,843.4915239328069
1731653395.6033657,798.3631615642416,802.4457077571234,849.5330147807904,839.2175139335993
1731653395.607266,797.9966044604105,800.5344227667651,855.5405661524059,834.5614704574433
1731653395.6074772,797.631463153985,799.8165389125821,861.0460035386769,827.4412380759511
1731653395.6099086,797.2675392886848,800.422093293461,859.0422740727174,818.2315448879251
1731653395.6111662,796.9050775936421,801.6610472666189,846.7028935641539,810.9489898041222
1731653395.6150668,796.5445205595531,802.4962719294044,827.7496048169542,810.5954288918738
1731653395.6189673,796.1858314552262,802.2435662098515,810.4557945319984,818.7399792867199
1731653395.622867,795.8277718029103,800.922315474245,802.4729402092185,831.3194763547664
1731653395.6255124,795.4680149434331,799.0506459934411,806.0198532692091,840.8501046860173
1731653395.6263306,795.1049634774586,797.1924560527153,816.9792383188362,841.4619025146291
1731653395.6267676,794.7408740394077,795.6979402158494,828.5443684660906,832.8735604198623
1731653395.630668,794.3835020481486,794.7581758588664,836.2314021058415,820.420582603506
1731653395.6345682,794.0419353775312,794.5359298167057,839.9184634289782,811.3127274977177
1731653395.6346896,793.7149746882392,795.1226167911688,841.5896798429928,809.8656770434026
1731653395.6384685,793.3790628045859,796.3393503398134,841.7506189065759,814.9099779503905
1731653395.641116,792.9927066251637,797.608817853066,838.546851240332,820.9754968273382
1731653395.6423688,792.5328393851307,798.0901023465747,830.4339393950435,822.3239163949012
1731653395.6451838,792.0526387104031,797.079562707254,819.3529676290549,816.9851080149626
1731653395.646269,791.7052309503794,794.4924742959108,810.7701131588306,807.9336479435899
1731653395.6501694,791.6536238820094,791.1292731615591,809.9840677215199,800.6203427633699
1731653395.6540697,791.8470386943662,788.4589488047649,817.6812650619098,798.834153656423
1731653395.6567197,791.8120587834153,787.8973003439962,828.6324419628907,802.1061057073774
1731653395.65797,790.7833904539932,789.9505653133484,835.0410410997678,806.5183602181501
1731653395.6618702,788.4393778167444,793.8199103949822,832.3485326001623,808.0290038144896
1731653395.664037,785.989811201548,797.8191112706769,823.1176065915142,805.5799826655866
1731653395.6657703,786.5467031230402,800.3669444653841,815.680142134717,801.6453497855265
1731653395.6695862,793.4253321280916,800.8922640122587,818.0015719483184,799.9484694374028
1731653395.6696708,806.5226233884177,800.1004989576093,831.0540183748835,802.2302989715872
1731653395.6723232,820.0423456610191,799.5190223927965,846.8695076537049,806.7202152657168
1731653395.673571,825.6879021293714,800.6144533145001,853.2547613619561,809.7049966834061
1731653395.6774716,820.2259511635822,803.8788573842743,842.0465872565743,808.9834300363112
1731653395.681372,809.8055421004699,808.2888253199711,814.8874380099813,806.0748277945723
1731653395.6828904,805.1460056570927,811.5445676993786,782.372244179452,804.859279633555
1731653395.6852722,811.2976691575458,811.25579380588,757.5027043205216,807.6248260107895
1731653395.687927,822.0253260163347,806.5788753074655,748.3373846467504,812.2630883131654
1731653395.6891725,824.7536664705939,799.1551123207964,754.5555964332813,813.5861396565215
1731653395.6930728,811.9088236885748,792.3825300748435,769.2165556976529,807.8755114690654
1731653395.696973,788.4302801930256,789.2944026209273,783.4823540912863,796.5855939793591
1731653395.7008734,768.6780821128026,790.6182844493397,790.8834766730623,785.7784385951109
1731653395.7017436,765.2873870004605,794.5813348409268,789.0134335284368,781.650119710088
1731653395.7035306,779.2102368690526,798.5432739041777,778.8710011345529,785.8195603570744
1731653395.7044828,798.9084810612267,800.9685037153829,763.5284876450993,794.1429947255834
1731653395.7047737,809.2329064759912,802.1011934197251,747.3653035692175,799.9735614838327
1731653395.708674,803.1138022078508,803.0324167552926,735.5381158147178,799.3730919224398
1731653395.7125742,787.098599216835,804.2935041571417,732.6295720984523,794.2295510644886
1731653395.7164743,776.3080012934599,805.3471945725015,740.5156925969112,790.7000264144152
1731653395.7191343,782.4334018646797,805.2999370021955,757.0586276428145,794.0497719319391
1731653395.7203748,804.0980783143794,803.942215741366,777.0978338126915,804.0499458811353
1731653395.7205968,827.4749981240894,802.0145938669053,795.2269567749278,814.8575315216283
1731653395.724275,837.0236080241964,800.5009477409214,808.2293820991306,819.6268423326208
1731653395.7281756,827.8601172033214,799.7655642068138,815.6218154386786,816.090892157435
1731653395.732076,809.7097215686591,799.4454093841997,818.6819513677622,808.5422294465026
1731653395.734738,799.1674819103503,799.1604335964208,819.3367307237299,804.6635830032563
1731653395.7359762,806.4839246531527,799.2321751235392,819.5464717771868,809.7593811014375
1731653395.7393794,827.3998152327795,800.5729867926758,820.7319541988769,822.7433835549331
1731653395.7394502,846.3855241542404,803.7239086120322,822.9051043689714,836.6867864795488
1731653395.7398765,848.634584302961,807.8945143150311,824.2066690483801,843.413533446751
1731653395.7437768,831.3845149203983,810.9828295857553,821.8976103454984,838.9271323100551
1731653395.747677,805.6816702357057,810.7873717258956,814.6308334576357,825.9317673209227
1731653395.7503417,787.2627910391517,806.6006194186182,804.1744173307835,811.6791188749442
1731653395.7515774,784.0803355791069,799.9667851214217,794.6803977232088,802.732219689568
1731653395.7554777,790.8535488827092,793.9592516295592,789.6465696870029,800.6249949633742
1731653395.7583034,795.0562681353077,791.4211667062021,789.0351273520577,801.697363442519
1731653395.759378,788.8303297154953,793.3466311777529,789.1204486974001,800.9273657937075
1731653395.7632782,776.2205485831397,798.4340652442488,785.2550337394172,796.3215758914687
1731653395.7659452,769.4641082645609,804.0118098023839,775.2291003690536,790.2506746013781
1731653395.7671783,777.8267950975173,807.6634979053185,760.6643319567326,786.9961973595181
1731653395.7710788,798.8562949998956,808.5179077213219,745.8173415772361,788.9249919924517
1731653395.7742758,819.527454957771,807.4587059286703,735.1299045312005,794.4749745778272
1731653395.774979,826.1747312767917,806.2259622620381,731.2344253332639,799.328148811262
1731653395.7771566,814.9395830574674,806.0931090598773,734.1928823932647,799.6358762706129
1731653395.7788794,794.4009787037298,807.0591058562421,741.7868585229461,794.8260180122542
1731653395.781549,778.5848575327166,808.0815974500211,750.435908820555,787.9612152255584
1731653395.7827797,776.1566229307401,808.0612174008114,756.5623857895743,783.3567478898716
1731653395.7866802,784.4324759781783,806.7287660454981,758.2545391994661,783.2075449092249
1731653395.7905805,792.8662013456104,804.7792603597941,756.5939001041094,785.9769598514652
1731653395.7944808,792.9555396770224,803.3233341377498,755.530456102581,788.1381015392185
1731653395.79601,786.1329652806282,803.229286131932,759.6464349858527,787.9490204068372
1731653395.7971523,782.7197631350399,804.7585255223923,770.7516661870791,787.7421757889402
1731653395.798381,792.5348493471926,807.4364978957481,785.7839344576392,792.200782269048
1731653395.8022814,815.0949893832299,810.0226131539061,798.1804783497937,803.830228855835
1731653395.8061817,838.0894966411112,810.7765542870227,802.35218849506,819.7655281821988
1731653395.8091724,846.0362919425382,808.3117778212687,798.060101425689,833.0909743898999
1731653395.810082,832.3945446978297,802.7736218169251,791.1006239334677,837.7720662755241
1731653395.8127563,805.2753874650094,796.3869373023261,789.4858239968517,833.0474275271368
1731653395.8139822,781.8978754298796,792.519382571315,797.9509961457336,823.7018635641527
1731653395.8148632,775.9450944482852,793.5438225577883,814.9306865293416,816.2574748625287
1731653395.8178823,787.7267006372216,799.0343799901098,834.0897104153556,814.3756517546045
1731653395.8217828,804.9398898371828,805.8887531597879,848.962360708913,817.0229381104252
1731653395.825683,813.3535150124047,810.5013187585357,857.0632875884158,820.395843825026
1731653395.8283598,808.5966673426839,811.3119073381226,860.4547016707194,821.5647953922146
1731653395.8295834,799.2559903821498,809.6397655305685,862.57636612024,820.6973273925045
1731653395.8334837,798.8100295982676,808.1881207273447,864.1355866585434,820.2571849366698
1731653395.8337164,813.4090524125503,808.6347104631471,861.7561493862685,822.2961686128351
1731653395.837384,835.908504400091,810.4074829199386,850.9069850522633,826.4565357281767
1731653395.8412845,851.0830781983319,811.5225101197151,830.8466222360348,830.3523176212237
1731653395.8439636,847.6017095318667,810.5022913075961,807.1991016051769,831.6874281748165
1731653395.844069,827.0555929866283,807.6260405090219,789.503909779961,830.0622218862377
1731653395.8451848,803.0118708149118,804.6014432397126,785.3297046023139,827.046347028356
1731653395.849085,791.0009271739625,803.1894861549495,795.5024155195724,824.7941167068642
1731653395.8525698,797.1708826291082,804.012556017334,814.0444467787015,824.5144182425056
1731653395.8529854,814.1302141658949,806.3202998309422,832.5273038331159,825.8264053461687
1731653395.8568857,826.970131777211,808.5773742996586,845.1692128608652,827.1631464161989
1731653395.8595672,824.7708682500808,809.2742172579723,850.8961202088793,826.8089008063453
1731653395.860786,808.7208544851535,807.5427167695462,851.5040144612038,823.9686266446779
1731653395.8646865,790.5890407096479,803.4931789730772,848.3316230452392,819.2192081111882
1731653395.8685863,782.9238967060421,798.2528125484337,840.7680919086811,813.9433249099194
1731653395.871423,789.0436003966529,793.6029862590688,827.8956294064395,809.1373842299957
1731653395.8724868,801.015666792396,791.2287342154308,811.4418085815211,804.7474330601696
1731653395.8751707,807.0829324925813,791.9037773269505,796.7387428275242,800.3688390333757
1731653395.8763871,802.015785133218,795.0794787952997,789.9999896171735,796.6948704375259
1731653395.8789656,791.4840759718645,799.1220980938809,793.687032923533,795.9822281192373
1731653395.8802874,786.770585147681,802.055571364728,803.905787068435,800.4724749937511
1731653395.8841877,794.4738051589779,802.4393476524451,812.4210786283296,809.7924648190085
1731653395.888088,810.1584872558675,800.0216928836878,812.0412697076761,819.8251813524698
1731653395.8902762,821.5777631598462,795.9226178131632,801.2978862269432,824.7478360703807
1731653395.8907745,818.9676283326744,792.226601276931,785.0263527787947,821.3012233469137
1731653395.8919885,803.8224681667692,791.0550881141794,770.7926502496376,812.0729553856879
1731653395.8958886,788.5709850540354,793.476718153806,764.0841258758019,804.7389526543644
1731653395.899789,786.9476734488434,798.8395888770353,765.5975658691198,807.0459565645394
1731653395.9036894,802.6595340978583,804.9995035272435,772.0013795304286,820.8407311276984
1731653395.9063785,825.7035588948823,809.4062099128394,779.0114841108547,839.7761805086338
1731653395.9075897,839.6975863428258,810.4335888390748,784.2855967676417,852.9917748163707
1731653395.9091296,834.6224982409258,808.1709427618838,788.1997450521958,852.5653586772673
1731653395.91149,814.8413334079803,804.2594940651871,792.3822081926232,839.3796373826684
1731653395.913862,795.9022361589945,800.9401285573023,797.5243504372538,822.8843492695341
1731653395.9153905,792.4903748470658,799.8658699264101,802.3212525932656,814.5895980389479
1731653395.9192903,806.9442707308123,801.2701120044145,804.3466714288597,819.7972725749695
1731653395.9219818,827.4634680192248,803.8602484689475,802.1410715489063,833.6097150502146
1731653395.9231908,837.5939129719346,805.4805516037725,796.8613093342898,844.394958575164
1731653395.9270911,829.5378393899515,804.2725709627924,792.0351726532226,842.4736174373867
1731653395.9279828,810.548429928625,799.8225079793962,791.1802592832289,827.6635267240814
1731653395.9309914,797.0831804874688,793.6828755895134,794.7492419757051,809.7672687744333
1731653395.9348917,801.3218053816089,788.8101270010505,799.0072552948255,801.2601420821862
1731653395.9375854,820.9583285658972,787.9921126082062,798.6343059077496,807.6564955304949
1731653395.938792,840.5909698069098,792.0935797956046,791.7519081525567,823.2209960094118
1731653395.9426925,843.6675405405082,799.3372754525215,783.028001641715,835.593134258319
1731653395.9465926,825.463973153405,806.2892793495816,781.1375407476856,835.5653500336936
1731653395.946836,796.8085852835279,809.9440090267319,791.7448672488096,823.9277739212205
1731653395.9487586,775.7025561958488,809.3876139488017,811.9268977723723,809.863975632782
1731653395.9504929,773.5804435828546,805.880522870954,831.3719718928601,802.6583656318836
1731653395.9531891,787.1045593638576,801.546292251153,839.8134168525936,804.054480214728
1731653395.9543934,801.8655355494172,797.9142927987664,834.6010905303467,807.6920513989302
1731653395.9582937,804.7193457449368,795.418808669203,822.308667923324,805.6754306927628
1731653395.962194,794.4503477913657,793.9177440833959,813.4820308533597,796.2141775951588
1731653395.9656894,781.9385298956362,793.4288555764828,815.076192219739,785.670505903884
1731653395.9660945,779.9782010149953,794.2935449370365,826.2933285855121,783.4422247079076
1731653395.968793,791.6964934945335,796.6714964961221,840.1567034134774,794.1755743820194
1731653395.9699943,807.5111362447964,799.9389904824002,848.6698530706049,813.7065245223099
1731653395.9738948,813.0628127642531,802.6750186829483,847.4565398056072,831.7565230761143
1731653395.9777951,801.2891284527827,803.4372825512543,837.2247058313338,839.023969712899
1731653395.9816954,778.6402896285168,801.8374173161,822.2552815497926,833.2725415618373
1731653395.9836552,760.5586145104735,799.0507351060811,807.8293411533946,820.2584831494935
1731653395.9843965,759.9893763928318,797.1870688601109,798.2010438264028,809.362583078365
1731653395.9845426,777.8621857833845,797.7912036169785,795.478856612885,807.3806611395463
1731653395.9855957,802.6850435918118,800.5372041018878,799.1228297098506,814.7436579745247
1731653395.989496,819.4477802864784,803.2268132598741,806.0933975140503,826.3560011806084
1731653395.9933963,820.9706129363792,803.2912053686205,812.0701549790834,835.8976669226736
1731653395.9972966,812.7486541751551,799.7586740981312,813.6449604084296,840.0970452057938
1731653396.0,807.3005799626131,794.1554068623944,810.3284651917633,839.8229054611785
1731653396.0011969,812.7308260929769,789.5795674743556,804.9184348744991,837.6819678023537
1731653396.0033958,825.4006829772424,788.6210121597602,801.8402434100434,834.7991714607128
1731653396.0050972,833.2267463108996,791.6688443555735,804.4846818458161,829.9112216931921
1731653396.0089974,826.7693007675593,796.7701665775343,813.0679529585184,821.4379168484382
1731653396.012898,808.3135480617036,800.9876601093794,824.0937803326946,810.2379397238042
1731653396.0156038,790.8879119020856,802.176776757042,831.810055664659,800.1194438404576
1731653396.0167985,787.9462512702994,799.9986037422117,831.2276015934667,795.3341860811729
1731653396.0185518,802.4332079587733,795.731404842248,821.155366472826,797.1351196729149
1731653396.0206983,824.3950979397716,791.3394924018127,805.1468098198,802.4693113591354
1731653396.0222492,839.1152244141805,788.5875696921737,789.4428354561837,806.1824558997929
1731653396.0245988,839.020192572131,788.6072516071436,779.3843003418258,805.1276034386406
1731653396.0284991,829.4049930860324,791.738459203014,777.0054008366668,800.7807163525438
1731653396.031207,823.0685350099021,797.3267313208956,781.2368163309101,798.0246474012015
1731653396.0323994,828.3679097315948,803.5652144554409,789.7731298785819,800.9908720317936
1731653396.0362997,841.1117762606513,807.8584295004562,800.6448330940638,809.4823784298188
1731653396.0402,847.6396462745884,807.9447578770641,812.4660466873398,819.0561332945056
1731653396.0411024,836.6591308132412,803.2572301601001,823.7607064853555,824.614760875153
1731653396.0441003,809.5936096293428,795.5238465941252,832.4169949425216,824.3269368311014
1731653396.046811,780.4457207731224,788.0171331725076,836.1366772934593,820.6341745259733
1731653396.0480006,765.2789391294407,783.867021176762,833.9941710062968,817.8462291836181
1731653396.0519009,770.1102388112863,784.5443013806355,828.0155283831546,818.641966930746
1731653396.0534482,786.9177543517983,789.4124342510784,822.9091797949999,822.2678895626774
1731653396.0558012,800.4714577635257,796.4060628153647,823.1591053536534,825.459779645954
1731653396.0597014,800.1317280184833,803.2016631560911,829.3794374750564,825.0338825018257
1731653396.0599556,787.3949181009987,808.1755413460289,837.3502285901035,820.2347195603863
1731653396.0624146,773.751275879989,810.8070290821232,841.176369104468,813.3561501758107
1731653396.0636015,770.9382338488361,811.5326684663099,838.0634970709583,808.2414280147952
1731653396.067502,781.3175637583391,811.2438793684707,830.4945445346648,807.5628991403246
1731653396.0714023,795.9201331399905,810.7360933017742,824.0865591808866,810.7827494999145
1731653396.0753028,801.7824361022865,810.4078519682064,823.3708234729859,814.534933478551
1731653396.0780184,792.8266297569845,810.2923492151737,829.0271044749909,815.4363639399462
1731653396.078809,775.47200267981,810.2627601732357,838.0296156002024,813.1629096444894
1731653396.0792031,764.1539586436164,810.2085089497349,845.6842931097422,811.070955745127
1731653396.0831034,770.0106678125529,810.0969879714647,848.0052032908297,813.5479610842864
1731653396.0870037,791.6496657683299,809.9501041991425,843.5452537448572,822.0966739001685
1731653396.0883448,815.4609627305921,809.7997244067268,834.0465681917852,833.3684602862345
1731653396.090904,825.4890022450749,809.6621675276757,823.3466205061956,840.880052174592
1731653396.093622,815.3082923269737,809.5369120886372,814.9468895465598,839.2476566254807
1731653396.0948043,792.6345358890688,809.4165488130099,809.9443107277249,827.8037834485018
1731653396.0976622,772.988793848328,809.2953574764205,806.8714281737294,810.9130442238969
1731653396.0987046,767.4303022668655,809.1719364137834,803.2107065837382,794.8200708253628
1731653396.1026049,774.3529407026633,809.0476336873209,797.0101759102319,783.5820710605684
1731653396.1065052,782.2313568646471,808.9241542527328,787.692800904998,777.3837447461691
1731653396.1092255,780.9795751214607,808.8023081497877,776.5851296309037,774.4320600271885
1731653396.1104054,771.8528786144011,808.6820313530825,767.5441362655133,774.2646778029977
1731653396.1143055,766.7469499897066,808.5629406875262,766.4607043670733,778.8538067278063
1731653396.1165154,777.1123671870769,808.4447716277326,778.1864029295139,790.0882838387889
1731653396.118206,802.2562115653083,808.3274921446367,802.0323838459461,806.1014065057376
1731653396.1221063,827.7068200670367,808.2112059048715,829.7537058214792,820.4607143397537
1731653396.1232414,835.644176873027,808.0960250350904,848.9771625170301,825.7005152467888
1731653396.1248293,818.9562480645567,807.9820092065742,850.4193526173398,818.5691218057897
1731653396.1260068,787.3704995242988,807.8691719646009,833.4924893366693,802.6999571007364
1731653396.1299071,760.6771179057171,807.7575134882159,806.0013630150535,786.5656516814256
1731653396.1338074,754.4793851078172,807.6470454269122,778.6293023879712,778.2945310527532
1731653396.1353688,769.609575957903,807.5377955732201,758.9575577501546,781.0251580713763
1731653396.1377077,793.0457939173575,807.4297958558751,749.2402616486909,791.6998864525076
1731653396.1404333,808.9120381760414,807.3230640017812,748.1865561974964,803.6832178832336
1731653396.141608,810.4811348361236,807.2175932930803,753.8468174804946,811.2416811940883
1731653396.1455083,803.900908761663,807.113366498367,765.0267418971489,812.9662978323876
1731653396.1494086,801.4006036683974,807.010399747591,781.0558523828623,811.9903519700848
1731653396.1533089,810.1798186117627,806.908791522864,801.120460980143,812.9966219746454
1731653396.154222,826.3091124715243,806.808714309909,823.7789549577889,818.3208766621354
1731653396.1560366,838.4508603204919,806.71028690137,846.3930178907782,826.1989268203696
1731653396.1572092,837.9329787636862,806.6133553564867,864.5681419863517,832.5125669469464
1731653396.158138,826.5253895988415,806.5173795954347,872.656687778597,834.4852834592417
1731653396.1611094,815.3156077215307,806.4217300978864,866.1779304594386,833.1301064196834
1731653396.1650095,815.5258108572817,806.326507110417,845.2178356339435,832.3025466808515
1731653396.16891,828.8344750924897,806.2333845739728,816.1783753430141,835.0764188277476
1731653396.1716404,845.3150208697411,806.1452848009291,789.7170428303774,840.4955333042226
1731653396.1728103,851.0153632725355,806.0638056652646,775.4247553010506,843.6842600257236
1731653396.1730752,839.3241932537111,805.985158402267,776.5092942422013,839.7356931089492
1731653396.1767106,816.9352400705925,805.8985434710174,788.0826604378851,828.5224972117587
1731653396.180611,799.2644607913652,805.792553465904,800.2492242304713,816.2281209652344
1731653396.1845114,798.5830937339414,805.6709243830294,803.940107452349,811.5590048884995
1731653396.187244,814.1892360230368,805.5670802766119,795.7562991142821,819.026132439027
1731653396.1884117,832.5767712362182,805.5345476479608,779.0489907332485,834.6585719304418
1731653396.1919286,837.7099514543,805.5946119905409,761.1658510818812,848.0202289221992
1731653396.192312,823.5009372182876,805.6588883913296,749.1770061333165,849.3507931609033
1731653396.1930344,798.8120977454263,805.500858612373,746.8580969442093,836.3848419840479
1731653396.1962123,781.0488109297769,804.8666212407783,754.1831912754949,815.6515041749059
1731653396.2001126,783.1339306082275,803.7141148942094,768.5004118569843,797.5080065425583
1731653396.2028477,803.7174820927602,802.3821001582705,785.7369243365283,788.96197180235
1731653396.2040129,828.0612852658803,801.4327709573372,800.9899417271097,789.662238997257
1731653396.2079132,838.9392273614772,801.1717399662257,809.3384838933562,793.5792916091897
1731653396.2107818,829.2526799732975,801.237037923247,807.7005872358933,794.4276665623458
1731653396.2118134,806.7903767806562,800.7102629527462,796.9120971632918,790.3074262383632
1731653396.2157135,787.7159437062686,798.778030713017,782.0099018556018,784.1331320510478
1731653396.2184513,784.1450766904154,795.4459356784001,769.7830371239016,780.0838115375614
1731653396.219614,795.6131582479234,791.7034991441978,765.1081799097439,779.5116778955878
1731653396.2235143,810.8094481022013,788.9669392331587,768.7322979183813,779.889568316782
1731653396.2274146,817.5403778147611,788.2001746455179,777.7951504578216,777.4733924046637
1731653396.227931,812.4247854545457,789.3513261193918,788.1201479470185,771.0732210901307
1731653396.229635,802.5194362625654,791.4837545143193,796.4176536684315,763.5367668258366
1731653396.231315,798.085929494726,793.4580830649927,801.3227922594662,759.7025876189986
1731653396.234055,803.0770537427549,794.6298249993475,803.2490250055623,762.5661791129993
1731653396.2352152,811.6218011867517,795.0579289513167,803.5271563159479,770.7578001066121
1731653396.2391157,813.528862371426,795.1638104598251,803.4320754233861,779.3486089467294
1731653396.243016,803.9687099701789,795.2719111398,803.6267470678548,783.4827979739172
1731653396.2469163,788.6655324328025,795.5196395172966,804.176954814186,782.1609679564378
1731653396.2484884,779.6383111761786,796.1437084092287,804.8767340479155,779.193506128406
1731653396.2496586,784.8410679238198,797.6395297940204,805.5404807119858,780.3180881693664
1731653396.2508166,800.7039889101247,800.38203595206,806.110074228557,788.5064959971984
1731653396.2547169,814.3496059970103,803.9639275706292,806.6194094067786,801.1984225752171
1731653396.2586172,813.9041235460309,806.9977642884272,807.1210537450843,811.9004119669328
1731653396.2625177,798.2226373373142,807.817701935509,807.642859412776,815.0667400272893
1731653396.2628276,777.8427144373173,805.6673329559611,808.1846930395204,810.3930214174196
1731653396.2652624,766.528596512858,801.4328679400563,808.7344954220927,803.0803462172452
1731653396.2664175,770.5648577301557,797.2871224392976,809.2826290176512,799.8795926191912
1731653396.2673416,784.4091174346395,795.4408026659265,809.8265292168676,804.0058664735216
1731653396.270318,795.7287116985029,796.8445076761346,810.3682831205357,812.7637302230116
1731653396.2742183,795.246827914607,800.7023872303673,810.9106816843217,819.5867308337524
1731653396.2781186,783.3047466906185,805.0944938938034,811.4550825416019,818.8741071134458
1731653396.280866,768.2261259836388,808.2371875708208,812.0013864852473,809.9241813771772
1731653396.282019,758.7560259348089,809.4580084328796,812.5489371210863,797.036342635864
1731653396.2859192,757.7151114834984,809.2388660037691,813.0972551554013,786.0212005016807
1731653396.2861948,761.8714171522416,808.5118846751483,813.6462427601807,780.2663772001507
1731653396.2898197,766.3894592349484,807.9443570839103,814.1960324333519,779.4295775593203
1731653396.2937198,768.6613055002016,807.7099846266517,814.746777454084,781.0162589506606
1731653396.2964697,768.8326390471464,807.6714427896454,815.298548127485,782.7107799889145
1731653396.2976203,768.2385886217604,807.6466602456028,815.8513382929309,783.5432742204085
1731653396.2977242,767.9229340287534,807.5491081946191,816.4051151237351,783.6706068095139
1731653396.3015206,768.1624515794139,807.387711824406,816.9598563846382,783.617308603623
1731653396.3050482,768.7348178411455,807.2069450759548,817.5155589898842,783.7322930245435
1731653396.3054209,769.3433728343534,807.0387968745653,818.0722298538174,784.0692033659329
1731653396.3093212,769.8454126833574,806.8899022544115,818.6298748222712,784.5208206476005
1731653396.3120732,770.2538817936058,806.7518450781374,819.1884936609908,784.9777838333629
1731653396.3132217,770.6407692338337,806.6149881897751,819.7480807311927,785.3982918239215
1731653396.3171215,771.0586681844886,806.4751799054,820.3086276377443,785.7958953517926
1731653396.321022,771.5191713040217,806.3332086984819,820.8701250512399,786.1996787265516
1731653396.3239014,772.0092002154637,806.1914817966286,821.4325630814413,786.6274435667307
1731653396.3249223,772.5134385000656,806.0515859387064,821.995930891932,787.0812333545426
1731653396.327677,773.025371760419,805.9137514605475,822.5602162778578,787.555255821033
1731653396.3288226,773.5465326364086,805.7774693479237,823.1254053301379,788.0441835803572
1731653396.3326206,774.0811477279974,805.6422182847655,823.6914819084478,788.5464305994411
1731653396.332723,774.632152844167,805.5077846342407,824.2584268965765,789.0632217528407
1731653396.3366232,775.2002861045208,805.374207462874,824.8262179622196,789.5964353791217
1731653396.3405235,775.7850705416787,805.2415967986565,825.3948310004514,790.1472663519943
1731653396.3427546,776.3859947807645,805.1100111868883,825.9642435469593,790.716077040021
1731653396.3432806,777.0030409777963,804.9794375587875,826.5344378589643,791.3028518031081
1731653396.3444238,777.6366021358141,804.849827731717,827.1053987152503,791.9076267267961
1731653396.348324,778.2871884614042,804.7211358560054,827.6771020868482,792.5306400282047
1731653396.3522246,778.9552264731271,804.5933315999526,828.2494990229352,793.1722683310487
1731653396.3561249,779.6410236027515,804.4663936674178,828.8225118464414,793.8329107343856
1731653396.3588843,780.3448261687336,804.3403000050695,829.3960645536253,794.5129228952401
1731653396.3600252,781.0668810555419,804.2150270915284,829.9701486388041,795.212613564174
1731653396.361608,781.8074595844354,804.090559257847,830.544875689461,795.9322694287807
1731653396.3639257,782.5668488752817,803.9668969486689,831.1204227900431,796.6721755945007
1731653396.3675172,783.3453339164406,803.844047003954,831.6968079597796,797.4326208997538
1731653396.3678255,784.1431884146743,803.7219870925302,832.2735966647309,798.213894569998
1731653396.371726,784.9606795278378,803.6006247249716,832.8498746839975,799.0162843515467
1731653396.374488,785.798079958089,803.4798048807179,833.4248801819938,799.8400792872088
1731653396.3756263,786.6556733589155,803.3594196924151,833.9992506952299,800.6855705823826
1731653396.3795266,787.5337388445973,803.2395954651552,834.5758880990498,801.5530401861786
1731653396.3804612,788.4325138731721,803.1207872175332,835.1586775001216,802.4427355656662
1731653396.383427,789.3521630557157,803.0035205053025,835.7480756627091,803.3548501331
1731653396.3873272,790.2928057731439,802.8876880845654,836.3358294864979,804.2895466936443
1731653396.3900917,791.2546389825218,802.7718335127555,836.9053483317781,805.2470473013785
1731653396.3912275,792.2381016643773,802.653445883391,837.4446890029484,806.2277464501365
1731653396.3951278,793.243896439439,802.5311785475358,837.9700081517294,807.232213135033
1731653396.399028,794.2726472443994,802.408318648332,838.5392740331808,808.2609306377266
1731653396.3993144,795.3242077774163,802.2941229009268,839.2233806586382,809.3138039105697
1731653396.4024138,796.3971624811791,802.1982467905218,840.020138844023,810.3898420490738
1731653396.4029284,797.4895004763047,802.1172019950615,840.7603694702077,811.4877093726345
1731653396.4056952,798.6010382435371,802.0219489176097,841.1320425094534,812.6074958660897
1731653396.4068286,799.7363885416286,801.866151170898,840.9436813774627,813.7527504004354
1731653396.4107292,800.9048838582215,801.6304533413613,840.5606508895908,814.9301692152932
1731653396.4146297,802.1135254024291,801.3860542332754,841.1067707589533,816.1442817768307
1731653396.4181678,803.3539555289888,801.3103015243863,843.8186672346217,817.3882228034047
1731653396.4185295,804.5944636080003,801.5665954745443,848.3422908220191,818.6388135809143
1731653396.421299,805.795324343559,802.0388876527427,850.9670875977004,819.8688210643279
1731653396.42243,806.9561264113025,802.1006237409106,845.0433693827385,821.0813671625658
1731653396.4263303,808.1687388711335,800.7590277632995,825.1378550112529,822.3458713399277
1731653396.4302306,809.6064365365186,797.3377410749046,792.6634721904181,823.7853755635867
1731653396.434131,811.3804273955332,792.2332304462705,757.3931965542561,825.4693836814636
1731653396.4369023,813.296827768333,786.9103701139603,732.2234017984629,827.2432698955633
1731653396.437021,814.7364676573291,783.0242413507979,725.4612979508215,828.6599915102141
1731653396.4373102,814.9987552147514,781.5844120242555,736.7354604046859,829.2549019717939
1731653396.4380312,814.236282998996,782.8672102784212,758.0278795564631,829.2372009095542
1731653396.4419315,814.438919636702,786.7082946129518,777.6513217726482,830.2006035952211
1731653396.4458318,819.2062445152096,792.5280090167379,785.4336187841353,835.0149981119469
1731653396.449732,831.351094373168,799.1555588838432,778.0990498660835,846.3098167927725
1731653396.4525063,849.4845038372499,805.0042802986477,762.3318221691487,864.0943440047569
1731653396.4536324,867.0147724155682,808.7530464652668,752.0457117008618,884.258077938095
1731653396.4558742,875.9701702302369,810.0021173716026,759.4826330724724,899.7845944141943
1731653396.4575326,873.4399517476573,809.2846725556237,785.5177651420477,904.8957992458045
1731653396.4614327,865.0068723451974,807.4441820972315,817.1675497638623,899.6567250543077
1731653396.4653337,861.4275363320313,805.0267970451716,835.7704725017421,891.0946215880888
1731653396.4681098,870.5272659937262,802.2843345934297,830.4630761300577,888.8704607588462
1731653396.4692338,890.6699508201598,799.6830270261316,806.3208275691424,898.1090015892445
1731653396.4722068,911.3272309235308,798.2077654043632,780.3799085732288,915.0694619721978
1731653396.473134,920.7418119842432,798.9128298316041,768.8465659236222,929.611430022486
1731653396.4747276,914.9190780346131,801.9778504047791,776.0951489509207,932.9233624302628
1731653396.4770343,900.84837326183,806.1502728087879,793.943998476749,924.4247599776795
1731653396.4809346,891.1393656569835,809.2089729780204,810.3724642277008,912.2060160280488
1731653396.4837136,894.0250562385997,809.1810982674103,819.0642904716252,906.5941541387594
1731653396.484835,906.675308618975,805.3929219047269,821.8044954940449,912.0542664264331
1731653396.4887352,917.4714796460067,798.6663224038205,823.4141335361008,923.9297581931702
1731653396.4926355,915.6679531337785,790.7729022894434,825.6898666476691,932.4601692173517
1731653396.4935808,900.5259326053425,783.7583426266291,826.4051618107609,930.5926383084194
1731653396.4965358,882.1928304467983,779.5113421072625,823.1939152771419,919.2671578061721
1731653396.4993172,873.4912268325113,779.4155060287198,817.1033579738059,906.2421510810548
1731653396.500436,879.4842903476393,783.8238543092847,811.7583794241372,899.8357031281074
1731653396.5043364,893.5018944135415,791.5560144028143,809.4041387810736,902.739913221124
1731653396.5071034,902.7963551313611,800.0051083064566,808.4297695485079,910.5439928327555
1731653396.5082366,899.004190574704,806.1592013709795,805.0420181216043,915.6281836841911
1731653396.5121367,884.8012179158667,808.0799659937127,797.2789161057626,913.027283236908
1731653396.512434,871.4657738443607,805.9008401860868,787.4579250080503,903.7597688697776
1731653396.5149207,869.555416327347,801.678090123399,781.0103760615259,893.4750884696454
1731653396.5160372,880.397171961335,798.186184852338,782.8509516389147,887.9375313383829
1731653396.5199375,895.2311320342894,797.3847990031596,793.9361438293884,888.9651123073053
1731653396.523838,902.4687823345635,799.4279813360821,810.0202180536709,893.6347883823064
1731653396.5277383,896.9211398404839,802.7443110544777,823.2018105611847,896.8454767947873
1731653396.5305245,883.4501314144944,805.1012014860559,825.6663682278971,894.9545368591164
1731653396.5312874,872.329453235805,804.9868689792806,814.0478510689666,887.8168067389623
1731653396.5316386,870.4450649986613,802.4503550518451,792.0620715723404,878.0900521873767
1731653396.535539,875.638458344739,798.9103743354469,769.3071427958228,868.7575208719427
1731653396.5394392,878.7054404317646,796.1531914127306,756.1696116308805,860.9898595317851
1731653396.542,871.3596570679215,795.2608946966969,757.7500407897606,854.0119787494496
1731653396.5433395,853.7242711497506,796.1541811914128,771.0224208708535,846.888589546344
1731653396.546128,835.1452031357904,797.906428428602,787.2768424320285,840.417346498666
1731653396.5472398,827.2278751800874,799.4717480264814,797.814276732942,837.1660858739054
1731653396.5501406,834.3185016175839,800.3329378382588,798.6150953840729,839.4332736556183
1731653396.55114,849.2429286690617,800.7586092341174,791.2334835443664,846.9892825350735
1731653396.5550404,858.3883387828346,801.5932808424403,780.5688824235365,856.7839679516018
1731653396.5589406,852.550728070515,803.6790084045285,772.0271461904204,864.9709984719448
1731653396.5617318,834.6558793780157,807.1860850062886,769.7329371944638,869.4107454657009
1731653396.5628407,817.5555162074804,811.2735246135601,775.6827812969055,870.4448089747177
1731653396.5667412,813.3701570184619,814.397484939512,789.1813905197243,869.4696220572636
1731653396.5689938,823.2060797208628,815.1666001673395,806.6549336553611,866.8766692932522
1731653396.5706415,835.9427112214449,813.2011359613222,822.4723546059816,861.358633162148
1731653396.5745418,837.2391448102182,809.3972529217968,830.8604322733655,851.2098696255954
1731653396.5768964,821.4388851183809,805.4131843124361,828.0823764791545,836.4677661357026
1731653396.5773354,796.6632242189439,802.7504390185956,813.8452955099655,820.0117561961588
1731653396.5784423,778.8452566213417,802.0672906049766,791.4572811688303,806.4866766691144
1731653396.5823426,779.3163441400171,803.1409638681246,766.8158363518063,799.5428414649845
1731653396.586243,795.8379054093327,805.3635443481445,746.5317393825925,799.2781041830998
1731653396.5878472,814.4174881385242,808.2487478704157,735.7183508279926,801.8850034209265
1731653396.5901432,820.6149053951696,811.5074180899132,736.3196551709716,802.0451813269311
1731653396.5929391,811.1300713945167,814.7452692047218,746.8009032478905,796.5044069171375
1731653396.5940435,795.99940251489,817.2394791425203,763.3099266239423,786.2105611913798
1731653396.5979438,789.5436554177825,818.1352152080194,781.5873805528328,775.4242523607963
1731653396.601844,797.8314038135615,816.9152853264661,798.6093631854286,768.5465088230414
1731653396.6057444,813.368072994872,813.6988682377653,813.1756107725284,767.0896994395592
1731653396.6067004,821.3516488273555,809.139598352456,825.1523192701679,768.9213868633058
1731653396.608543,811.975395350892,804.124640451989,833.8727417145988,770.0749660157055
1731653396.609645,788.5469273100288,799.5892141987587,837.0995506309605,767.6132090307185
1731653396.611793,765.0903875632041,796.451947649114,832.0067532561019,761.4857856235014
1731653396.6135447,755.6381416147798,795.4084916742293,818.0746488894805,754.1876406120215
1731653396.6174452,763.6744131827951,796.5184064022878,799.5543667310999,748.6189181169987
1731653396.6213455,779.8250474513702,798.9682898880051,784.6035352686353,745.8616883113968
1731653396.6241465,789.4983897876775,801.4529034641175,780.5802704660738,744.691632506212
1731653396.6252458,784.4841511553698,803.0552123938469,788.5777705611673,743.2574295355719
1731653396.6255536,769.3245673458238,803.8942505131233,801.6834729483718,741.418023586107
1731653396.629146,757.3279532354827,804.8923436594708,808.9741576232559,741.4478560415937
1731653396.6330464,759.4368925252302,806.8114956365233,802.7594091518603,746.1495773945772
1731653396.636947,775.0143689693621,809.4382956333873,783.820794397554,755.8332673091485
1731653396.63975,792.0178984610684,811.6953976088146,760.7384023925141,766.9051823253726
1731653396.6408472,796.3117927845334,812.58490758739,743.8610360784454,773.672733325682
1731653396.644407,782.5215818915145,812.0604805379659,738.5354482977112,772.3194357774919
1731653396.6447475,757.8512508536551,810.9804806305071,742.6365792579783,764.0433260449989
1731653396.6466897,736.1606695849238,810.1854773178966,749.8917633912247,754.7013634796763
1731653396.6486478,727.335818124864,809.6082898438717,755.814996304622,750.8188966382952
1731653396.652548,730.4410670570284,808.3053863436521,761.0787935101415,754.7378917217134
1731653396.6553538,735.8089821945808,805.4093605495779,769.5550810527884,762.7031029685431
1731653396.6564484,733.9108129365295,801.1227171431369,783.0835689216689,767.6768415155552
1731653396.660349,723.4480873721972,796.8451714378281,798.0580771594232,764.8921916086946
1731653396.6632602,711.9901878242109,794.3194700128038,807.3163409172297,755.6985348013745
1731653396.6642487,708.9037457550884,794.4985462564413,805.894741354477,746.4704231634074
1731653396.6681492,716.8567615451822,796.9773599338458,795.4927555779178,743.4461907684667
1731653396.670957,729.2753676562447,800.3132012627469,783.5130070785007,747.8023584060143
1731653396.6720495,735.8881503292241,802.918372348444,777.3893207725624,754.9555072204043
1731653396.6759498,731.484111296754,803.9078714965208,779.0852506556929,758.3380816479511
1731653396.67985,720.322926956073,803.4110680646372,784.3780194508809,754.2274566661118
1731653396.6815865,712.5273091904082,802.2509464190696,787.2743885608983,743.8746573812056
1731653396.6821134,715.6969297500469,801.3045780837732,785.5845409285548,732.0005167995545
1731653396.6837504,728.8564008576755,801.0180735288616,782.9610052836418,723.6141008106802
1731653396.686561,743.6059146524151,801.3443280769181,785.8749144957112,721.5876728994764
1731653396.687651,751.2345593521497,801.9921489647218,798.1807535506339,725.9390538117824
1731653396.6915512,749.7422026886142,802.6738376743842,817.7487142935009,734.4005864479058
1731653396.6954515,744.9696882281223,803.172385034023,837.8138672388694,743.6416265887196
1731653396.6993518,745.0293526178241,803.3168340092118,851.7451788352561,750.7827189987362
1731653396.7009668,752.8501716044786,803.03086689871,857.1698339952958,754.6971843208695
1731653396.7021646,763.2143669892864,802.4363501325362,856.3303917201205,756.268619056735
1731653396.703252,766.8559059619575,801.8207793040921,853.2534727741418,757.1783228681005
1731653396.7071524,758.2898931856289,801.3926171164774,850.805442301732,758.0630622065171
1731653396.711053,740.9753434589294,801.0536124842666,849.7505741983128,757.7827878401583
1731653396.7149527,725.5329518018665,800.5035247784399,849.5246115966553,754.7436510897396
1731653396.7164826,722.1620136509837,799.6548326724493,849.3619451573084,749.1135373305553
1731653396.7177684,732.9075285266274,798.9142220611308,848.8943963098483,743.502779100519
1731653396.7188532,749.7574304172383,798.9234626841893,848.156516460362,740.9644311311633
1731653396.71982,760.4446058089991,799.898842100167,847.3350076737751,742.0281679998291
1731653396.7227535,757.9795489353307,801.194468851535,846.565551715961,743.9005710197415
1731653396.7266538,746.5070761721952,801.5811466577438,845.8772308817192,743.0901528508837
1731653396.730554,738.2461248195189,800.0827411090645,845.2352016416728,739.1927943607764
1731653396.733372,743.3199221779879,796.7008616953866,844.5989640481711,736.0944853757942
1731653396.7344544,760.7748076563086,792.4759680608843,843.9509351856176,739.1739195141898
1731653396.7383547,778.8167226411451,788.9114089453522,843.2944078621309,750.9423012123074
1731653396.7386732,784.6033073201646,787.2406909632493,842.6396263559042,769.001470724783
1731653396.742255,775.3980187521474,787.9828269491106,841.9934544917811,787.8990842589461
1731653396.7461553,761.4291420766596,790.8820775204667,841.3570431070839,802.9406695071448
1731653396.7489758,757.8582822654942,795.0851467037627,840.7283939560015,812.6885040487018
1731653396.7500558,772.4699987047278,799.4312038865161,840.1054284503216,818.5397072745695
1731653396.7513793,799.0781411216238,802.8204587016263,839.4873585316741,822.4100363355203
1731653396.753956,821.796007601346,804.5843502338262,838.8744707454599,824.8029101776331
1731653396.7575266,826.7047899300409,804.6839920020481,838.2673562343463,824.7713410240111
1731653396.7578564,811.9254521817941,803.6164516765214,837.6663716320923,821.5009328760401
1731653396.761757,788.5511889183914,802.1125561098927,837.0715295518609,815.9099867862799
1731653396.7645793,771.9827963179722,800.849494509325,836.4826579731276,810.6772448458115
1731653396.7656567,770.5634833662197,800.3310686126629,835.8996203121238,808.4299093661368
1731653396.7695572,780.3656310550158,800.9013095337518,835.322470903598,809.5045783011577
1731653396.7734575,789.8812468355435,802.7440384655869,834.7514692496835,811.3529683461836
1731653396.7763798,790.2858137734623,805.7696254063171,834.1868850843052,810.5109566920039
1731653396.7773578,782.6036060623138,809.4504320088838,833.6286118564635,805.798315134991
1731653396.7801833,776.0777002632288,812.8047846730287,833.0758455470012,800.0029643280445
