timestamps,eeg_1,eeg_2,eeg_3,eeg_4
1731654246.9391143,807.0876574828346,807.905955781966,804.3400902266034,805.8188631127615
1731654246.9430285,784.6138040049311,806.7607047836663,805.0323877160112,804.8420128472964
1731654246.9469428,770.4642897746758,806.214583485423,804.0175281098072,805.2228751191014
1731654246.9508567,767.2151884745397,806.5143673644025,800.7259340322311,806.0990986625571
1731654246.9547713,771.001137888333,807.440382056448,796.2103575031505,804.8292424054164
1731654246.9586854,775.8928489471592,808.4636845998099,792.550164526237,799.743447675492
1731654246.9625998,778.608784007163,809.0292232495525,791.3839474368979,792.1908152606132
1731654246.966514,779.3572456362364,808.8065472305708,792.591304434733,785.5813772746341
1731654246.970428,779.4012958673438,807.8442697609994,794.3063742902792,782.4204863831077
1731654246.9743423,779.1439167357041,806.6311645303475,794.4548067308513,782.4458903540864
1731654246.9782565,778.671024786795,806.0187076808784,792.5658014511544,783.5503640079502
1731654246.9821708,778.9182393481283,806.8745152597897,790.1867874651665,784.0765754792667
1731654246.9860847,781.1038647031894,809.4656398857729,789.4536777653427,783.9612292860312
1731654246.9899993,784.9532484053534,812.9733292426182,791.125227471689,783.9734642938375
1731654246.9939134,788.1528841204965,815.7418631288668,793.8895392254648,784.4060405351786
1731654246.9978275,788.0326245475354,816.3512304794732,795.5178611554821,784.7411776895597
1731654247.001742,783.9706013956901,814.7165955317165,794.7812272023104,784.4727686318399
1731654247.005656,778.3781120774822,812.1829906521592,792.5061557209775,784.1228239551147
1731654247.0095704,775.3659818492248,810.4371740404705,790.9787059665134,785.3146007179554
1731654247.0134845,777.8460513720502,810.1869632831726,792.2004010241609,789.4746984673037
1731654247.0173988,785.1147288057268,810.7931359357658,796.2928028697507,796.0329581272596
1731654247.021313,793.1627764664111,811.1342374615247,801.2356270017041,801.9204934735081
1731654247.0252273,797.9955357324005,810.8204391643565,804.197632481026,803.4055397225559
1731654247.0291414,799.0943134852515,810.5607844797665,803.5202085316051,799.0514870165057
1731654247.0330555,799.3874300635772,811.3306268403076,799.8436088883751,791.1485318155788
1731654247.03697,801.5682535425254,813.1649020957827,795.524178340249,784.2070023914081
1731654247.040884,804.7927610648989,814.7509092046681,792.8937167577325,781.8386679841991
1731654247.0417817,805.5261603425039,814.2134359182834,792.7918945307364,784.6780137855133
1731654247.0447984,801.5569654814948,810.4387314714395,794.4066900146202,790.7203039785628
1731654247.0487125,794.5372335203671,803.9520289893499,796.2867212025586,797.2218328003313
1731654247.0526266,788.1752397038297,796.8229068706266,797.5398527404417,802.3599478372709
1731654247.052727,784.2514727027778,791.7201230504166,798.2966247033197,805.6580660568134
1731654247.056541,781.0653451249499,790.6311163188959,799.2419638740605,807.4842669182038
1731654247.060455,776.0698005989348,793.8741705258747,800.7487942381741,808.4350582913223
1731654247.0607717,769.6906397487297,799.9168834140811,802.3707791228696,809.0149267781849
1731654247.0643694,765.9772411059666,806.1468258051611,803.0788239764272,809.5204906362799
1731654247.0682836,769.105135021257,810.205322134566,801.999048588989,810.0032556905431
1731654247.0715466,779.0675452748354,811.1089296180243,799.0456960949131,810.3786365779185
1731654247.072198,790.7382249607515,809.4845772232342,795.0058670506864,810.6984542190636
1731654247.076112,797.3410578189493,806.8527038328372,791.1103952562185,811.3594279734875
1731654247.0763335,795.4774704893144,804.5723542465508,788.4674854989535,812.9973921512999
1731654247.0766668,787.6248049349595,803.2215357349527,787.7053968333341,816.0962441753375
1731654247.080026,780.1238861128604,802.6797835195259,788.9041109641593,820.5637463092365
1731654247.0839405,778.2353289613312,802.5640583334565,791.684986204502,825.4802047398209
1731654247.0878546,782.1622405374393,802.5635768820578,795.324603748591,829.1237342165307
1731654247.090366,787.2560044377595,802.5349936319633,798.8860532337023,829.4166287724079
1731654247.091769,788.2979435270257,802.4581316287038,801.4357505738295,824.8947536478615
1731654247.0918956,784.3058654679714,802.3621818826341,802.343028807669,815.8587342338956
1731654247.095683,779.7142424434215,802.2740483948144,801.5219038996737,804.797312030226
1731654247.0995977,780.7680551756126,802.201122060076,799.4335417916932,795.3173871079018
1731654247.1035116,790.0724824453592,802.1372220782246,796.8055268597866,790.0290765823936
1731654247.1074257,803.8586104772857,802.0740046468379,794.2455804015418,789.0641585467025
1731654247.1074576,814.2984814739923,802.0073401175351,792.0326328367515,790.5146696156921
1731654247.1091857,815.1429223217519,801.9374605924613,790.2345463944508,792.1926988680827
1731654247.11134,806.3873210329485,801.866310962548,789.0189947414146,792.9865867627087
1731654247.1115518,794.4084496942793,801.7953444095132,788.8382658342881,792.9458430174811
1731654247.1152542,787.3610563497567,801.7248836032131,790.2620762227453,792.603732611504
1731654247.1191683,789.2023639363229,801.6545531293792,793.5380887822182,792.3733061731182
1731654247.1230197,796.931487839167,801.5839018520551,798.2126276162685,792.3594891977823
1731654247.1230826,803.3087962580325,801.5127178673023,803.1316202055636,792.4697275751516
1731654247.126997,802.9604497887202,801.4410144000103,806.8862201376435,792.5845763200344
1731654247.128005,796.8962548786886,801.3688830756631,808.4603865922544,792.6477082964367
1731654247.130911,791.6729107035975,801.2963821312663,807.6717575058856,792.6651268053657
1731654247.1348252,793.8327748585357,801.2235099855914,805.0949146975324,792.6658696372706
1731654247.1385818,804.1499570836829,801.1502323287039,801.5227659146407,792.6707229960575
1731654247.1387396,816.4223798542571,801.076514746524,797.4316107871812,792.6839295540294
1731654247.1426537,821.9616444044251,801.0023356016076,792.9678841235798,792.6999619682622
1731654247.1464367,816.3912275982015,800.927680398237,788.4970152658158,792.7125399813563
1731654247.146568,803.3831513582477,800.8525320547113,785.1337479812416,792.7189778515004
1731654247.1468246,792.179869812779,800.7768707600649,784.5569544199616,792.7198081488482
1731654247.1504822,790.6142170479712,800.7006871090417,788.0094427149675,792.7166099568001
1731654247.1541438,799.0684315481138,800.6239974812975,795.1864140434313,792.710421948672
1731654247.1543963,810.2607926677499,800.5468385695885,803.9765481899266,792.701398573657
1731654247.158311,815.1282631556805,800.4692224748084,811.446345579289,792.6892165006532
1731654247.1622248,810.0635522730435,800.3910678445394,815.479044164265,792.673551321691
1731654247.1656442,799.5962288622151,800.3121769217252,815.9023257345306,792.654287274302
1731654247.1661391,792.3939641464385,800.2323529377326,814.2895229433298,792.6314784007377
1731654247.169706,794.0343154396897,800.1516728453129,812.6455981976243,792.6052203815407
1731654247.1700532,802.5830972913762,800.0707244956952,812.0210668415418,792.575557845532
1731654247.1739676,810.4708335544618,799.9904161454626,812.0333682955228,792.5424689305869
1731654247.1778817,810.8346409195627,799.9110679751115,811.4586620968042,792.5059148000014
1731654247.181322,802.9912490498313,799.8311539864119,809.2821050799884,792.4659180264534
1731654247.181796,792.7612044092529,799.7470595099205,805.4588465495169,792.4226126951206
1731654247.1844635,787.6976576547405,799.6555542150062,801.0244420040528,792.3761923716212
1731654247.185268,791.1606283938451,799.5589882286598,797.6127362315399,792.3267175025712
1731654247.1857102,799.784162931342,799.469271392579,796.6541735018701,792.2738773011699
1731654247.1896243,806.1510619958689,799.4032408961447,798.6337429751206,792.2169839053101
1731654247.193539,804.570813341941,799.3647402592375,802.8152417171941,792.1555083145715
1731654247.1974528,795.4951613639996,799.3218720835246,807.6247341716441,792.0900953991364
1731654247.20083,785.081311372724,799.2062086961174,811.4459175685706,792.0232191502735
1731654247.2013671,780.2252538874816,798.9646014281265,813.2981018945094,791.9580503284982
1731654247.2032833,783.1176956027426,798.6591716270577,813.0533687067689,791.8948123236199
1731654247.2052813,789.8054091936326,798.5374997075022,811.268433895149,791.8265907686031
1731654247.2091956,793.8612849298197,798.9420830208134,808.869108916057,791.739963619584
1731654247.2131095,791.9779991741403,800.0101917451851,806.7817121063599,791.6259307420933
1731654247.216207,786.7986899158897,801.376661083569,805.5605162734663,791.4989199587941
1731654247.216392,784.7340996000238,802.2879722832399,805.2103005025414,791.4069627211686
1731654247.2170238,790.6598573618994,802.2599723554775,805.3549088997935,791.4065592188455
1731654247.2209382,803.8011002927634,801.748105179226,805.5869376060739,791.4920102679393
1731654247.2221026,818.030706852102,802.0200525686895,805.6971845708935,791.5217891798155
1731654247.2248523,826.287254485312,804.0769699336556,805.6784150956483,791.2458130359357
1731654247.228767,825.6441900845722,807.527132316713,805.6102066974491,790.5301333503405
1731654247.231954,819.1185528603704,810.5969326105557,805.558272277443,789.7214281030758
1731654247.2326808,812.9018222169818,811.4798045895567,805.5408453131247,789.8288202791573
1731654247.2365952,811.3251022904128,809.877518283558,805.5442215368978,792.0996589360951
1731654247.2405093,813.6687524996269,807.2975093440667,805.5494998582532,797.0019628552075
1731654247.2409222,815.3902343638367,805.7953468805111,805.5473573781286,803.4156978291428
1731654247.2444234,812.65674817592,806.286794136696,805.5384261680658,808.9949473755704
1731654247.2475162,806.2629026948603,807.9162551133574,805.5272384104156,811.6680008280429
1731654247.2483375,801.4698206700463,808.9661138159288,805.5171879092442,811.0755463860133
1731654247.251092,803.7014020771167,808.3976738669469,805.5090758981707,808.7203139037642
1731654247.252252,813.5917774654698,806.6106431495466,805.5021058281632,806.7325505265188
1731654247.2561662,825.6433052032511,804.848555296521,805.4953090568533,806.339610096482
1731654247.2597418,831.9850659957309,804.0183789698216,805.4882647726586,807.32021934612
1731654247.2600803,828.5076133602452,804.115351192497,805.4810666219921,808.7706696066161
1731654247.2630782,818.3917037966954,804.5728888122145,805.4739865076872,810.2663823411784
1731654247.2639947,809.829532963558,804.8935756243244,805.4672187166998,812.1535799017284
1731654247.2679088,809.4306668753522,804.9330708280766,805.4608189855389,814.6528032264583
1731654247.2718227,816.6242762966791,804.7995819870396,805.4547654301209,816.806024530752
1731654247.2757373,823.8967040102685,804.6457060050686,805.4490325365866,816.6597392243061
1731654247.2785614,823.0218304962752,804.5488975043838,805.4436221821,812.9582646436298
1731654247.2786405,812.3393324491886,804.5062872582475,805.438555292966,806.9937452246515
1731654247.2796514,798.9368660039021,804.4823985429496,805.4338544306682,802.6884274694353
1731654247.2835658,793.4856073949634,804.4499513254437,805.4295417991608,804.2085496260286
1731654247.2859771,801.5182858890128,804.4022535436075,805.4256547948403,812.5994181328233
1731654247.28748,818.2699532979108,804.3456548707371,805.4222578467052,824.2215014427973
1731654247.2913942,831.7667369115325,804.2881516702288,805.4194198888729,832.7435147562815
1731654247.2942023,832.1221070181836,804.2334594812612,805.4171471765462,833.5774574997362
1731654247.2953084,819.4584575829596,804.181139904052,805.4153155858087,827.2849066773424
1731654247.2973807,803.6440477314779,804.1292507536457,805.413703625398,818.9854012565091
1731654247.2992225,795.9445244815463,804.0764249339959,805.4122121246836,814.088061825307
1731654247.3031368,799.7536301265012,804.0224047528626,805.4111976502057,813.9237162262235
1731654247.3070507,808.3231224616324,803.9675783413892,805.411584690833,815.0038621672234
1731654247.3097644,811.1430810799947,803.9123767074781,805.4142996606002,812.4152168916996
1731654247.3109653,803.1332642692327,803.8569877782093,805.4189500341862,804.2332760222245
1731654247.3148794,788.7935810274482,803.8013858946264,805.4226676650653,793.1349165243122
1731654247.3162005,778.2560907838754,803.7454790935923,805.4210156210542,784.0840692385491
1731654247.3187938,779.0398742189175,803.6892149301133,805.4123773277461,780.3824549285167
1731654247.320862,790.3649121689199,803.632600775582,805.4040660161311,781.4703730107836
1731654247.322708,804.2328233402761,803.5756718409275,805.4135525261885,784.0126227035108
1731654247.3253264,811.9259534467935,803.5184550798497,805.456542715554,784.9739029199593
1731654247.326622,810.5660809904034,803.4609573997433,805.5217665444625,783.9896056120979
1731654247.3305364,804.6627943327768,803.403182071779,805.5514225898983,783.2324942340001
1731654247.3344505,801.6939465128484,803.3451582485955,805.4629684950296,785.1563205566018
1731654247.3350198,805.5120110501445,803.2869545530448,805.2346913512577,790.1530969695419
1731654247.3383648,813.0558216553566,803.2286453260483,805.0130064916742,796.0605718057063
1731654247.3408885,817.0634264758074,803.170224924815,805.1176650336964,799.8064628999642
1731654247.342279,812.4577862733315,803.1115290063623,805.8388798632791,799.7142792218796
1731654247.3461933,801.0023237729961,803.0522851864673,807.1134648309267,796.584351718035
1731654247.3501074,790.3066840864795,802.992388587507,808.3762581164018,792.8376301643858
1731654247.3538394,788.0124693140965,802.9322986020616,808.8281416064693,790.6341723258337
1731654247.3540215,795.9172429265956,802.8731407914404,808.0166983827821,790.5504055420822
1731654247.3557472,808.6688011471184,802.815975164943,806.2960905014937,791.7030248327749
1731654247.3564503,817.8600611554675,802.7601891789325,804.7364859536881,792.9327305737916
1731654247.357936,818.1850849985739,802.7021906258092,804.4304813135462,793.9191048159894
1731654247.36185,810.9654175824116,802.6366983995914,805.6344715450637,795.3457458439882
1731654247.3657644,802.5675610013951,802.5622012053992,807.4084965355363,798.094545549475
1731654247.3696785,799.1839437051426,802.488179057555,808.1478146096019,802.2092343533097
1731654247.3720124,802.1745691615303,802.4359321145205,806.7501854609706,806.5192163505407
1731654247.372659,807.5769460625708,802.4233442466378,803.5850362945695,809.2852917033345
1731654247.3735929,809.9228184984399,802.4344572896421,800.4303211110258,809.4098747816801
1731654247.377507,806.9895548507498,802.398053358222,799.2651770349255,807.2831770389122
1731654247.381421,801.516064475286,802.2186888524608,800.7770748326479,804.6197715519828
1731654247.3853354,798.6657054337845,801.8857508449452,803.8068228259505,803.4396165865346
1731654247.3875744,801.6182728000958,801.608902071576,806.239155906346,804.9456992741549
1731654247.3892496,809.0063046440762,801.828488280778,806.5870288206286,808.961530057091
1731654247.3906322,816.093022504037,802.9521022030829,804.9088006322983,814.0600662024821
1731654247.3914783,818.4979616208167,804.9024634316833,802.3795473437073,818.1568279102098
1731654247.393164,815.4924868316878,806.9063609612342,800.1321028606308,819.3609035462626
1731654247.397078,810.4745762990876,807.945773693517,798.5595739534564,816.911869058093
1731654247.4009924,808.3954506666574,807.6711364158114,797.5829734647024,811.7979263510716
1731654247.4031365,812.0720468948351,806.9170982379017,797.2698323284202,806.4827371915992
1731654247.4049065,820.1257940211738,807.153213545507,797.9061605861931,803.5961267964228
1731654247.4088206,828.1511947922834,809.2181587937034,799.4239528956064,804.3354036170047
1731654247.410298,832.2391445978224,812.4589098914944,800.9561222873001,807.7862759309897
1731654247.412735,831.9535586444396,815.0764716520348,801.2033682782068,811.7312641721935
1731654247.416649,830.1350353710781,815.3985298499193,799.4048639241769,814.2443419039213
1731654247.4186983,829.5981642285641,813.0274975654949,796.044787594783,814.7349581774072
1731654247.4205637,829.7159569066486,809.010162494795,792.6657696669256,813.767478565658
1731654247.4244776,826.3026824799613,805.0405080336492,790.957028781306,812.1990155490842
1731654247.425517,815.4263921207548,802.4165885930761,791.8286912876935,810.607343307552
1731654247.428392,798.052094907524,801.4827645063924,795.0576267043245,809.2955400553799
1731654247.4291177,781.1055429859202,801.7451149020974,799.550098919752,808.4379143441191
1731654247.432306,773.1885027435221,802.3379691175945,803.8624271528145,808.0627223506465
1731654247.4342606,777.8736503540883,802.4648214344023,806.6507182343512,808.0237070976964
1731654247.4362202,790.1992126706684,801.7089812110023,807.0068514063718,808.1058955729229
1731654247.4401343,799.8803521262295,800.2629810488794,804.7821341189714,808.1610632488768
1731654247.4440486,799.1878219212773,798.9838681334276,800.8402412905525,808.1499378796921
1731654247.447937,789.1850616750095,799.0557070609589,796.9602847943676,808.1006112438142
1731654247.447963,779.0514789921527,801.2812186251741,795.1793028990933,808.0512853805386
1731654247.449823,778.8635267047259,805.4668479909858,796.765126147967,808.0202275445963
1731654247.451877,791.5862921244094,810.4476255548668,801.4125019760918,808.005597752589
1731654247.4557917,810.5925881398487,814.7802913758641,807.2604486377196,807.9980304783612
1731654247.4597056,824.5168727990156,817.5037074665212,811.8443917433461,807.9907740323524
1731654247.4604025,825.5622601391306,818.3352425940745,813.4481246935059,807.9824243179643
1731654247.4636197,814.9789292145539,817.3125231772731,812.0128958369228,807.9747606596042
1731654247.4653847,801.8347468791494,814.484711178561,809.0472939287954,807.9698263985485
1731654247.4667566,796.2327902900099,810.1066953916195,806.6318348084452,807.9685082395696
1731654247.467534,802.0373861762004,805.0586562044016,806.1456151337611,807.9706472701671
1731654247.4714482,814.3668702820968,800.7957422824031,807.4607061325055,807.9757391042886
1731654247.4753623,823.605826886454,798.6008718066643,809.0715377985122,807.9834500841814
1731654247.479277,822.8778815637505,798.7608202041816,809.1070631516525,807.9937319966574
1731654247.4809468,813.2473362671531,800.470730221818,806.6203637239531,808.0066919994815
1731654247.483191,802.6176658419637,802.5278320945758,802.2934115136705,808.0224373088779
1731654247.4855762,799.3013902567712,804.0958162940268,798.0330585775207,808.0410049222623
1731654247.4871051,805.527953500824,804.9162561331589,795.7374827180757,808.0623726529955
1731654247.4910192,816.0789764245344,805.0670242685767,796.1503528436739,808.0865025234673
1731654247.4949336,822.8772129448616,804.7399693870866,798.6157772683982,808.1133770463563
1731654247.4952874,821.49818780837,804.19807520262,801.7846556559083,808.1430111926455
1731654247.4965088,814.2777205283969,803.7239086673152,804.5875121405455,808.1754349171895
1731654247.4988475,807.7829509988636,803.4852381897708,806.6967490564708,808.2106491123342
1731654247.502762,807.083647484606,803.46818880364,808.2485556697193,808.2485779548157
1731654247.5043955,811.6807466009938,803.5536315059685,809.2403306719388,808.2890703694311
1731654247.5066762,816.3631771669756,803.6347591450914,809.2239979260764,808.3320066868996
1731654247.5105906,816.1022098797337,803.6713134422996,807.5825929065296,808.377494476455
1731654247.512071,810.7208598757168,803.6750132794247,804.1499245195314,808.4259897622551
1731654247.514505,805.2544373704053,803.6720177201648,799.6437158149388,808.478070767977
1731654247.5184188,805.5969362845581,803.6781600524165,795.5180064655792,808.5337329539753
1731654247.5223331,813.1563877366643,803.6948816471476,793.2672615899692,808.5915947850798
1731654247.5232153,823.2018957501704,803.7165179144055,793.6213009328236,808.6490497926902
1731654247.5262473,828.4508777587953,803.7378832544206,796.1682157567114,808.7043988651028
1731654247.527633,824.9453866520284,803.7572361326642,799.6498589051894,808.7604899165443
1731654247.5301616,815.3152776306513,803.7754028212427,802.7025379104072,808.8265736317869
1731654247.5301723,806.7206333106958,803.7937966467401,804.5302669787133,808.9133109442959
1731654247.5340755,805.1566676205392,803.8131998686595,805.1121624347393,809.019104253693
1731654247.53799,810.7501596020077,803.8336343482323,804.9315566417903,809.1161095171914
1731654247.5419042,817.847448219441,803.8547808383951,804.53310155411,809.1558284611057
1731654247.5420349,819.805332545102,803.8763718836058,804.2324931388823,809.1120896721826
1731654247.543195,814.5707085804111,803.8983278341719,804.085827088143,809.0484253402885
1731654247.5458183,806.4541384349125,803.9206978571157,804.0151310708304,809.1439231089913
1731654247.5497327,802.5560380031078,803.9435548383615,803.9376068071256,809.5838510124507
1731654247.5536468,806.6707727195179,803.9669368024038,803.8214388284708,810.2914793163028
1731654247.5575612,815.6516934928185,803.9908442046295,803.6770302900296,810.6704740729011
1731654247.5587573,821.3769170709185,804.0152600242255,803.5265650564959,809.7161689245005
1731654247.5608542,817.0068055433334,804.0401633481735,803.3834691919374,806.7303912698785
1731654247.5614753,802.6629280524029,804.0655314044008,803.249024510838,802.2461189112803
1731654247.5650575,785.8576393424574,804.0913436010372,803.1184912402289,798.158183416316
1731654247.5653896,776.0039132350323,804.1175999598738,802.9874990455467,796.4610638598975
1731654247.5693038,777.1813890085201,804.144345118742,802.8545622888297,797.383469366341
1731654247.573218,785.088879909204,804.1716627927982,802.7203584997798,798.6275399530718
1731654247.5743191,790.9477214901518,804.1996039230744,802.5860666735967,796.7622598864909
1731654247.5771322,789.2784186809546,804.2280637316763,802.4523398123988,790.0659810282164
1731654247.5796738,782.9104340423493,804.256720038669,802.3191920588876,780.6695422212827
1731654247.5810463,780.7113218792088,804.2852054552355,802.1863494282233,773.9493296397849
1731654247.5849607,789.7824960674848,804.3135741332412,802.0535806542642,775.0060477132625
1731654247.5888748,808.7784446629936,804.3427751862258,801.9208128633048,784.5495912860167
1731654247.5898812,828.0949073873206,804.3744530140101,801.7880826800985,797.5101567223854
1731654247.5927892,836.7431867665667,804.4094716413576,801.6554472883024,805.9613120403518
1731654247.5967033,830.1483231207104,804.4456155695232,801.5229336574185,804.5530358887247
1731654247.598493,812.7234728939459,804.4767171709659,801.390535213923,794.4256601552812
1731654247.5999427,793.832124351042,804.4963717929102,801.2582301508689,782.5391453889147
1731654247.6006174,781.1380115508321,804.5069264000406,801.1259976294335,776.8186319313764
1731654247.6045318,776.6963110533727,804.5276725775097,800.9938249502532,780.6990556612465
1731654247.6054432,777.8277525202543,804.5892845474202,800.8617100317832,791.0636769321047
1731654247.608446,780.5951441720506,804.7043603008965,800.7296625424576,800.9525865409222
1731654247.6123602,782.5291767583436,804.8252488880545,800.5976993649923,804.8120950876673
1731654247.6162744,783.1682994940643,804.8337859502108,800.4658270861031,802.242002896403
1731654247.617313,783.1483321601993,804.6207438048001,800.3340149977154,797.5631663370493
1731654247.6201887,783.1619173952519,804.2602246288105,800.2021841810976,795.916612283093
1731654247.6210053,783.4876065084063,804.1567042246122,800.0702510407781,799.2233248234982
1731654247.6241028,784.0500369508152,804.9309217722024,799.9382356341291,805.1241693970271
1731654247.6280172,784.6681867337993,806.914001375143,799.8063638956676,809.3794486592899
1731654247.6319313,785.2285069501627,809.5356962518941,799.6750069495787,809.472482562635
1731654247.6348276,785.7173118427544,811.2550635017744,799.5443292680623,806.4848458267206
1731654247.6358454,786.1723468328062,810.3903567401446,799.4137706807472,803.960061078256
1731654247.6361325,786.6298501707728,806.3706562872413,799.2818948131095,804.8956088191408
1731654247.6365674,787.1027458134784,800.4342657610089,799.1473105217583,809.3051766960178
1731654247.6397598,787.5858399946242,795.146749490694,799.0107505990305,814.1783661347553
1731654247.643674,788.069376668036,792.9665253388165,798.8768221352426,815.7738022834772
1731654247.6475885,788.547715611586,794.7929443143015,798.7524515908337,812.4345492255237
1731654247.6515024,789.0204916854011,799.4767143457244,798.6399099579874,805.7637743397148
1731654247.6521294,789.4898179464258,804.5887565235646,798.5273971174986,799.320428634167
1731654247.654952,789.9575359001104,807.8650010643989,798.3877259435347,795.9784935085804
1731654247.6554167,790.4242041474163,808.3707428200873,798.1980433641389,796.0994441817481
1731654247.6593308,790.8894661653112,806.7535686989904,797.9806867506054,797.8376494368189
1731654247.663245,791.3527810731183,804.5945835240119,797.836466934346,799.0167491325615
1731654247.6671593,791.813853813044,803.3643904638949,797.9200919330401,798.7978396986333
1731654247.6676917,792.2726673395795,803.6373120790524,798.3354438481316,797.8110679883963
1731654247.6697128,792.7293236262898,804.9912503931342,799.0143463795539,796.9433708183527
1731654247.6710734,793.1839018363489,806.5366861442161,799.7048659816422,796.0976177354071
1731654247.6737714,793.6364124827431,807.595360798384,800.1324908879817,794.0813148521353
1731654247.6749878,794.0868214801857,808.0250244760257,800.2385827259016,789.6969786177779
1731654247.678902,794.5350891988967,808.0552687397417,800.2961311438544,783.0861430372358
1731654247.6828165,794.9811915519671,807.8948824482568,800.7642464262314,776.163288305008
1731654247.6832535,795.4251201701658,807.4755459225613,801.9492512349839,771.6564693150754
1731654247.6867304,795.8668734632225,806.5224016039584,803.7366773055645,771.3557332083129
1731654247.6906445,796.3064493321222,804.8811235209739,805.6331529783824,774.8572316299044
1731654247.692591,796.7438431263005,802.8269471254764,807.0733652339263,779.797218206486
1731654247.6945589,797.1790491119051,801.0419632856556,807.6887112708682,783.4734335827607
1731654247.698473,797.6120625106153,800.1733613159721,807.3186899331301,784.7188515115243
1731654247.6988156,798.0428804872743,800.2884371073671,805.8835452796031,784.714114889299
1731654247.702387,798.471502045126,800.7545946262217,803.3943214316794,786.1627765101742
1731654247.7045977,798.8979274931396,800.7756575483282,800.1466422980468,791.3483408579805
1731654247.7063017,799.3221580383566,800.1844724278953,796.8353717612266,800.3704540671475
1731654247.7102158,799.7441956620818,799.7459116190399,794.3540989053237,810.836731622343
1731654247.7114103,800.1640431681774,800.6023635993615,793.3819353239071,819.3422099861333
1731654247.71413,800.5817042433382,803.3020391374887,794.09283734011,823.7032220058745
1731654247.7143776,800.9971834494492,807.2793856191075,796.1825889076707,824.2026081701256
1731654247.718044,801.4104861589169,811.2368667837247,799.0934689103934,822.8482618514635
1731654247.7219584,801.821618485857,814.0335735038473,802.2021867538124,821.3819362248443
1731654247.7258725,802.2305872545761,815.2886789461282,804.906157472662,819.930975845525
1731654247.7297869,802.6374,815.298652032621,806.729371584096,817.5721443299936
1731654247.7299397,803.0420649398156,814.5375808870607,807.5225264805108,814.1667177015618
1731654247.73023,803.4445908380497,813.2759468890605,807.6195444705039,811.4742686241715
1731654247.733701,803.844986746257,811.5945791527289,807.7182747276955,812.1529221817183
1731654247.737615,804.2432617717458,809.665644819538,808.447425610641,817.3093387444595
1731654247.7394829,804.6394251773108,807.962784022213,809.9140091010211,824.8226349732132
1731654247.7415297,805.0334870339543,807.1278046258786,811.6328777672451,830.2101030265709
1731654247.7454436,805.4254591355227,807.5010743445355,812.9253266984742,829.668704211784
1731654247.7455018,805.8153551173802,808.6585307706498,813.4215816095035,822.9710958243736
1731654247.7490497,806.2031884761558,809.4138827619669,813.2304326037067,813.8171689493527
1731654247.749358,806.588968511372,808.4488847423335,812.7213292884863,807.1674671423498
1731654247.753272,806.9726972588359,805.2051654575732,812.2131620831176,805.5186728630296
1731654247.7571864,807.3543731165311,800.3819681521766,811.8298578209855,807.071799482426
1731654247.7610638,807.7340046975191,795.6431968083236,811.5425655361539,807.3601010271598
1731654247.7611003,808.1116282667277,792.734400725911,811.2775395420176,803.0928069543303
1731654247.765015,808.487308097226,792.6092466938657,810.9887057303913,795.0388787735696
1731654247.7678692,808.861096500493,795.0556021806158,810.6709588378799,787.5027458345031
1731654247.768929,809.2329580721128,798.8993949781242,810.3400831179475,784.8209805953613
1731654247.7728431,809.6027207398226,802.569260884007,810.0110055317126,787.8253766352534
1731654247.7743678,809.9701602635826,804.7696867678158,809.6889633379698,793.186881031998
1731654247.776626,810.3352723150527,805.0461925252941,809.3717553333363,796.1094923509937
1731654247.7767577,810.6985853845038,803.9945755319717,809.0553549708336,794.1407184275205
1731654247.7806716,811.0611137429631,802.9090093168273,808.7374626967311,789.0709057623166
1731654247.784586,811.4235413005647,802.9537495346282,808.4179534269415,785.4849069430445
1731654247.7866886,811.7848024813452,804.3362434812555,808.0977101616569,787.1493758944238
1731654247.7885,812.1413231530223,806.0708953909091,807.7774928850864,794.0502606719629
1731654247.792188,812.4889005951263,806.5637376924404,807.4575293213736,802.358302426876
1731654247.7924144,812.8279903165484,804.6686589774847,807.1376712633943,807.347148560293
1731654247.7963283,813.1692335140675,800.5179951610411,806.81769571924,807.0132364972592
1731654247.800243,813.5315089539947,795.5661622626204,806.4974799708713,803.5716575612066
1731654247.804157,813.9254240905738,791.7991511133797,806.1770141388928,801.63819258523
1731654247.805508,814.3269273310246,790.6124602476046,805.8563384753887,804.5509179007252
1731654247.80775,814.6662916716288,792.0829479940161,805.5354895021312,811.7907318844068
1731654247.8080711,814.8688600425444,795.0916838356696,805.2144817502997,819.5155763574614
1731654247.809253,814.9569395784066,798.1635462327762,804.8933080475632,823.6211991666636
1731654247.8119855,815.1456988816399,800.3943810040442,804.571936626856,822.7382509798828
1731654247.8158996,815.7852801049189,801.8116160057076,804.2503071287853,818.8314132972853
1731654247.819814,817.027960018557,802.9877402415707,803.9283512594188,815.206078037101
1731654247.823312,818.3354260160472,804.324820820364,803.6060571307613,813.8196085190857
1731654247.823728,818.3178911980267,805.6546755929365,803.2835456622117,814.1175774581357
1731654247.8243277,815.5408143086106,806.4643858378538,802.9610601469172,814.0816234965195
1731654247.8276422,810.2922167095077,806.475067835509,802.6387641802803,812.2597309707028
1731654247.8315566,805.8733512511359,806.0068247504831,802.3163852921593,808.9204622165535
1731654247.835471,807.2817837296985,805.7964869473631,801.9930179481051,805.537844447684
1731654247.838874,817.0981166075438,806.4365603475077,801.667584890298,803.4140383544692
1731654247.839385,831.8242877529491,807.9051645680802,801.3401603098873,802.8109417468703
1731654247.8431473,842.7353479526754,809.5397401342987,801.0133747601064,803.1338124647174
1731654247.8432992,841.6930211526532,810.4460081224104,800.6919676423927,803.6369956835306
1731654247.844138,827.6082302644927,810.0405614260022,800.3786800453357,803.9143621229093
1731654247.8472135,808.0334910588582,808.3656084062328,800.0676030683138,803.9394642056536
1731654247.8511276,794.0849968118068,805.9780632985697,799.7412736821992,803.8590493554057
1731654247.8544362,792.4757719927533,803.5164968865095,799.3807047280592,803.800474760728
1731654247.8550415,801.0376013076474,801.3188944849538,798.990906339431,803.8024710504459
1731654247.858956,811.2770548531266,799.4501018466186,798.6252874787679,803.8412232948355
1731654247.8619668,815.5718396440719,798.1035864305602,798.3717922994473,803.8808127255072
1731654247.8628702,812.7952490994155,797.8849456163755,798.2695883398845,803.9025100306552
1731654247.8667846,807.8501725881556,799.4941958074975,798.1835177931566,803.9066420886793
1731654247.8699982,806.1566247269703,802.9262167816629,797.7573375608381,803.9014929045624
1731654247.8706987,808.4431245236683,806.9353920395029,796.6014577259905,803.893563062103
1731654247.874613,810.4798460123736,809.4427037552898,794.7017109173165,803.8844983002581
1731654247.8785272,807.6394867590229,808.7692052570275,792.6911296857346,803.8728037504814
1731654247.8790233,799.8607030055016,804.810294481657,791.5680574300195,803.8565443376003
1731654247.8807864,792.4051907696223,799.2474627828506,792.0168485574869,803.8347816808323
1731654247.8824413,791.5843619971871,794.6006787815103,794.0158116945039,803.8075691020514
1731654247.8855605,799.0122247832613,792.733900709377,797.0480202470876,803.7753282918279
1731654247.8863556,809.3515248515923,793.7835281016287,800.4894207652336,803.7383488029825
1731654247.8902698,813.8502783758944,796.2217104691871,803.708373247282,803.696655422288
1731654247.894184,807.2492180733353,798.0409812992028,805.9695235565796,803.6501230051763
1731654247.8980982,792.615097580664,798.2511068051007,806.5216356832431,803.5986326055536
1731654247.8996058,779.9414395493853,797.5794327773154,804.9747303267217,803.5421452990558
1731654247.9011223,779.1597348748187,797.8004465076971,801.6747256597466,803.4806743082258
1731654247.9020126,792.7156013642575,800.1734334814631,797.7053144203873,803.4141988692593
1731654247.9059267,813.4031965586965,804.2154217457287,794.4225797356686,803.3425940326941
1731654247.9098408,829.2315840209335,807.8331871322322,792.8100416465007,803.2656615214623
1731654247.9137552,831.7665647914846,808.786452059654,793.1156559391094,803.1833089534082
1731654247.913908,821.7707996389521,806.3724348522462,795.0012707634144,803.0957963793552
1731654247.9166844,808.0578948829406,802.0112859892079,797.959108873668,803.0037851386134
1731654247.9176693,800.6432621114305,798.2838301322975,801.523246522094,802.9078665592523
1731654247.918425,803.5290444899745,797.2032449981568,805.1281187436739,802.8075725789743
1731654247.9215837,812.559922342047,799.0431062892195,807.9851047252516,802.7006202897862
1731654247.9254978,819.6827470188841,802.4768652490477,809.3895598474704,802.5837967618554
1731654247.929412,819.8418530650575,805.6841669625013,809.2986038912576,802.4563716290914
1731654247.9322462,814.7535720445743,807.4384233913071,808.5087075227168,802.3244289369064
1731654247.9333262,810.6364350420888,807.4699275109566,808.0317097135178,802.2010406668192
1731654247.9372404,812.2256497416282,806.1614516195007,808.1463008378673,802.0965135931365
1731654247.937245,818.4531390097744,804.0923884906778,808.1028281578766,801.9997181259971
1731654247.9411547,823.4313198992822,801.8028683268535,806.9050829156347,801.8658058950458
1731654247.9450688,821.6563704258795,799.7649456285336,804.4833300850954,801.636629096427
1731654247.9478085,812.9098497748656,798.3773027300593,802.0924024397319,801.3075068474591
1731654247.9487932,802.8518004141355,797.8846320784111,801.4594437208732,801.0046040369114
1731654247.9489832,798.8768964907142,798.2433578390783,803.3767390824594,800.9740305807568
1731654247.9528973,804.4220694439164,799.02360091875,806.9460332005797,801.379909928625
1731654247.9560645,816.0191892957395,799.4957562487787,810.1080223947374,801.9469656322171
1731654247.9568117,825.4032068276357,799.0170841510208,811.0224973354436,801.7468265405473
1731654247.9607258,825.3185492133268,797.5762709551898,809.229967947135,799.5859171437868
1731654247.9633703,814.8300315297489,796.0414613939769,805.7793560011113,795.0954851973484
1731654247.96464,800.1046120236716,795.725303552686,802.3561736383155,789.6763236519959
1731654247.9685545,789.9438423923259,797.4513438089309,800.1751955827108,785.956568049449
1731654247.9724684,789.4098370350688,800.8585117894694,799.4473289145345,785.6658067476412
1731654247.974884,796.4075876387329,804.5737480452754,799.6312446137134,787.8399358737366
1731654247.9763827,803.7391998516745,807.1440361760122,800.0442829180824,789.358488754826
1731654247.9789324,804.8552052000376,807.9610845872252,800.2917961195835,787.536893484895
1731654247.9802969,798.775124031576,807.4550656165353,800.3209620606491,782.457806422839
1731654247.983678,790.4957002229246,806.493502022549,800.2496072308784,777.0425826520452
1731654247.9842112,786.7980481582996,805.5815119455381,800.1922702337167,774.9289820371586
1731654247.988125,790.8686550197721,804.578460554562,800.1895310724328,777.951859029182
1731654247.9920394,799.9436777946252,803.1579770843852,800.2245091352786,785.0789019509128
1731654247.9937036,807.7086812063193,801.5448803731235,800.2660730151173,793.3364036752229
1731654247.9944944,809.3557623923763,800.7447100504666,800.2963875638948,799.8166228429887
1731654247.9959538,805.0782491976464,801.8803500426935,800.3144692193329,803.2903635839493
1731654247.999868,799.1819724469843,805.1127504811333,800.3271923040193,804.4306290030214
1731654248.0037825,795.8191132228297,809.1663005549889,800.340516041394,804.7102641963305
1731654248.0076964,795.3060833924474,812.0620565346585,800.3562864569656,804.9738614857004
1731654248.0100565,794.3814661656676,812.5509614510703,800.3734321783847,804.8889472412897
1731654248.0116107,790.0766236875044,811.0169716810445,800.3903013753815,803.7152438379507
1731654248.0125227,783.478411045952,809.0694843931257,800.4060288749741,801.5900771565539
1731654248.0155249,779.6887817935875,808.2363141110093,800.4206323403633,799.9260120466566
1731654248.0185633,783.6927918111336,808.9163523039889,800.434502500956,800.2958385674002
1731654248.019439,795.5756678260981,810.3858656023868,800.4479518989147,802.7388879782108
1731654248.023353,809.3362127672322,811.630187422933,800.4610705783512,805.2082671394111
1731654248.0256186,816.7200680086409,812.126889255436,800.4738025155643,804.9739960070394
1731654248.0272677,813.3203110699012,811.989747497125,800.4860670077941,800.960979270578
1731654248.0311818,802.0783869295223,811.6140683963125,800.4978226427605,794.9705004054857
1731654248.0313425,791.1378987516106,811.302934190125,800.5090699715676,790.5345994144386
1731654248.035096,787.4893520813669,811.1413875784643,800.519834523674,790.1323393287727
1731654248.0390103,791.4078230136668,811.0711822742098,800.5301598306935,792.95330955829
1731654248.0411806,796.2803365361536,811.0100354588669,800.5401043496996,795.0896956318034
1731654248.0429244,794.1713704828014,810.9171208840954,800.5497148067296,792.2026538556185
1731654248.0468383,782.7498897934886,810.7950610831131,800.558966229446,782.7786953530534
1731654248.050162,767.907200385877,810.6635523342297,800.5677137555801,769.5666337997019
1731654248.0507529,759.7168632796206,810.537332515797,800.5757509689023,758.0926467016944
1731654248.0534484,764.7240152047196,810.4198001979541,800.5830376649138,753.3021203867759
1731654248.054667,780.6070589917587,810.3073538983607,800.5899919340494,756.709961867946
1731654248.056743,797.5335812231737,810.1956296643945,800.5975055193347,765.9492228813398
1731654248.0585814,805.3204615831676,810.0826576640827,800.6062910809668,776.756624406936
1731654248.0624957,800.8815575960294,809.9687222825578,800.6156231844549,785.7315897179326
1731654248.0664098,790.148848379109,809.8548929197144,800.622499210451,791.9252753636955
1731654248.0689816,783.059359688434,809.7419018617625,800.6229976895095,796.4858157163469
1731654248.070324,785.7536352874348,809.6298729440666,800.6167753629323,801.0850437865585
1731654248.0723047,796.1966024914825,809.5185853496753,800.6123312586393,806.4852363690699
1731654248.074238,806.3872202808457,809.4078013346208,800.6264088875838,812.1267140851161
1731654248.0781524,808.9500273161347,809.2974145263662,800.6706482730879,816.7159920677071
1731654248.0820663,802.6954639910991,809.1874273757611,800.728035902196,819.2099319460082
1731654248.085981,792.9968700616015,809.0778722329883,800.7400316300833,819.5079511295327
1731654248.0878012,787.1334822012432,808.9687655430002,800.637796698211,818.4218193736247
1731654248.0878668,788.5520286500783,808.8601130452051,800.432312156583,816.9683412956718
1731654248.0883334,794.5407387096146,808.7519302152814,800.3156826224922,815.5519974278357
1731654248.089895,798.9506481004078,808.6442311073953,800.6571318308656,813.768297541479
1731654248.0938094,797.6139202830749,808.5369710483391,801.8088321644906,811.0587222746252
1731654248.0977235,791.9811489612595,808.4299903075913,803.8307664117784,807.6147358698645
1731654248.1016376,787.9116821524576,808.3230572957293,806.3952936375151,804.5961508249918
1731654248.1034288,790.5537396741073,808.216082145657,808.962275570239,803.3422348340109
1731654248.105552,799.6397422014172,808.1094109262154,811.0285607626818,804.2521087894917
1731654248.1066208,809.3105407509385,808.0038748127012,812.2826292480954,806.3705188997247
1731654248.109466,812.7829409767083,807.9001959885238,812.7053190320217,808.071258532971
1731654248.1133804,808.010485470141,807.7977613807669,812.6391093775625,808.2431229574184
1731654248.1172943,799.5514032820984,807.6937096405139,812.6850896564866,806.9874111045135
1731654248.118991,794.9531086898287,807.5840749932067,813.3458914800395,805.3206479796361
1731654248.121209,798.4973241657284,807.4680539067454,814.6223032762801,804.2240976012007
1731654248.1232183,807.3977447255413,807.3533349782645,815.9248398350467,803.8518933915699
1731654248.125123,813.6875400308627,807.2561559534756,816.4290764506941,803.4935991336542
1731654248.12544,810.5323537530423,807.1890157278158,815.5911951550261,802.2653173464571
1731654248.1290371,798.069899738484,807.1375449783002,813.4037275729987,799.9856385655611
1731654248.1329515,784.0079299601575,807.0458283871768,810.2703275901639,797.5887274918841
1731654248.134553,778.1894037688619,806.8428846404096,806.754314296498,796.7322150059931
1731654248.1368656,785.1832994387585,806.5268930839226,803.4690146537922,798.7847408949516
1731654248.14078,800.756233764739,806.2628236454918,801.06981443051,803.8523747331722
1731654248.1442597,815.1330924576267,806.3739201245486,800.1281574588689,810.5929541980635
1731654248.144694,820.4902642071936,807.1127434410599,800.8550191880915,817.0649874681336
1731654248.1486084,816.6528281962754,808.2956640068071,802.9131559621578,822.0046445737953
1731654248.150115,810.4554674874793,809.1927051902604,805.526911597489,825.4380081583522
1731654248.1525226,809.4713855911778,809.0100467100003,807.8064736033326,828.0196817108757
1731654248.1564367,815.4310944858499,807.6269573009513,809.030428685621,829.6894532233957
1731654248.1581037,822.8143437941063,805.7567467805171,808.7615262692881,829.0579381918648
1731654248.160351,823.7142498884372,804.2788323929854,806.8826396060354,824.4226248208392
1731654248.1630793,814.8065604060729,803.4668272092143,803.6526343985884,815.7424057770169
1731654248.1642652,800.4927717034315,802.9050838902489,799.7260851477747,805.6996212393695
1731654248.1656773,789.5277936764297,802.063415089566,796.0027676114829,798.475498778961
1731654248.1681795,788.0014527194026,800.8746148641624,793.2904387760043,796.8696342206454
1731654248.1720936,794.6731607796097,799.8162896889324,791.9555997795097,800.1370476891432
1731654248.176008,802.5957295603022,799.5426414673474,791.8118556737716,804.5978169476551
1731654248.179922,805.466792122097,800.4189610720703,792.3629957219622,806.7191659785809
1731654248.1812391,803.0712172199634,802.2446273152406,793.2383956083196,806.0669356679748
1731654248.1818988,801.1098412356962,804.2786704504433,794.4499476464,805.5116482426259
1731654248.1838362,805.7055262725647,805.5747020704523,796.2139139911217,808.4742405821223
1731654248.1877506,817.4591789439653,805.5019816484908,798.5024141228039,815.6155089166141
1731654248.1916647,830.2119574937692,804.142549999384,800.8118600000222,823.8411892066074
1731654248.1929886,835.624124526987,802.2334467441594,802.4518190978257,828.4774050839361
1731654248.1955793,829.8301041909333,800.6529312866436,803.0954559469271,826.8183283120053
1731654248.1968012,816.7326796411572,799.8705003234253,803.0091457896322,820.1959586409164
1731654248.1994932,805.2120694530422,799.7969210960792,802.7059644830495,813.0022637776365
1731654248.2007184,802.3988778431138,800.0482829973042,802.4181768267745,809.5164808095241
1731654248.2034075,808.3196370022602,800.2914015590188,802.0092580601197,810.9917979691215
1731654248.2073216,816.1644864852487,800.3991961264726,801.4384552133265,815.0937839636478
1731654248.2112358,817.9487430499914,800.4048040684502,801.1973463514956,817.9110243896812
1731654248.2123632,811.0070625019155,800.3869853789612,802.0854450681915,816.8958698177973
1731654248.21515,800.1065858884182,800.394062820253,804.4142256585676,812.5697999760141
1731654248.2190642,793.5417200907144,800.4308013373646,807.4399094443123,807.8644552281265
1731654248.2195375,796.4071075906508,800.4801649968359,809.6938485618621,805.7011179290888
1731654248.2229786,806.3966674557836,800.5263493047487,810.0103001622625,806.6235412436616
1731654248.2268927,815.3721339909586,800.5639309365713,808.3745122962201,808.232999909918
1731654248.2278736,815.4685532020906,800.5953205425983,805.9110688755712,806.9225476007791
1731654248.2279253,805.1490984217653,800.6247753508103,804.115226351278,800.7788333311571
1731654248.2308073,790.7097513785981,800.6546728665159,803.975437168768,791.5579848592184
1731654248.2347212,782.0198554542087,800.6850843320401,805.5298969564333,784.0677563337778
1731654248.2383573,785.4629889008777,800.7150328895642,807.9544987567483,783.0353872199216
1731654248.2386353,799.2463108895779,800.7436896964888,809.9986945279016,789.5535732759129
1731654248.2425497,814.7068206740183,800.7707959982022,810.5767526987336,799.8722787954541
1731654248.2434874,822.7011835832387,800.796488782004,809.332560349112,807.7388680895184
1731654248.2464638,820.0111375860737,800.8209790234997,806.8988608396512,808.6492472577851
1731654248.250378,810.6672989938946,800.844367626725,804.5833850917367,802.6884164258171
1731654248.2542922,801.6370914204991,800.8666355656383,803.549349814951,793.8224807363104
1731654248.2571769,797.2922369602123,800.8877150717531,804.0138267237479,786.595873152414
1731654248.2582066,797.4272192970142,800.9075511867782,805.0868936295872,783.2139744186937
1731654248.2590494,799.31266774516,800.9261207230561,805.4281618207523,783.0746987710611
1731654248.2621207,800.630908927437,800.9434210784788,804.2603230925597,784.2856337659935
1731654248.2627587,800.7044688738108,800.9594530911762,801.9907262100278,785.3327785416847
1731654248.2660348,800.0101898398572,800.9742120529922,799.9721812704473,785.7168609045323
1731654248.2699492,799.2316305762891,800.987687851825,799.557636335872,785.6562433925048
1731654248.2738633,798.7169130018546,800.9998689548597,801.1200251935427,785.5314447200881
1731654248.2746117,798.4534340532811,801.0107455590517,803.7451876130227,785.5517641778387
1731654248.2759964,798.2817875751439,801.020310420131,805.8143000378469,785.7211507266454
1731654248.2777777,798.0792448676186,801.0285581715119,806.0336378762123,785.9525500336753
1731654248.2816918,797.8156381537486,801.0354844264733,804.1735372689883,786.1741451159135
1731654248.285606,797.5195248374822,801.0410853544271,801.0766740002365,786.3655746928238
1731654248.2895205,797.226943871934,801.0453577277272,798.0775809330802,786.5413733726979
1731654248.2901735,796.954712974335,801.0482991359404,796.3017753929925,786.7220571950043
1731654248.2934344,796.7009602913781,801.0499081276381,796.1999149575653,786.9179601846469
1731654248.294816,796.4570303368895,801.0501842291935,797.4339548976668,787.1286492885573
1731654248.2973487,796.2168397827003,801.0491279203677,799.1402297653522,787.3494002614499
1731654248.2976437,795.9792913600376,801.0467406562866,800.4719095154795,787.5766619746762
1731654248.3012629,795.7461956739094,801.0430249402266,801.065785789549,787.8096715704605
1731654248.3051772,795.5195607034119,801.0379843411354,801.0845946236072,788.0494059166181
1731654248.3057356,795.3003031024747,801.0316233131604,800.9011957222982,788.2970432760092
1731654248.309091,795.0883758289629,801.0239468095116,800.7839842130222,788.5531756284292
1731654248.3130057,794.8834247837995,801.0149599902264,800.8011682874046,788.8178357822895
1731654248.3136356,794.6852625094143,801.0046685826258,800.8963292438395,789.0908577317487
1731654248.3169198,794.493967203504,800.9930802356292,800.9960460082164,789.3721550489604
1731654248.320834,794.3097587153685,800.980206208724,801.0658928995427,789.6617900526289
1731654248.3212976,794.132856090548,800.9660613723747,801.1098553871569,789.9599097904444
1731654248.3247485,793.963416242717,800.9506602677137,801.1459848621826,790.2666647606487
1731654248.3286624,793.8015460281251,800.9340097150866,801.1871151948963,790.5821710110619
1731654248.3324547,793.6473385599337,800.9161041270484,801.2358244068016,790.9065145667157
1731654248.3325288,793.500897141152,800.8969339141801,801.288674015546,791.2397712077634
1731654248.3325768,793.3623381145155,800.8765121179027,801.341789444529,791.5820202806304
1731654248.3364909,793.2317815555248,800.8549047170177,801.3935307575953,791.9333470470758
1731654248.3368597,793.1093419121524,800.8322254074393,801.4442442275795,792.2938385564868
1731654248.3404052,792.9951262608708,800.8085552976133,801.4949144650534,792.663579718181
1731654248.344319,792.8892417124775,800.7838046360762,801.546186140648,793.0426527972355
1731654248.3482337,792.7918068558002,800.7576406594023,801.5981557599038,793.431139341527
1731654248.3512745,792.7029554462216,800.7296741360494,801.6506245287644,793.8291210317632
1731654248.3521478,792.6228189930093,800.6999765739679,801.7033915738737,794.2366762466299
1731654248.3524218,792.5514875700766,800.6696148432937,801.75638161346,794.6538728312233
1731654248.356062,792.4889774808057,800.6404491148176,801.8096219101905,795.0807636522599
1731654248.3599763,792.4352613794376,800.6135105940101,801.863168497124,795.5173954062129
1731654248.3638904,792.3903992002228,800.5864333762543,801.9170555550816,795.9638351502582
1731654248.3674138,792.3547128479196,800.5524190314171,801.9712850354899,796.4201990396299
1731654248.3678048,792.3288086236919,800.504272540398,802.0258402162884,796.8866441047707
1731654248.3679838,792.3132128020435,800.44437065984,802.0807044629877,797.36328585178
1731654248.370094,792.3076369197274,800.3939437712318,802.1358764971577,797.8500630121786
1731654248.371719,792.310449508595,800.3872751194218,802.1913779608042,798.3466758747397
1731654248.375633,792.3193958964653,800.4392656772427,802.2472452479311,798.852785338632
1731654248.3795474,792.334175128341,800.4982557403964,802.303497498587,799.368529033015
1731654248.3834617,792.3595913114829,800.4333496066173,802.3600907065127,799.8950246681479
1731654248.383546,792.4054601028457,800.1211184565211,802.416901858132,800.4341118164965
1731654248.3873758,792.4791016149983,799.6395612849052,802.4738046016057,800.9866971144546
1731654248.3889136,792.5714979279848,799.4360772799052,802.5308486170605,801.5502557304454
1731654248.39129,792.6488327373723,800.2105804013445,802.5884207043797,802.1180018896861
1731654248.3952043,792.6688484807145,802.3666653269631,802.6471298055811,802.6831483939203
1731654248.399108,792.6311550483603,805.3524512002338,802.7072168930246,803.2488143459286
1731654248.3991184,792.633367617503,807.6308632794368,802.7677170146009,803.8366727131597
1731654248.4022987,792.8591163632678,807.6603224623994,802.8262626694512,804.4801012860071
1731654248.4030323,793.4247302635314,805.2209516239011,802.8806651692422,805.1912557356854
1731654248.406947,794.119215961382,801.8579500970925,802.9323342145609,805.9153961870638
1731654248.4077332,794.271575408224,799.9004607108296,802.9890045532403,806.5221354978377
1731654248.410861,793.0998797747325,800.7877334881348,803.061891054624,806.8958686771649
1731654248.41467,790.6510129663269,804.0338418135868,803.1540299065673,807.1272145756809
1731654248.4147754,788.6786778140485,807.5816193581984,803.2451022055845,807.6664619648473
1731654248.4186895,790.1039729897985,809.1654271897331,803.290258220221,809.1943356278331
1731654248.4226038,796.527589838788,807.6468592555907,803.2536012518719,812.1153091554951
1731654248.426518,805.8107860520485,803.5313902004197,803.1747939762463,816.0022037991623
1731654248.4265528,812.8648978075046,798.5822523218736,803.219471805154,819.5750204514533
1731654248.430232,813.8744060038749,794.9357267891008,803.6296845998681,821.4463474486926
1731654248.430432,810.1681064667563,794.1597495887394,804.5475942359808,821.1652412678174
1731654248.4343464,807.790807601172,796.5710816634426,805.850364895774,819.7333830287366
1731654248.437184,812.7533947744806,801.0975571706947,807.2045190634527,819.0935187863628
1731654248.4382606,825.862259194532,805.8823436915256,808.315034143067,820.8597999855201
1731654248.442175,841.4780538696497,809.3992927739612,809.0685520491063,825.2051179970655
1731654248.445372,851.418617479735,811.2957120654434,809.4010984333307,830.7876933154189
1731654248.445794,851.1185055607077,812.1878616256333,809.1136994255113,835.7919253838049
1731654248.446089,843.2311621527324,812.5199070403004,807.9578312520637,839.2028059121114
1731654248.4500034,835.6480213691315,811.637317239544,805.9805897003755,841.2258568641931
1731654248.4539175,835.258662102272,808.2258537055651,803.7592340734835,842.5577778233483
1731654248.4578316,842.388825682711,801.9524892444668,802.1801617028304,843.2743934159639
1731654248.4613562,850.5925967574011,794.7401251641583,801.8362687408727,842.4389125648048
1731654248.461746,852.1709041561153,790.1699802888909,802.5299437687557,838.8787548036065
1731654248.4641917,844.9050590690928,791.1642152927894,803.3560333369106,832.5599398850346
1731654248.46566,834.3199572844093,797.7811463005816,803.3800698585044,825.4347011319392
1731654248.4695745,829.4728442717087,806.9919986298307,802.4179556406483,820.915559400915
1731654248.472069,835.6647662251842,814.6570074267602,801.292445557882,822.0397340481161
1731654248.4734886,850.0170303664461,818.1235727987716,801.2979959854558,829.3941235450562
1731654248.4769182,863.4990167472695,817.4948992684768,803.197339366984,840.3021848007234
1731654248.4774027,867.762936843649,814.8616141604894,806.4769373134078,850.1328182187348
1731654248.481317,861.2992804645554,812.4581864996497,809.4768578418723,855.0689862537558
1731654248.4830112,850.0531953074583,811.3307443080103,810.4017590939983,854.3680036252737
1731654248.4852312,842.218019981309,811.2786531736682,808.536139524801,850.3356175329371
1731654248.4891455,841.6776094677625,811.6022757781641,804.7794710739827,846.057642560234
1731654248.4924805,845.5122518464134,811.7853764773606,801.0999948546729,842.8852247110798
1731654248.4930596,847.3391311471484,811.7003542049348,799.3178665312149,839.8755209914692
1731654248.496974,843.249531620032,811.4622437920802,800.0979641570418,835.5396442857789
1731654248.500888,835.1077311157013,811.2171569485771,802.7762985312884,830.0767067716229
1731654248.5018308,828.5722779671089,811.032841708567,805.936387702007,825.8599833624863
1731654248.5048025,827.8693963887345,810.9009020941454,808.1620065046044,825.6368058248838
1731654248.506954,831.9749100573673,810.7854252569537,808.5057279955196,830.056831332467
1731654248.508042,835.4323527996319,810.6611068947453,806.6590459113874,836.784437423436
1731654248.5087166,833.0425931191199,810.523019676953,803.0287978006367,842.0643473453989
1731654248.5126307,824.4505713186677,810.378082688154,798.735696365362,843.4418527555486
1731654248.5165453,814.723593553766,810.2339934863699,795.3216648409759,841.2865670279184
1731654248.5204592,810.2920439934957,810.093984387264,794.0841228304175,837.817717893136
1731654248.5206504,813.5277487828041,809.9573582356605,795.3609643873712,834.6303447149605
1731654248.5236042,820.5306950423101,809.8221733331295,798.304773410618,831.1611435304176
1731654248.5243735,824.1440240116352,809.6871744117885,801.4108140509765,825.6436586702682
1731654248.5282876,819.8486882049292,809.5521932542707,803.4885707591563,817.6285420645502
1731654248.532202,809.6983703223138,809.4176418144822,804.3765924397143,809.4775954422792
1731654248.536116,800.9879123953286,809.2839325186303,804.8506555153334,805.0842455594541
1731654248.5391662,800.6155873481274,809.1512290588084,805.7919526669175,806.6946741523119
1731654248.53947,809.5504075420847,809.019492919482,807.2875790170069,812.6105204104572
1731654248.5400302,821.7249540208752,808.8886251161463,808.4136571157975,817.9255374532823
1731654248.5418391,828.272298673629,808.758559722289,807.901684475315,817.8600950235452
1731654248.5439446,823.9903010446725,808.6292837427048,805.1545488769417,811.0503255613501
1731654248.5478587,811.1951678124321,808.5008245589358,800.7857905241044,800.2281506373093
1731654248.5517733,797.9911574333308,808.3732402820434,796.2657303653301,789.9345042583791
1731654248.5547285,792.2100388004817,808.2466071431858,793.0169164668309,783.2867332726939
1731654248.5556872,795.7290741371156,808.1209733734322,791.726857089233,780.3779542660179
1731654248.5582893,803.6690746781443,807.9962761923653,792.3542582674836,779.2814058925406
1731654248.5596015,809.0032598989536,807.8722920588426,794.6038701853329,778.3884646427765
1731654248.5635157,808.5772176976053,807.7487465226395,798.2455625539769,777.8811175276204
1731654248.5674298,805.3887685107607,807.6256443547502,802.9363482342839,779.1870956763387
1731654248.5702903,805.2898630175758,807.5036349752636,807.8261762711381,783.1767333518615
1731654248.571344,811.1376574068579,807.3839272630562,811.5134162955648,788.8780388824113
1731654248.5752585,819.5575697882081,807.2672774506985,812.5893052952,793.8333419586629
1731654248.5767243,823.1739114384411,807.1522905790611,810.4471508628883,795.7060007374805
1731654248.5771089,816.5961710425648,807.0345941870278,805.7871892142003,793.8142511298031
1731654248.5791726,801.402910904174,806.909243283102,800.4731436709773,789.5544131407185
1731654248.5830867,786.0427056304907,806.7771480645575,796.7980093779449,785.6027755811921
1731654248.5858524,780.333151834678,806.6515190239157,796.4836269905402,784.4666465001557
1731654248.587001,788.3876275201552,806.5549897508001,799.831433951218,787.1164280827469
1731654248.5909152,805.293018734012,806.4992536008914,805.4399939842466,792.3412159471969
1731654248.594829,820.3137642417341,806.4536820108683,810.7584911512703,797.2747742082095
1731654248.5959284,824.4425864760311,806.3341175152204,813.3512985113341,799.0497907971933
1731654248.5987437,816.6099509900309,806.055479676412,812.241867829412,796.7422229477163
1731654248.6014144,803.819255447167,805.6581583124449,808.4918287144658,792.2380181996779
1731654248.6026578,795.2837435983629,805.4278672291199,804.5594820977017,789.1269178517706
1731654248.6065722,795.3697253288989,805.8430613138547,802.7918240723534,790.1665848413769
1731654248.6104865,800.8882220148612,807.249936002197,804.0340993066432,795.1551801656726
1731654248.6116092,804.5257429540097,809.4558835140921,807.2658606294355,800.9408083390136
1731654248.6144006,801.2358029091467,811.6615217652579,810.4255727093329,803.6840522181794
1731654248.614748,792.3145002719367,812.9060122471816,811.7560110089057,801.679606582252
1731654248.6169765,784.0874262776977,812.6806652878955,810.7275339321677,796.5613810525409
1731654248.6183147,782.5460218049459,811.2150804944785,808.0250742590991,791.9543730020232
1731654248.6222289,788.3603850428044,809.262628584511,804.8114501607848,790.6133222783949
1731654248.6261432,796.2637418086766,807.5761544396164,801.9377014231931,792.2927544656945
1731654248.630057,799.3185980844761,806.424250032842,799.669354910229,794.0762551797503
1731654248.6325386,794.674278093655,805.4637346071897,797.9798558435308,792.955570734888
1731654248.6335676,786.1085121557138,804.0668802097566,796.9731216536244,788.5584018919604
1731654248.6339717,781.0842423073487,801.8748207663522,796.9509451760239,783.6815942689294
1731654248.6378858,784.502081928919,799.1455734669559,798.06940768424,782.049548120245
1731654248.6418002,794.2355992110739,796.6123352909198,800.0041610782711,785.0976637685952
1731654248.6457143,802.3234574256452,794.9938700766472,802.0630015620263,790.5173710013149
1731654248.6464944,801.1082239947955,794.6114462986012,803.7021498686295,793.8927667355898
1731654248.6481006,789.4247748312985,795.4287477557431,804.9316618978722,792.1669983207846
1731654248.6496284,773.7769752395799,797.3574532439876,806.1668141016902,786.1230599635793
1731654248.6523871,763.496108367599,800.3602183760629,807.6481162934625,779.8480887207211
1731654248.6535428,763.7411628925504,804.1054148857438,809.0184450918874,777.5759279441836
1731654248.6574569,771.8961709681224,807.507334183729,809.5108619368141,780.3923001483262
1731654248.6613712,780.1378252321598,808.8175639834279,808.5922857145202,785.4051984546232
1731654248.663663,781.9488980005332,806.5674758332275,806.4487842959927,788.0363982762495
1731654248.665285,777.1746957318428,800.816898359337,803.8622870564064,785.6011381684373
1731654248.6691997,771.5110704553739,793.6377081702367,801.643836616554,779.3309885033519
1731654248.6712065,771.0504826057067,788.1897281736212,800.1993381399559,773.3145499489351
1731654248.6731138,776.6830536888045,786.880073693937,799.5732481367181,771.3556402298505
1731654248.677028,783.1829290889414,789.9234890667929,799.7344409318965,774.3269643704812
1731654248.6792247,783.7344904555337,795.3464932416963,800.6386107283564,779.9822616920276
1731654248.6809423,776.011819896071,800.3455558971752,801.9888084666236,785.0753925971759
1731654248.6813793,764.633466802346,802.940161088198,803.1037155148637,787.8727505666858
1731654248.6848564,757.8631286014315,802.8261779231927,803.2400797484206,789.0730922934015
1731654248.6887708,761.1949254068686,801.0906805561523,802.1546164129946,790.6159612356215
1731654248.690026,773.0108946532995,799.2471323364794,800.3300531071222,793.5833578895482
1731654248.692685,785.8081922548445,798.3166489675674,798.5906539095301,797.0497511190688
1731654248.6947868,792.0040219750742,798.4244516152169,797.454790335147,798.8588505518007
1731654248.6965992,789.6663068038957,798.9653440427008,796.8188581891419,797.6103605509774
1731654248.7005134,783.6007280965348,799.1176866199914,796.2123948676084,794.0381727580759
1731654248.7044277,780.9933288918967,798.4088977140174,795.3356479592602,790.482133435869
1731654248.7083418,785.2507425431212,797.06611122929,794.3963838423094,788.914561023274
1731654248.7088456,793.1580254528443,795.9548475159227,793.9835858995297,789.3363152131902
1731654248.7103488,797.7179690167055,796.0591929798604,794.5925217584365,789.9723357403512
1731654248.712256,794.3104752791406,797.7467735687919,796.1819468666862,788.9848470876395
1731654248.7161703,785.0387148383231,800.3438140563903,798.1380396356199,786.1021273959083
1731654248.7162645,777.5778743784842,802.4675437080492,799.6970506901354,782.8015925572143
1731654248.7200844,779.3044472485569,802.9865214791548,800.4597845653565,781.0279271879842
1731654248.7239988,791.3563261568386,801.8535981783541,800.5519045703683,781.5553542572171
1731654248.725911,807.4556789402887,800.0800227570729,800.3692759772097,783.246240296987
1731654248.7276652,818.6103296489616,798.8940532883993,800.2338949737434,783.7730977932507
1731654248.727913,820.0475766793897,798.8812688274971,800.2497477896277,781.37548992166
1731654248.731827,814.7445672401036,799.8189088769541,800.3653427688299,776.4283260186783
1731654248.7357414,810.5468752371166,801.131586647884,800.4955766837961,771.5588940245964
1731654248.7396555,813.2222249789452,802.3586590074208,800.5944157018919,770.0427621116759
1731654248.741473,821.3740567838,803.2756571395358,800.6614956470185,773.601494022744
1731654248.74357,827.6273282355286,803.8219407966185,800.7163491310528,781.2541706476786
1731654248.7464848,825.0743012354408,804.0518427876143,800.7748717107922,789.9890157821649
1731654248.747484,813.4401796857062,804.0985400094675,800.8414714013583,796.5992547555863
1731654248.7511494,799.7345643955117,804.0991159021418,800.9128697935232,799.3642829836526
1731654248.7513983,792.8416611366137,804.1301804009689,800.9845379646944,798.6621088921399
1731654248.7553124,796.4910732106669,804.2021201907697,801.0542440783099,796.3962581503223
1731654248.757035,806.317093733784,804.2928492333239,801.1221430411213,794.703705595349
1731654248.7592266,813.3771542143198,804.3809294875069,801.1893238878356,794.7023140765357
1731654248.763141,811.2765973810589,804.4588573971968,801.2566019149782,796.0261080412394
1731654248.7653043,801.1300460481926,804.5298910893227,801.3241707283112,797.4105876443787
1731654248.767055,790.3909094599472,804.5999049899881,801.3918413100738,797.7808980932973
1731654248.7709694,786.6620982167357,804.6722354670903,801.4593840193328,796.8810864444489
1731654248.7725973,791.6997547705106,804.7470453301565,801.5267011367831,795.0032256883275
1731654248.7748835,800.4575851421496,804.823031818817,801.593818755719,792.3558818211035
1731654248.778798,805.5975625835456,804.8990759718507,801.6608060839213,788.9460719234157
1731654248.782712,803.3563818099514,804.9748366063785,801.7277139610305,785.1221646704857
1731654248.7841237,795.9037103335307,805.0505196514742,801.7945600445372,781.988143641601
1731654248.7860346,788.7394176098264,805.1264372753982,801.8613433041563,780.8879501412092
1731654248.786626,785.9817977481151,805.2027523153404,801.9280620497339,782.1581167215198
1731654248.7881591,787.7595104596194,805.2794621855193,801.9947222059974,784.3089368942533
1731654248.7905405,791.3521846977521,805.3564956339453,802.0613362171374,784.6732153551177
1731654248.7944546,794.0845974613243,805.4337969555854,802.1279186004613,781.3391755822125
1731654248.7983687,795.0550908779534,805.5113514061768,802.194482829962,774.8900240594885
1731654248.802283,794.8524116886067,805.5891693566585,802.2610407306267,768.3412971300916
1731654248.8029432,794.4181981665705,805.66726424242,802.327603322122,765.0443878622199
1731654248.8037212,794.283478714758,805.745644914095,802.3941817499232,766.1476085820512
1731654248.8061974,794.4794872701351,805.8243213259332,802.4607876637697,769.7689472235445
1731654248.8101115,794.8059056293496,805.9033091752766,802.5274331135543,772.6423099658768
1731654248.8140256,795.0889865568416,805.9826196325694,802.5941302942376,772.8434716999158
1731654248.81794,795.27529739594,806.0622349333497,802.6608913765662,771.2978874889127
1731654248.8192832,795.396642864526,806.1420935386966,802.7277284716581,770.924687091669
1731654248.8209195,795.5016673604897,806.2221223268094,802.794653666376,774.2876356182476
1731654248.8217628,795.615915487062,806.3023309770289,802.8616790581083,781.6533583391828
1731654248.821854,795.7390942012936,806.3829121161465,802.928816758744,790.7639714172632
1731654248.8257685,795.8600405049724,806.4642080812835,802.9960788743061,798.2900570686635
1731654248.8296826,795.9699485003503,806.5464154440838,803.0634774783662,801.9460667431534
1731654248.8335967,796.0665835193122,806.62910928571,803.1310245906661,801.9718687034557
1731654248.8348453,796.1519884315973,806.7110400330766,803.198732161836,800.9915145602855
1731654248.8375113,796.2288255372993,806.79085989481,803.2666120599195,802.1242447279318
1731654248.8405824,796.2984189296805,806.8689559603827,803.3346760559587,806.456295466024
1731654248.8414252,796.3607541499588,806.9491930381394,803.4029358104983,811.7686503363196
1731654248.8453395,796.4153224510571,807.0379126016858,803.4714028653782,813.8019516189341
1731654248.8492537,796.4617988981167,807.1380023226695,803.5400886415188,809.4348923708952
1731654248.8504074,796.5002149377277,807.2401155683926,803.6090044336994,799.4483669106997
1731654248.853168,796.5307901809041,807.3200161074687,803.678161385081,788.6287138145822
1731654248.8558047,796.553717623447,807.3540078858416,803.7475704312034,782.9143776491545
1731654248.857082,796.5690897178144,807.3539319505721,803.8172422346973,785.5669433083831
1731654248.859402,796.5769931243577,807.3965715713772,803.8871871742266,795.1520696923434
1731654248.8609965,796.5776706670588,807.5965615095752,803.9574154569206,806.8107946150866
1731654248.8649106,796.5715677436548,807.9849619447909,804.0279373361216,815.8096221961766
1731654248.8659694,796.5590936069434,808.3378681811618,804.0987632392838,820.5679654072909
1731654248.8688247,796.5401230840098,808.116372876144,804.1699034829113,822.8299825952878
1731654248.8727393,796.5136423968611,806.6948587341351,804.2413674235179,825.1575303987349
1731654248.8766532,796.4782396465141,803.8381421369446,804.3131625135564,828.2748464015606
1731654248.8782215,796.4338327827987,800.070719230518,804.3852944919478,830.7236269497146
1731654248.8805676,796.3837551679707,796.5495176799533,804.4577699210838,830.8686692513534
1731654248.8815317,796.3346398738179,794.4457061751024,804.5306004792196,829.0210736888689
1731654248.8844817,796.2913537180419,794.2834052402322,804.6038050817785,827.5607094932416
1731654248.888396,796.2477816398017,795.7328310923065,804.6774038531431,829.0787295297628
1731654248.8906896,796.1813547694358,797.9853313432378,804.7514018873741,834.3773201207259
1731654248.89231,796.0642434646584,800.3732512381115,804.8257728459511,841.9820434306398
1731654248.8962245,795.8970533602876,802.7137097994203,804.9004660073088,849.2125071607177
1731654248.8970408,795.745902123421,805.113816703493,804.9754576176917,853.6395110235928
1731654248.8970935,795.7334970157618,807.4791901610104,805.0508306505998,853.9225479796992
1731654248.9001386,795.936268572742,809.2702836396913,805.126804703183,849.9435423108142
1731654248.9040527,796.2127976039378,809.8239748044451,805.2036064142168,842.6597287025177
1731654248.907967,796.122795378796,808.958961150369,805.2811572130978,833.8701316799059
1731654248.9118812,795.1775736916027,807.2113248280106,805.358789991308,825.7547738672042
1731654248.9126556,793.5069735218498,805.3665138741251,805.4354449263249,820.1542404360838
1731654248.9157956,792.5544307532392,803.7156420727072,805.5106953900345,817.9073051007067
1731654248.9158604,794.9155099182947,801.8501048917385,805.5862136988169,818.629866492239
1731654248.9197097,802.6539149982984,799.3073235566549,805.6661293645705,820.9985724142051
1731654248.9236238,814.8466785495806,796.4378189345824,805.754289767192,823.2844942699102
1731654248.9255748,826.660407052652,794.4978873637102,805.848295872786,823.8963109468043
1731654248.9275382,831.7323248212224,794.6807003069797,805.9347037711052,821.921918736969
1731654248.9282176,826.7044507189819,796.932428248965,805.9939095668364,817.7024780221432
1731654248.9314525,814.2776055609883,799.7582695595431,806.0204480840922,813.1532846229841
1731654248.93468,801.8759198002653,801.3363681029643,806.0496020807576,811.23350959324
1731654248.9353666,796.4937856835428,800.9752933260628,806.1598817364189,814.2989362449887
1731654248.9392807,799.5941017998327,799.5933154322972,806.4153620652395,822.1340993810265
1731654248.943195,806.2259261334909,798.83538789598,806.7506939062595,831.320138933291
1731654248.9437797,809.3025655897729,799.7017865619912,806.8861254593679,837.0407848894221
1731654248.9471092,805.6638953002396,801.8969766588276,806.424259857405,836.4461274022091
1731654248.951023,798.8524452319778,804.3028630498973,805.1932340749235,830.9646870760918
1731654248.9534996,796.1696953628441,805.9495433583478,803.6111993845298,825.3926154063155
1731654248.9549377,802.4097208370299,806.5815384053662,802.6313013769013,824.2013120151884
1731654248.9588518,815.5007245366071,806.4946542226303,803.1089852970127,828.0250817530249
1731654248.9593418,827.7114848952568,806.0366801520458,805.0672675877845,833.2909523988226
1731654248.9604597,831.5234549687705,805.336112402877,807.5636027474233,835.3037232318171
1731654248.9627662,825.50102507405,804.4206697859914,809.342774049059,832.1511741477173
1731654248.9666803,815.4460367559376,803.434567093553,809.7425422998036,826.1458121062238
1731654248.9705946,809.8054421179494,802.6264650258053,809.1062178375516,821.6824083749973
1731654248.9723191,812.9160161998689,802.1244611565722,808.3852613143088,821.4536692969315
1731654248.9745088,821.5679541571028,801.8131079173365,808.2748028933906,824.3084268255349
1731654248.9749038,827.7990563755725,801.5370472200797,808.5830123838316,826.5325622864603
1731654248.9784229,825.6621006273796,801.4659827336742,808.3380699598051,825.3000646264052
1731654248.9823372,816.2725406224981,802.1910378226481,806.5588486009323,821.1507420834928
1731654248.9862514,806.8635165742176,804.3146890023515,803.1058223250941,817.2980057965349
1731654248.9901657,804.7364028102454,807.81917048334,798.9745089188036,816.4840782816486
1731654248.990466,811.3382070768102,811.8254879392681,795.8241267325436,818.2811259163425
1731654248.9911387,821.4076400353863,815.0736795967056,795.0883573275141,819.219378892767
1731654248.9940798,827.6520860455611,816.7695701139625,797.255087159163,815.5423613936971
1731654248.9953449,826.8007366179384,817.0545427392332,801.7024658825636,806.2017479400118
1731654248.9979942,821.9511877640002,816.7085846111372,807.078514430306,793.7172360109806
1731654249.0019083,819.3859414012634,816.4350001011092,811.9141563969064,782.4089372261013
1731654249.005823,822.6649634711499,816.4064441931546,815.0994636565689,775.5027433715209
1731654249.006028,829.075858068954,816.3618319623558,816.0240203135639,773.2433597439226
1731654249.0097368,831.606302001291,815.9441932430017,814.4812233320891,773.2296836702154
1731654249.009958,824.9677384886012,814.8520872942856,810.6227778008973,772.554979980747
1731654249.013651,810.6335279917503,812.7861639426852,805.098225669869,770.1007633039472
1731654249.0175653,796.4673174888202,809.5185231848152,799.1521705044796,767.2798844607531
1731654249.0214794,790.9777067003907,805.2427287660315,794.3386817749686,766.7275820392352
1731654249.02159,796.798429943731,800.8934316830189,791.8711408208919,770.0694477279994
1731654249.0253935,808.6903145414141,797.9474032660687,792.0631727263932,776.6206140331494
1731654249.0287776,817.6152509635116,797.6077421217228,794.2857552208746,784.0039968861156
1731654249.0293078,817.5510267222774,799.894312300229,797.3978244565785,789.9964512312082
1731654249.03023,809.7570900479609,803.4110560634449,800.2633825465139,793.9854943145297
1731654249.0332222,801.4543267933439,806.1353000813622,802.0857861893455,796.9910075304343
1731654249.0371363,800.2114735177832,806.7644331830558,802.5943363499074,800.5238103111997
1731654249.037152,808.3523460256874,805.6240082448448,802.1673082533946,805.3409345791512
1731654249.0410504,821.4062105403344,804.3873969744448,801.7625979615594,810.949020884363
1731654249.0449648,831.523497161274,804.762683691299,802.4533827221986,816.0107082859386
1731654249.0475972,833.1982432604804,807.1572213396935,804.6771713761449,819.2541402793412
1731654249.048879,827.0543719315983,810.3895726873901,807.7245380079714,820.2643191362429
1731654249.052714,818.9337154255944,812.6698560070349,809.9979536566775,819.6337529638348
1731654249.0527933,815.054576955749,813.0043946692067,810.0092417144965,818.390119526467
1731654249.0567074,817.0507720601838,811.839048506465,807.414881912075,817.2022683791308
1731654249.0606215,820.8706139976683,810.4641427931306,803.2629014094222,816.0671418432445
1731654249.064536,820.4860261760546,809.8116072681056,799.2321934307869,814.6975970558639
1731654249.065115,813.4104345465304,809.742122621306,796.484766486643,813.1036901865813
1731654249.0664167,803.379157774286,809.3543295013245,795.0714029562523,811.6744298555052
1731654249.0682762,797.706619958435,807.884958579875,794.3241205261509,810.6414244010514
1731654249.06845,801.2179766572842,805.3539102402552,793.7787737372197,809.5165761584085
1731654249.0723643,811.7483656790864,802.5149780659582,793.7122706506563,807.1825573507309
1731654249.0762784,821.2861680549295,800.3448788948908,794.7909433416153,802.7033050800839
1731654249.0801928,822.2865217196465,799.564979049395,797.2290266865191,796.2532353474551
1731654249.0838382,814.100544139599,800.4315631522886,800.3538935539979,789.4574575176662
1731654249.0841067,803.9447385453993,802.6837993065599,803.0368991991751,784.8608389488065
1731654249.0852363,801.2086195736745,805.5118046961418,804.5322132733456,784.7335760043004
1731654249.0880213,809.5987684165023,807.6464458605052,804.889198443418,789.7358440546473
1731654249.0919354,823.6746661168902,807.7869397874229,804.6579331999533,798.1783907801691
1731654249.0958495,832.8328732104276,805.3313428354065,804.3482411689506,806.5803513299212
1731654249.0994,829.6294846937768,800.9635403410772,804.165937664942,811.5466778972475
1731654249.099764,815.7016542269116,796.5351842868379,804.0842727963635,811.8464581309969
1731654249.1,800.5000522722163,794.101404058863,804.0143993577311,809.0438519898661
1731654249.103678,793.8840924507923,794.6578976979433,803.9059728677978,805.9902526565689
1731654249.104056,798.5067937557261,797.4864118479034,803.7597964699378,804.3352057808736
1731654249.1075923,807.9739496956254,800.6448662181397,803.5991723099417,803.2189027484505
1731654249.1115065,812.138513961628,802.2656380227229,803.4428389417293,800.3481287488423
1731654249.114962,805.2996683232084,801.690932090967,803.2959662858887,794.4845099255701
1731654249.1154208,790.8390702885475,799.6607996798557,803.154690346091,787.0124274332305
1731654249.1193347,778.6613826920847,797.5944642724546,803.0136834555003,781.0675943704389
1731654249.1228752,777.4947526182507,796.6708337582103,802.8703151611495,778.999798975085
1731654249.1232493,788.1291040623096,797.3421464989083,802.7247530911457,780.5239792527085
1731654249.1271634,802.825941653166,799.3459115930308,802.5782574739895,783.2173581714081
1731654249.1305242,811.2026237461332,801.9157685029633,802.4317654493835,784.7235519268049
1731654249.1310775,807.9081577505037,804.0305297440797,802.2854845307829,784.4668251365537
1731654249.1348853,796.2310460585782,804.7908618860248,802.1391735794781,783.46766597239
1731654249.134992,785.1074407416382,803.9047645424247,801.9925435010181,782.9521941688554
1731654249.138906,782.1040209932362,801.9284210170792,801.8454593308297,783.3606142307294
1731654249.1416948,787.9364747494392,799.9248313418988,801.6979317971533,784.3927904947857
1731654249.1428204,796.7260276886105,798.7419403579061,801.5500250733477,785.5589148157584
1731654249.1460862,801.5294123074303,798.5431514176776,801.4017861871645,786.57451503887
1731654249.1467345,800.3533234003721,798.9396011327589,801.2532246541798,787.4148776192067
1731654249.1506486,797.481380356577,799.4471591141687,801.1043203490244,788.1803401754511
1731654249.154563,799.017370403434,799.8052708988797,800.9550346417514,788.9616221376078
1731654249.1584773,806.6881572321035,800.0007329845955,800.8053227068134,789.7883947280088
1731654249.1605144,815.5645412755862,800.1311517978716,800.6551604411738,790.6454644089769
1731654249.1616485,817.9108357857975,800.2795506727807,800.5045860085361,791.5078088401506
1731654249.1623914,809.9426470442021,800.4704084117951,800.3537181313197,792.3617928535986
1731654249.1663055,795.6708031223269,800.6876118524036,800.2026876992555,793.2071774984274
1731654249.1697702,784.4099548250982,800.9076225623758,800.0514609582065,794.0496146624323
1731654249.17022,783.7910547476555,801.1184005954717,799.8996650928669,794.8937405166968
1731654249.174134,793.8546376509676,801.3203630337769,799.7466736477389,795.7408415265319
1731654249.1772103,807.0047026935903,801.519015514713,799.5921738971009,796.5899446784308
1731654249.178048,813.931173198597,801.7186066406363,799.4370316789148,797.4396991636247
1731654249.179334,810.8133710549519,801.9201863160836,799.283591177824,798.2894228413048
1731654249.1819625,802.0647753986217,802.122770011461,799.1342239627944,799.1391344179672
1731654249.1858766,796.4601425087557,802.3251105260604,798.9879138169819,799.9891261235977
1731654249.189791,799.8394289984013,802.5266238309957,798.8372363781689,800.8396027777618
1731654249.1927724,810.3438965861349,802.7273728004308,798.6706484029362,801.6905770903985
1731654249.193705,820.0207634336555,802.927656051109,798.4838033854634,802.5419518430638
1731654249.1976194,821.3984548590382,803.127683768474,798.2954214369454,803.393647209231
1731654249.1981535,813.6364361574341,803.3274933895699,798.1506957666669,804.2456718584393
1731654249.2015336,803.3099271830665,803.527021333538,798.0907841950557,805.0980952505897
1731654249.2046552,799.2572440278161,803.7261976848839,798.0878495571022,805.9509290327991
1731654249.2054477,805.5931186043863,803.9249922664034,797.9946974386276,806.8039906748749
1731654249.2083344,818.3795968467792,804.1234106839966,797.6025637701208,807.6568987477843
1731654249.209362,828.6078705975517,804.3214690939799,796.8695181126832,808.5093518563697
1731654249.213276,829.2392005899296,804.5191721883394,796.2230317465013,809.361649163749
1731654249.2169728,820.751293714935,804.7165051672303,796.6237070874691,810.2150186420758
1731654249.2171905,810.6131290009502,804.9134424961791,799.0682359529542,811.0710282413994
1731654249.2211046,806.9306486265824,805.1099718631423,803.6742859241216,811.9297244068533
1731654249.2238965,811.4610474214314,805.3061215061698,809.1407221432503,812.787516599997
1731654249.225019,817.9751662361862,805.5019627145296,813.328512880313,813.6375447084348
1731654249.228933,817.5254688316529,805.6975553943352,814.6751309474109,814.4752873913129
1731654249.2328472,806.2208190842474,805.8928408563988,813.2221226956591,815.3082103089569
1731654249.2357924,788.9131615562011,806.087566193738,810.3528015070568,816.160788074786
1731654249.2367616,775.7102207439796,806.2813906562719,807.5807327771017,817.0614635186844
1731654249.2394586,774.2298717330153,806.4742602884855,805.5575597955507,818.0065423514541
1731654249.2395403,783.8411082653583,806.6668622584165,804.1028240708438,818.9229175167486
1731654249.2406757,796.3321882318194,806.8606044579891,802.9977896788427,819.682270715708
1731654249.24459,802.3205910957154,807.0565203327255,802.6209572508035,820.2144314578089
1731654249.2485042,798.3186995311007,807.2532647461536,803.7828525548744,820.6867596110839
1731654249.2524185,788.9307220957455,807.4459067904952,806.9349370637123,821.5767339948493
1731654249.254612,782.5350378643542,807.6283265174009,811.4796604758908,823.3916894397746
1731654249.2550206,784.0965991588516,807.8004967581765,815.7898450001262,825.9785244194612
1731654249.2563326,791.165408704311,807.9764973161978,817.9790620214341,827.8936256263581
1731654249.2602468,796.4366408879146,808.1824369615841,816.9331977153583,826.7565551097545
1731654249.264161,794.575536287955,808.4334674445626,812.9416456847233,820.9582987969852
1731654249.2680752,787.2520670894305,808.6941878859981,807.5140753459284,811.4663645543419
1731654249.270583,781.8771392487298,808.8537175854244,802.486885006836,801.7184916357686
1731654249.2719896,785.0664620194659,808.7580618877662,799.001699410337,795.2770462267417
1731654249.2734315,796.4923464430225,808.3022907357814,797.0380713937302,793.2775579203355
1731654249.2744253,808.5267810533188,807.5118853481039,795.792765026475,793.9219400957112
1731654249.2759037,812.2560074424356,806.5250838476212,794.5741248688219,794.2797393530623
1731654249.279818,805.085936835666,805.4725598496253,793.484647648934,792.702205713588
1731654249.2837322,793.5703548049909,804.3609626156993,793.3255811435587,789.8847240389008
1731654249.2861447,788.685072792119,803.09113599786,794.7943922448266,787.9197397929531
1731654249.2876463,796.9458115767958,801.6405937264022,797.6703918897873,788.3324751636736
1731654249.2915606,814.5653584937577,800.2745357660843,800.7429003312243,790.8164813634841
1731654249.292251,829.775488745792,799.5664600604907,802.6142615828427,793.6834870117333
1731654249.2954748,831.8091634794904,800.1232453463789,802.7215594588239,795.509197121493
1731654249.2993891,819.3591590117264,802.1501571818019,801.6963525764007,796.3997504124459
1731654249.3017068,801.6086712573464,805.1465560503399,800.7627466694969,797.6760300387455
1731654249.3033032,791.0423496660359,807.9688780636264,800.735146404159,800.2659798181625
1731654249.3072176,793.9353638059648,809.2986722812867,801.5058211917423,803.3410087988628
1731654249.3093104,806.0522692576859,808.3324327123134,802.400418544727,804.5667207556088
1731654249.311071,816.5991979720247,805.340677396372,802.9384275711745,801.9066357015722
1731654249.3111317,816.8967955545332,801.7127533089856,803.2029304227578,795.5177277302387
1731654249.3150458,806.8612381942037,799.3227495480675,803.516724023934,788.1277991494326
1731654249.3172688,794.4725677878222,799.485734717353,803.8925952643161,783.468090490018
1731654249.3189602,788.9974616775258,802.1322294400085,803.9316242245117,783.8348730775054
1731654249.3228743,793.4987835150087,805.7763719447032,803.2780460540092,788.5065246835788
1731654249.326789,802.5950158213161,808.3604808433957,802.0783196864791,794.1468824506329
1731654249.32989,807.2335353773511,808.4813489488009,800.9043676142223,796.989426459175
1731654249.3307028,802.6014151232282,806.2639390036653,800.2334580951808,795.4052619352399
1731654249.332831,792.6446640017435,803.3677874459962,800.0574103660283,791.1142296953003
1731654249.3346171,787.263204979999,802.0886024474039,799.9991744666786,788.0726872316086
1731654249.3385313,794.1980039461545,803.9941342863397,799.7466528475225,789.6391161499188
1731654249.3424454,812.1431134596781,808.8449481383425,799.3306705306547,795.9895792279102
1731654249.3441954,830.8670772547702,814.5270115246752,799.0119957459475,803.7785849396388
1731654249.3463595,838.5590966352217,818.2012863938164,798.9615624855704,808.4537436975145
1731654249.348393,830.7258139902282,818.0231541451952,799.0802391220742,807.5714325756989
1731654249.3487096,813.5798134117708,814.2460698156552,799.1166095532861,802.6116266436057
1731654249.3502738,799.1554041898746,808.901237473813,798.9485516220067,797.8940501906937
1731654249.3541882,795.9802311928361,804.3530338568326,798.7700582412873,797.4017634523162
1731654249.3581023,802.7513342070276,801.8975334513659,799.0293258579989,801.9051310113333
1731654249.362017,810.0721662970179,801.385147902211,800.1615911751711,808.5272418365804
1731654249.363955,808.6986732801884,801.8545819466664,802.2909559136622,813.0046577296682
1731654249.3659308,797.378179084405,802.4061028240083,805.0820514641318,812.8564869533569
1731654249.3675292,783.8204607241148,802.6446935594402,807.8375057028003,809.067879711579
1731654249.369845,778.1913432782752,802.6098145165912,809.8113774494079,805.1238326001388
1731654249.3737593,784.6934955092875,802.493499159394,810.5851271731142,804.2508264912077
1731654249.3776734,798.1464806252089,802.4302759707027,810.2873937585347,806.9885982211035
1731654249.3790803,808.1541723518349,802.4448909117409,809.4958498227065,810.868181566512
1731654249.3795173,807.2770477103525,802.4991116752102,808.8512597072441,812.3610201602106
1731654249.3815875,796.6183584390957,802.5514167412224,808.6377735756012,809.5781826507117
1731654249.385502,784.5592889355137,802.5847780692576,808.6482760769064,803.645023965504
1731654249.3863487,779.9708664396428,802.6033217377537,808.4458739269401,797.684674733201
1731654249.3894162,785.5920908451747,802.6176823834294,807.791638392663,794.2361586969474
1731654249.3933303,796.8609999485791,802.6346438907608,806.8584857655884,793.2787065347334
1731654249.3950791,806.5565724396066,802.6550936394025,806.0639431906944,792.6183117851213
1731654249.3972445,810.5222998790639,802.6768278909514,805.7201473477826,790.3186397960949
1731654249.4011588,809.5046966797304,802.697689229951,805.8378481429656,786.8429240398289
1731654249.4050727,806.7407362746955,802.7168861446958,806.2177168539638,784.6943123785481
1731654249.4051683,804.7722885248704,802.7347064565553,806.6764193710617,785.8647109703876
1731654249.4089873,804.2386850463857,802.7517193253195,807.1824921231745,789.8299339205804
1731654249.4106412,804.5319010896415,802.7682564339591,807.822833126359,794.1803005246703
1731654249.4129014,804.8778791219247,802.7843383482486,808.6679124813315,796.8726117090147
1731654249.4139657,804.9116568108376,802.7998392155317,809.6210598146387,797.5645161495082
1731654249.4168158,804.6711030578192,802.8146505010915,810.30613560511,797.1562592321861
1731654249.42073,804.3432224414531,802.8287387989672,810.082067583535,796.6563841000689
1731654249.423988,804.062153617262,802.8421171528572,808.3033579563321,796.5342611329362
1731654249.424644,803.8554509756117,802.8547955193537,804.8009804275616,796.7486938517825
1731654249.4262033,803.6876172636914,802.8667614801914,800.2709083830525,797.069485094146
1731654249.4285583,803.5182203899067,802.8780052126655,796.1542891437479,797.3305790753868
1731654249.4324725,803.3299603783278,802.8885646310436,793.9236661829121,797.4977605699239
1731654249.4363868,803.1262810167839,802.8985376857211,794.2205732955797,797.6150408736812
1731654249.4403007,802.9173821883454,802.9080089742087,796.4783055934325,797.7326261441414
1731654249.4417653,802.7099857980916,802.9168966882878,799.2885367923698,797.8720505150899
1731654249.4428072,802.5051101878615,802.924843489969,801.2085526412234,798.0290933949528
1731654249.4442153,802.3006796491329,802.9313680897837,801.4771386711085,798.1911224261199
1731654249.4481294,802.0945845295266,802.9363999924241,800.3043165591823,798.3498032250867
1731654249.4488506,801.8860230618202,802.9409259691207,798.7074412344411,798.5038769711613
1731654249.4520435,801.6752597304462,802.9469560878491,798.0162166677223,798.655933076308
1731654249.455958,801.4628416139516,802.9559565941136,799.1988395839411,798.8086164245856
1731654249.4573274,801.249063278399,802.9659947019858,802.2372695321741,798.9629609037573
1731654249.459872,801.0338864581778,802.9700376338715,805.902774583053,799.1186794295423
1731654249.4616268,800.817149777869,802.9594100335711,808.2377543051981,799.2751173467392
1731654249.4637864,800.5988235527334,802.9342273479119,807.6657940108114,799.4318990476085
1731654249.4677005,800.3791178661874,802.9148951242274,804.111261743808,799.5890373077301
1731654249.4716148,800.158327426669,802.9393813921057,799.3029312051262,799.7467318997482
1731654249.4728894,799.936427858961,803.0313845426149,795.889960560295,799.9051422153663
1731654249.475529,799.7126907668659,803.1471542874554,795.8570968278406,800.064283227501
1731654249.4794433,799.485850802373,803.1502358658796,799.3043914766232,800.2240677849683
1731654249.4804463,799.255268478241,802.8887589831186,804.4481078847513,800.3844559612161
1731654249.4833574,799.0227045022909,802.4016107738938,808.8245698522695,800.5456233924531
1731654249.4837356,798.7929452455909,802.1329468258709,810.8005865281059,800.7079925032862
1731654249.4872715,798.570858655952,802.8794849722293,810.3094916163734,800.871955937472
1731654249.4884515,798.3544320690818,805.2703036891097,808.4021861588785,801.0373042062178
1731654249.491186,798.1285827833736,809.0484760715339,806.1642694014809,801.202787557506
1731654249.4951,797.8697614374448,812.8931198287715,803.9683347844194,801.3666113659004
1731654249.4990144,797.5689719300643,815.2039212421445,801.5771509088403,801.5283747563304
1731654249.499266,797.2641765103285,815.2407425503945,798.7886141149286,801.6915486563938
1731654249.5029285,797.0474385259099,813.5183496105377,795.9130754839248,801.8636100120717
1731654249.5040135,797.0029375073858,811.1161018594312,793.6750152560145,802.0505306886358
1731654249.5068426,797.0743522385933,808.6769316310146,792.7056875147669,802.246144441687
1731654249.510757,796.9609726041672,806.0828436904545,793.0822881059333,802.4250537153292
1731654249.514671,796.232508907994,803.002712601996,794.245462785565,802.5540813910053
1731654249.5180857,794.7883876482971,799.6445446643305,795.3342838502522,802.6302170232968
1731654249.5185854,793.4587593062114,796.9347462084854,795.7341666470032,802.725031410834
1731654249.5186207,794.0859112275679,795.9610237779556,795.49969932056,802.9795448709345
1731654249.5195756,798.3535015796399,797.1832728705878,795.3471892507843,803.4911918742075
1731654249.5224996,805.6352932792813,800.0637473598484,796.1755101716212,804.1137782211904
1731654249.526414,811.962749782512,803.3836864465197,798.441514767398,804.34493743427
1731654249.530328,812.4294753982696,805.9999796630535,801.8548352506938,803.5780667093206
1731654249.5342422,805.9226267808308,807.5142778534704,805.5824317406284,801.8277113805275
1731654249.5351377,797.3099387770919,808.3860175977936,808.7209052597799,800.4764606681725
1731654249.5369053,793.8179530537266,809.3758137341447,810.6494487932803,802.0198083021963
1731654249.5381565,798.4237646559341,810.7140552461665,811.1192247612531,808.2261577018189
1731654249.5420706,806.5987323045879,811.7099118135822,810.2189887625408,817.9128544926342
1731654249.545985,809.7789846512102,811.247611856669,808.3612922531933,826.7675328568017
1731654249.549899,802.7181293387969,808.8149954021385,806.2507825506148,830.1613173135424
1731654249.5506997,788.3876247134987,805.1082412518784,804.7240830559133,826.8459568994665
1731654249.553506,776.2251185226496,801.5928117193532,804.4626339049697,820.2152575640872
1731654249.5538137,775.0691701407092,799.4362021152423,805.6969444022606,815.8261892626199
1731654249.5557244,786.3348129877372,798.8225225537556,808.0321015522137,817.1197734910088
1731654249.5577276,802.7506859568554,799.1452633995001,810.4995150335438,822.8043772858589
1731654249.5616417,813.7204421113919,799.6659459619408,811.9112735378196,827.9696836469641
1731654249.565556,813.2730763979503,799.9787879310162,811.4592081123412,827.9669298328995
1731654249.5662618,804.4176407489209,800.0504927433694,809.2536811778175,821.9184636424244
1731654249.5694702,796.3942735080312,800.0208550166891,806.3798727405081,813.1344367021213
1731654249.5733843,797.0066329373963,800.014183477885,804.3011856456502,806.3244293209897
1731654249.574544,806.3192582375874,800.0696386231083,803.9419085753008,804.0747554646997
1731654249.5772986,816.8921657026391,800.1650515512317,805.1008257422359,805.4420579373549
1731654249.581213,820.2411335709612,800.2656638943721,806.6542052646881,807.487406078264
1731654249.5818238,814.0614402314377,800.3530027506438,807.4100018956528,808.0497663817072
1731654249.585127,804.2634493981082,800.4271353807615,806.955398650205,807.2432509545722
1731654249.5883908,800.2460956404641,800.4960601236427,805.8473897249374,806.5953039235877
1731654249.5890412,807.2928435338124,800.5661928171779,805.0475429865197,806.9640404055835
1731654249.5929556,822.1579010198673,800.6392671280704,805.1289859660769,807.3752979646432
1731654249.5933635,835.3155120255843,800.7139281462529,805.9322313956063,805.919119389672
1731654249.5968697,838.1443388051451,800.7883475137706,806.8919026414856,801.851871930435
1731654249.597386,829.4905702369516,800.8616436193432,807.6305616940779,796.8845332369124
1731654249.600784,816.485065315031,800.9339005708999,808.2057371687819,794.3197055044589
1731654249.6046982,808.92374717502,801.0055725162487,808.7932164025956,796.5966624586831
1731654249.6086123,811.6108694012806,801.0769954992635,809.2031019876462,803.2358301176417
1731654249.612183,820.7527407525414,801.1482508553225,808.8362958686196,810.9095526186895
1731654249.612527,827.2613362964775,801.2192667332614,807.2469268516344,815.6608132519503
1731654249.612948,824.2126961711385,801.2899609393119,804.7896181225494,815.5928783913433
1731654249.6164408,812.3558951208998,801.3603128954842,802.6159001665843,812.021542608385
1731654249.6203551,799.2924132011394,801.4303557053781,801.8393103019275,808.3019178671453
1731654249.623276,793.2332953857715,801.500129061815,802.5283755981203,807.2807340278343
1731654249.6242692,796.6014587408366,801.5696368133813,803.4783356639492,809.2516345721875
1731654249.6281836,804.627399980274,801.6388409223676,803.1047303332242,811.8191926877639
1731654249.62851,809.8090541798077,801.7077080401205,800.7965755211184,811.6882685951058
1731654249.631003,808.3266385256449,801.7762934441704,797.5698076005322,807.0977578181804
1731654249.6320975,803.032110793789,801.8447934548852,795.3686702979538,799.1993974720978
1731654249.636012,800.5278729177554,801.9134586443121,795.5060798012613,791.3666638683208
1731654249.6399262,804.810934521241,801.9823161029947,797.5401177326681,786.845717267404
1731654249.6438403,813.027651711589,802.0508522062185,799.575019886564,786.4370231398
1731654249.644072,817.3464534582398,802.1180625215997,799.7415798050005,787.9936238622024
1731654249.647755,811.7469135200669,802.183281184905,797.5792420351117,788.1640123376411
1731654249.6498222,797.9700208188946,802.2476172408249,794.2091117900412,785.0037051971002
1731654249.6516688,785.1695310121971,802.3147153318289,791.3442906995587,779.3805964520304
1731654249.6555831,783.0307518217525,802.3888391338814,790.1348723166878,774.1348984332435
1731654249.6581607,793.852067256484,802.4695123183493,790.7381112309735,771.8133906814813
1731654249.6594973,810.2573920860586,802.5459403860589,792.6632317742134,772.882992593026
1731654249.659634,820.6801895866025,802.5990299568392,795.3098055409699,775.7822672593077
1731654249.6634116,818.3149877724579,802.6181435217468,798.198298998725,778.5534149947179
1731654249.6673255,806.3035256916651,802.6277659217718,800.8884198668936,780.5265028487667
1731654249.6686416,794.9842410338982,802.6984213127085,802.9065533780721,782.624138603005
1731654249.67124,793.5253383822919,802.9049412468468,803.8885125858113,786.1265530837408
1731654249.6751542,802.7546292282178,803.2224866978798,803.8053678769751,791.053946117527
1731654249.675196,814.8272847241719,803.4276062676274,802.9852722444194,795.6285233285205
1731654249.6790683,819.7107363668839,803.1508482736308,801.8438346750531,797.3911261488332
1731654249.6829827,813.1216608377243,802.1931996378468,800.5653857371032,795.1918329868614
1731654249.6868968,799.7220913333726,800.9585243459586,799.068841896374,790.4959244513866
1731654249.6874611,789.3395005127743,800.5092418611107,797.3219243450797,786.8597419555805
1731654249.690758,789.3283457517228,801.8876840413415,795.6877589144959,787.7615400334031
1731654249.6908112,798.9207431720722,805.1860570086268,794.8894769267512,794.2454402151869
1731654249.693046,809.7895034057259,809.3775967408409,795.5182914011755,804.0971234753945
1731654249.6947253,812.4189320145342,813.1639640867268,797.5079981980713,813.2666707526918
1731654249.6986394,803.52342823815,815.928624117474,800.1295642026021,818.6251364225902
1731654249.7025535,788.8224091740044,817.8369925792316,802.590504245304,820.0550208963044
1731654249.7062807,778.8796817660912,819.1462562381536,804.679136046718,820.2567184201548
1731654249.70632,781.0807799298813,819.6026323556152,806.7960814818955,822.3751732980868
1731654249.706468,793.9591044264464,818.6048769793438,809.344328592207,827.3146642356265
1731654249.7103822,808.3421635373768,815.9504266782908,812.1355542491591,832.9185213682937
1731654249.7142963,814.4412712484364,812.3859119189705,814.4362786895379,835.6955225089145
1731654249.7182107,809.311267007295,809.3952445445863,815.5719764278128,833.692680348878
1731654249.721882,798.8498470379577,808.3726565373707,815.4432658549338,828.2024900757514
1731654249.7221248,792.8881539876862,809.8205538504919,814.4761925139701,822.9761600515429
1731654249.7251005,797.3693463837733,813.0970502660945,813.1494903889646,821.5864375212304
1731654249.7260387,809.7678808964906,816.7614008872008,811.6076897336197,824.9328361966321
1731654249.727931,821.2103513494328,819.2169029578329,809.6879933288071,830.6837573593311
1731654249.7299533,823.4844698821954,819.3295672369659,807.2740604013161,834.9957687561084
1731654249.7338674,815.3579398882994,816.8338208276573,804.6505799687485,835.2114294022216
1731654249.7374442,803.2363898723472,812.4238744660992,802.5641943544322,831.5472112971453
1731654249.7377818,795.749299155556,807.4910582230632,801.8849614857899,826.5731333279075
1731654249.741696,796.8034055833695,803.594565588471,803.0221789052146,823.0196577071151
1731654249.7439198,802.8801082311354,801.8819629446186,805.4867837182279,821.7528587576958
1731654249.7456102,806.7150341941276,802.6801400243634,808.0035102416374,821.5217619517688
1731654249.7495244,804.0402430886858,805.3915239866128,809.2196624755554,820.5057916528581
1731654249.7530062,797.5149631519753,808.7655791078531,808.5485715243832,818.1685956443833
1731654249.7534385,794.4829792991251,811.5134169310171,806.4958087065736,815.7611069436663
1731654249.7573528,800.4960753182078,812.9834633284895,804.18892256295,815.0694233421075
1731654249.7612667,814.0842226442993,813.4129034432834,802.4837368569503,816.5315550771343
1731654249.7627394,827.2022695356915,813.4914805093697,801.3851203986014,818.3783960797106
1731654249.7628162,831.1695299586278,813.5780590930415,800.2602636010042,817.6096420814134
1731654249.7651813,823.4602003825985,813.2837483999951,798.6295852716951,812.1104422306648
1731654249.7685685,809.8441493067215,811.807666134533,796.783282764244,802.255257351211
1731654249.7690954,799.8953806440289,808.6947240710796,795.603505898584,790.7243726010047
1731654249.7730098,799.271948225383,804.3276020770505,795.7192896709244,780.7125542943782
1731654249.776924,805.1276527813965,799.7772202925753,796.8100524325683,774.0281744168119
1731654249.780838,808.7108498101267,796.2134759409757,797.7957041228366,770.5881935009639
1731654249.7815588,803.1561147186136,794.35758224224,797.813389998375,769.4917744640023
1731654249.7841303,789.8482225497876,794.2987941759363,797.086346520348,770.4402444795959
1731654249.7847524,777.7953974899635,795.6671559924235,796.8496502578215,774.0752649229366
1731654249.7886665,776.3999690842019,797.9386250506068,798.3703395797867,780.9437711116888
1731654249.7925808,787.6428165912472,800.6404473846168,801.9234949154147,790.1359021849489
1731654249.796495,804.1523443977181,803.3662879506854,806.5719655022451,798.9611741778783
1731654249.7977011,814.6945801737326,805.6917452780793,810.8200449032921,804.1440818852491
1731654249.7996924,812.6305834460063,807.1700890272615,813.4760052828765,803.7931753224452
1731654249.8003783,800.709253727008,807.4958166630553,814.0380258676846,798.7931897397284
1731654249.8004093,788.6104585661475,806.7138351387855,812.510255986372,792.5903957477741
1731654249.8043234,785.2836829808159,805.2441951956378,809.0959880186923,789.297700250873
1731654249.8082376,792.0968492289286,803.6455903584787,804.2021456733479,791.154064464077
1731654249.812152,802.2028820275608,802.3187427541632,798.7184584966908,797.0224225841359
1731654249.8152544,806.6228389956526,801.4186699113453,794.1140237643438,803.1602808815238
1731654249.816066,801.9844778184598,800.9876992755931,791.9597132748704,805.9206066507041
1731654249.819198,793.3267715999388,801.0506613920126,793.0284160051675,804.4304366295544
1731654249.8199804,789.5343798946652,801.4954457609613,796.6607416640431,801.1333221757881
1731654249.8238945,795.3785529870063,801.905608029882,801.0342377709954,799.7241301277605
1731654249.8278089,807.1135114603792,801.6576565495268,804.259007044214,802.1281559834285
1731654249.8308165,815.4468707958881,800.3257166473035,805.4682279995003,806.9550209014942
1731654249.831723,813.3183680696217,798.0631670621659,805.0498603955344,810.6367071419661
1731654249.8325863,801.8892732572522,795.5879850016944,803.944160158257,810.2759865974491
1731654249.835637,789.7789111236902,793.7372722934771,802.7417667426452,805.8669697715715
1731654249.8380177,786.299349472609,792.9466917740672,801.3754092705425,800.0916014242739
1731654249.8395514,794.3932231741741,793.0743433532797,799.5346901858612,795.9230809624449
1731654249.8434656,809.0477595871547,793.6498437881071,797.2714219545843,794.1358116479109
1731654249.8463786,822.0194584243403,794.2523374442709,795.1931856728197,792.9083183368103
1731654249.84738,828.1497037619998,794.7040970314421,794.0977914465483,789.832830732347
1731654249.851294,827.8065105468247,795.0295823225724,794.3917808831761,784.4455003071312
1731654249.8552084,824.5729339553616,795.3205330598161,795.7822684378511,778.9296035434613
1731654249.856837,821.6573172218583,795.6388771563165,797.4977955388871,776.3802504904846
1731654249.8591225,820.212877611968,795.994579175018,798.8825460144506,778.269727169779
1731654249.8619406,819.8074123367608,796.3688973822949,799.8962693954841,783.3824606814735
1731654249.8630366,819.6033243464572,796.7424175569342,801.0771050004055,789.0276369629677
1731654249.866951,819.1140702706876,797.1075555519909,802.9320569274564,793.2880438713024
1731654249.8674712,818.3086310170564,797.466550066953,805.2373588765897,796.2901810622686
1731654249.870865,817.3713608004721,797.8244657746338,806.8996420024062,799.5053497281968
1731654249.8747797,816.4640530374459,798.1844213084154,806.6175381046218,803.8519793244132
1731654249.8756566,815.6377220681785,798.546754458602,803.8913588300171,808.3472719624219
1731654249.877503,814.8638886271287,798.910400992712,799.5722321565995,810.541771245512
1731654249.8786936,814.0976928349003,799.2743633331902,795.4685813655715,808.4588257824951
1731654249.882608,813.3152556966346,799.6383002709586,793.2655822732149,802.4548875501102
1731654249.886522,812.5166280855373,800.0023706176585,793.5327271513709,795.3724010932319
1731654249.8904362,811.7121054064713,800.3668540124389,795.4912653610376,790.7093785374366
1731654249.8930647,810.9099429062919,800.7319126305703,797.6302919973516,790.225407368843
1731654249.8943503,810.1123493272149,801.0975615581673,798.6924605207599,792.9297177781317
1731654249.894476,809.3175444194133,801.4637464581509,798.3874099144765,796.195585287207
1731654249.8982646,808.5231406514586,801.8304189533045,797.452317668432,797.9008295597084
1731654249.902179,807.727982057576,802.1975662790535,797.1133865834372,797.7349328990246
1731654249.9023564,806.9321648476401,802.5652068536892,798.3342888798257,796.7939642794205
1731654249.9060931,806.1362499369881,802.9333761690593,801.3067495120142,796.2384249345397
1731654249.9086268,805.3406087716528,803.3021119126789,805.4297047620777,796.4170261430551
1731654249.9100077,804.545245662444,803.6714327674345,809.6811801968062,796.9958050130845
1731654249.9132955,803.7499820955258,804.0413117200843,813.0602698192488,797.5384417790276
1731654249.9139216,802.9547435552248,804.4116692449187,814.8381713892236,797.8589060432317
1731654249.9178357,802.159720113166,804.7824269621179,814.6253371551435,798.008538693494
1731654249.92175,801.365244678729,805.1536301077018,812.4417389469108,798.1130360017129
1731654249.9241889,800.571365985886,805.525555120108,808.8569120120266,798.2529491855805
1731654249.9256642,799.7773674766513,805.8986260266752,804.9901069625025,798.4395624578649
1731654249.9295783,798.9818131203912,806.2730060830737,802.1181456914181,798.6474915345061
1731654249.9321153,798.1836998686152,806.6480264045665,800.9925941851461,798.8515054094464
1731654249.933493,797.3844870346817,807.022065695749,801.3737037181651,799.0422248926911
1731654249.9372413,796.589220411484,807.3936546246638,802.2409762203185,799.2229553204276
1731654249.937407,795.8039295133918,807.7638244536245,802.5905857512645,799.400396557396
1731654249.939751,795.0281465287827,808.1379370047256,802.1947354421916,799.5785283234653
1731654249.9413211,794.2469523467183,808.5236494805846,801.7081798487112,799.7576817368532
1731654249.9452353,793.4334825935032,808.9228508255948,802.0593091201162,799.9364204363579
1731654249.9491496,792.5721245845053,809.3213115634624,803.6543001480804,800.1134541443776
1731654249.9509346,791.6961334763192,809.6881118886482,806.0423546446532,800.2883706618419
1731654249.9530635,790.9041235655208,809.9988105104723,808.2614296162886,800.4614025519605
1731654249.955313,790.3034713054468,810.2806587571282,809.507941668427,800.6329242555773
1731654249.956978,789.8660494138976,810.6448897397638,809.564301149591,800.803146899015
1731654249.9608922,789.2900173497911,811.2466544756924,808.7265947201773,800.9720885385375
1731654249.9648066,788.0775474262878,812.1491894962368,807.4514959313962,801.139682469392
1731654249.968721,786.0048071869217,813.1825105594262,806.108236626914,801.305879746786
1731654249.9697542,783.8301419101031,813.9659592264727,804.9759384902283,801.4706873827107
1731654249.970875,783.5540687056069,814.1513616950297,804.3100436467547,801.6341532503424
1731654249.9721265,787.3419950965437,813.7057964756851,804.2727251274293,801.7963289926487
1731654249.9726348,795.1583267851029,812.9575332367687,804.7642823506276,801.9572348061472
1731654249.9765491,803.1819655228646,812.298606437386,805.3851133267851,802.1168446512638
1731654249.9804633,805.7539328313698,811.740836350637,805.6635778998701,802.2751125572187
1731654249.9843776,800.4090095944683,810.725181328384,805.3996464940831,802.4320488894726
1731654249.986437,791.1764358189992,808.4742707579896,804.8116243019382,802.5878080060058
1731654249.9882915,785.9160696138664,804.7388905234807,804.333394004382,802.7426829891236
1731654249.9885738,789.4151821612701,800.352448218085,804.2514242964354,802.8968956759579
1731654249.992206,798.6633758774948,797.0258882221403,804.5291800163425,803.0502152955702
1731654249.9961202,804.9749773398219,796.3751161338098,804.9494661418236,803.2017307592699
1731654250.0000343,801.3175399285826,798.8219524463233,805.3558885483,803.3503099918099
1731654250.0019991,788.4889515573302,803.1691900190879,805.7166716957408,803.4959895973158
1731654250.0039487,774.8726784750979,807.1803504667375,806.0179238955525,803.6415090976027
1731654250.0070114,770.0547445461792,808.8019658324591,806.2004512577073,803.7919514143331
1731654250.0073931,777.5433295121883,807.2765013127433,806.2183485155706,803.9504996801469
1731654250.0078628,792.2535596389445,803.5050100934003,806.0984550127139,804.1113250641685
1731654250.0117772,804.4857523963177,799.4752008499274,805.9161035219535,804.2561333002817
1731654250.0156913,807.191900812907,797.1086240162008,805.7355264197611,804.3642272475163
1731654250.0175612,801.0018702519665,797.2419984539266,805.5809666970288,804.4393370621814
1731654250.0196056,793.2927242584078,799.3910021492578,805.4459284481403,804.5363042016413
1731654250.0235198,792.1521106249215,802.3845615237459,805.3152806506074,804.748162056539
1731654250.0262127,799.9995264079307,805.2726985199132,805.1798026028739,805.11840385464
1731654250.027434,811.8468309250578,807.7268743894371,805.0386288518866,805.5022559738906
1731654250.0313482,819.4693349192623,809.7020042019133,804.8950423103267,805.4972078303143
1731654250.0331233,818.0416537453361,810.8806406913835,804.7520618741901,804.5933007267781
1731654250.0352623,809.8657508757689,810.5869790410154,804.6107068308156,802.5282560402753
1731654250.0391767,802.255738696103,808.2986102517407,804.4704988944146,799.5499561212002
1731654250.0418966,801.4390754611998,804.249463467603,804.3306131902475,796.2642751369896
1731654250.0430908,807.5310500450781,799.5574152307117,804.1905893081238,793.1770849318717
1731654250.0450325,814.6572166303421,795.7669024413449,804.0504091409537,790.4705096037061
1731654250.0470052,816.0362827850429,794.13269679577,803.9102540265826,788.3560798089848
1731654250.0486853,809.7917056367394,795.0585128555615,803.7702757803385,787.6272164149472
1731654250.0509193,800.6586377963403,797.9466580463753,803.6305165444544,789.6197358751837
1731654250.0548334,796.0936119001103,801.5149454868459,803.4909423212194,795.2628770456573
1731654250.0587478,799.9613580169506,804.4438828962116,803.3515042622287,803.8804492224648
1731654250.062662,809.1363844557968,806.0390877294913,803.2121741510913,812.8945593249555
1731654250.0638518,816.0430313855725,806.5428980657346,803.0729480372064,819.0196243947196
1731654250.0642474,815.1347627612803,806.9083985614861,802.9338352642102,820.3227271762414
1731654250.0665762,807.8227188427965,808.1685020316171,802.7948473293131,817.6661143430497
1731654250.0704904,801.4945895983733,810.76293095827,802.655989087107,814.2851775041559
1731654250.0744047,803.2108130546596,814.191314930094,802.5172496909165,813.5406793213255
1731654250.0767815,813.3116372087991,817.1889602764586,802.3785969870995,816.358166196687
1731654250.0783188,824.4986927131035,818.372421071745,802.2399887220803,820.3559030567862
1731654250.0798094,827.4921209611023,817.03721552784,802.1014110004795,821.5606124261602
1731654250.082233,818.7646550337357,813.6272658566481,801.9629275367805,817.5808425675206
1731654250.0826714,803.9088731538656,809.5282915958551,801.8246831808195,809.7739451639525
1731654250.0861473,793.6735554967521,806.2905210722845,801.686795133798,802.5575672299443
1731654250.0900614,795.7375159349132,804.8200695606201,801.549140045738,800.2448699890101
1731654250.0939758,808.7968275819218,805.0658826753646,801.4112079451206,803.8286074366933
1731654250.0953715,823.6255922471438,806.2785439243534,801.2723240724154,810.2555516070713
1731654250.09789,830.1510674640651,807.5131879876147,801.1324044220104,814.7766556570483
1731654250.101491,824.9385347457841,808.0568998863155,800.9928548064779,814.5325978928412
1731654250.1018045,813.3800226838138,807.6927460375108,800.8564968543435,810.5981428059844
1731654250.1057184,805.1016076167026,806.7788163256126,800.7253375194055,806.9611816830915
1731654250.1096325,806.2703278535629,806.0356991046034,800.5965633829779,807.3074753014447
1731654250.1109335,814.786865429998,806.0415514666327,800.4602264780176,812.1319393960276
1731654250.111667,822.1256293082906,806.764284355547,800.3042251815448,818.3579117873663
1731654250.1135468,820.3937746074645,807.5666731460102,800.1290030409972,821.6497416715852
1731654250.117461,808.9230308457468,807.7100305409728,799.9634472364047,819.5486631729271
1731654250.1203103,794.9024007370741,806.8578122087698,799.8603376660135,813.0298962197842
1731654250.121375,787.3874562871395,805.1062341487977,799.8504389932764,805.4223100545645
1731654250.1252894,789.6746421586886,802.6615629362186,799.8658904545547,799.7393712658193
1731654250.1264956,796.5952351112188,799.6976841392026,799.6997812258838,796.6492688090391
1731654250.1292038,799.1401138370632,796.6083686044987,799.0971343530358,794.6329433709282
1731654250.133118,792.453108792382,794.2364121915609,797.9926853907995,791.9558616363006
1731654250.137032,780.2873990245195,793.589572923926,796.7243302699487,788.5813748143653
1731654250.13913,772.1289915599936,795.1789512370988,795.9513102424634,786.3442672210515
1731654250.1409464,775.4872043326586,798.6322486902232,796.2133155187769,787.3171195488504
1731654250.1420577,789.7738377552914,802.9723244846496,797.4543091810516,791.8557619904789
1731654250.1448605,806.6267763567121,807.2458992318798,798.9636218669041,798.0075737627986
1731654250.1465518,816.2039751140155,810.8837899104885,799.8512308996679,802.7731211477757
1731654250.1487749,814.364960750805,813.5548555272379,799.6866723016249,804.2005442234292
1731654250.152689,805.2006143593312,814.8356974766327,798.7697479752637,802.6671251555053
1731654250.156603,797.167058303546,814.1758056400507,797.8200335413804,800.401998821301
1731654250.1576197,796.128892324206,811.3178484732374,797.3764077991433,799.7242592614122
1731654250.1579494,801.0004863920072,806.8584813897679,797.4311241532566,801.4405829364536
1731654250.1605177,805.4556905285895,802.3759854116356,797.5881086325234,804.5831262120068
1731654250.1644316,804.0870871756351,799.7566738445576,797.5646137241825,807.4617124136189
1731654250.168346,797.6413200085872,800.0054924395279,797.573985323879,808.9646284813587
1731654250.17226,792.7597000546929,802.4516323246366,798.2543634170023,809.0712512530926
1731654250.1731818,796.3785366343326,805.1569607461752,800.1929501132854,808.4489053351567
1731654250.1761744,809.5126399593039,806.3621198285168,803.4075622293452,807.7677612232418
1731654250.176769,825.64201502959,805.8004304763248,807.1746325489748,807.3292494946619
1731654250.1800883,835.0848025638321,804.7404018021743,810.3579492951504,807.1038199379102
1731654250.1814368,831.957234704716,804.75728799516,812.0619152554001,806.9432759140059
1731654250.1840029,818.4158407349431,806.3749087190039,812.1962592099804,806.7426956198718
1731654250.187917,803.0562955199524,808.7397985716108,811.5430088912105,806.4818591225398
1731654250.1887438,794.7385690301418,810.4486414448562,811.2055046505691,806.189762429769
1731654250.191831,796.4708668745541,810.6501181237819,811.7626318263883,805.8984933946878
1731654250.1955886,803.908407793087,809.4951074118035,812.7506879182711,805.6214355907423
1731654250.1957457,809.4959615504141,807.7530866728121,812.9524528013297,805.3555741459285
1731654250.1996596,808.8502542308454,806.1030027619158,811.3717348697958,805.0927290000611
1731654250.203574,804.1380686619683,804.7097271356411,808.1398611544577,804.8276091853415
1731654250.204306,801.6797846216898,803.3498263636448,804.5552364673085,804.5594687687845
1731654250.207488,805.9345389172214,801.9226478664264,802.1731732064766,804.2899779055996
1731654250.2114024,815.1690280003913,800.8899357427304,801.7220709942353,804.0207973764805
1731654250.2144082,822.623897706175,801.1700954880293,802.7554180566883,803.7525419838993
1731654250.2153163,822.1731493578678,803.3959566689579,804.2175012340798,803.4849900977483
1731654250.216322,813.6071524679567,807.0634829136953,805.2891879048385,803.2176988659866
1731654250.219231,803.0480729377372,810.3994906541964,805.7908630307571,802.9504077834777
1731654250.219868,798.1301720897663,811.3127334594936,805.9945667461645,802.683093880672
1731654250.223145,801.905218771439,808.8368164548607,806.2235435933093,802.4158365948666
1731654250.2270591,810.4669357217421,803.9080794153258,806.6180208267742,802.1486860817016
1731654250.2309735,816.2581826090545,798.7753390364422,807.1135602304324,801.8816309864761
1731654250.2332275,814.3668311923708,795.4705389362373,807.4779034661378,801.6146566250545
1731654250.2348876,806.60050788946,794.5440319468792,807.3453057896695,801.3478207017422
1731654250.23543,799.9050237511076,794.9874701661,806.3449468570756,801.0812533801233
1731654250.238802,800.4119852551358,795.2511404551365,804.3812127255085,800.8150226483963
1731654250.242716,808.1432550519163,794.4545373339109,801.907791201293,800.5489180747412
1731654250.2466302,816.9057842144728,792.9023871570622,799.9030062576335,800.2823702991278
1731654250.2505443,819.4999832035047,791.6748627383071,799.4057922126042,800.0147969159583
1731654250.2509918,813.8085868756631,791.7398417785389,800.830390720182,799.7464275502294
1731654250.2512069,804.5732208602728,793.2704560424661,803.5343389499732,799.4790391018266
1731654250.2520473,799.3274098274323,795.5954313776795,806.0160427409553,799.2154132324647
1731654250.254459,801.8916248947371,797.7219722876322,806.7009706060098,798.956612089238
1731654250.258373,808.9357100940686,798.9879535738088,804.841561270712,798.6981402348694
1731654250.2622871,812.649893845199,799.3655527451187,800.9469525455058,798.4290952976085
1731654250.2662015,807.4841680501773,799.2715977420542,796.4851640345521,798.1395066677943
1731654250.266554,795.360668720607,799.1528987927633,793.1095391841926,797.8360564127073
1731654250.2701156,784.8190086006366,799.2187723927794,791.9224423085698,797.5544517218557
1731654250.2708666,784.5279497407656,799.4462202830622,793.1201246729898,797.3460325458082
1731654250.2740295,796.3526007269654,799.724866162892,796.0257559018282,797.223939615344
1731654250.277944,813.6272358139422,799.9751274698405,799.3784016154335,797.093559923718
1731654250.2818582,826.0349575492348,800.1801831831741,801.8147612001593,796.7478312722587
1731654250.282116,827.1527618845741,800.360634300826,802.4754346108315,796.0212757292123
1731654250.2857726,818.7448664699242,800.5402740925134,801.4836231984242,795.0924997996884
1731654250.286092,808.7302128245046,800.7293953497028,799.9326309759823,794.7018889769747
