timestamps,eeg_1,eeg_2,eeg_3,eeg_4
1731653393.4253964,811.1579145354934,800.0287322769849,791.7559307632816,829.6792122073368
1731653393.441,804.834963733109,801.5002994460207,787.3637013343888,822.9769079013365
1731653393.4566038,801.041662272307,803.9068241506315,780.9929426648314,817.3925957888339
1731653393.4711034,800.6684891196301,806.8950276640445,772.8554538377192,813.1609505789746
1731653393.4722073,801.7166586033309,808.5672417962677,766.0606821455874,809.1917270648346
1731653393.487811,799.5435901626646,806.6279105996147,765.3536221305835,803.4983737631387
1731653393.4894,789.6788654802164,800.2264090471333,774.6306978665923,794.6751422870768
1731653393.4933002,772.3172229453115,791.0520677659431,794.6535614638956,783.7872314831619
1731653393.4972005,755.0511026926155,782.5973674057257,822.2354759681148,775.2662205925736
1731653393.5011008,750.2239992536664,777.9299761717251,851.2579122548939,775.5108525518841
1731653393.5034146,766.9356516076716,777.6531907181654,874.7635055630462,789.2516913271438
1731653393.5050013,802.8568318183366,779.6846776989496,886.9925836888243,815.6681680096326
1731653393.506,842.8854865219948,780.9740154814151,884.8232460031527,847.2468538615483
1731653393.5089014,867.5557503761087,779.6770508356188,868.7234741702791,873.1659573490208
1731653393.5128016,866.3650229800608,776.0777668276808,843.1520744858469,885.8119287617162
1731653393.5147643,846.0450825256911,771.8096638258961,815.8006647868006,886.0585380921885
1731653393.516702,826.4004858250323,768.3951509569151,795.2691715658145,882.9611822951276
1731653393.5190184,825.7708312752032,766.4446211010188,787.8232092423713,887.3353537455639
1731653393.5206025,847.1119884614883,765.9156995262584,794.7174925761448,903.6512254247175
1731653393.5245028,876.0525210962957,766.7290912391709,811.3981185712007,926.5109077240381
1731653393.528403,892.8167289373316,768.885822872748,829.073554556962,944.6715904345544
1731653393.532303,888.3173853711205,772.0340481397545,838.3416742480424,949.5898364684267
1731653393.5336175,871.1771417383344,775.1889600634445,833.7841173541527,941.7852477198902
1731653393.534622,860.1226335139723,777.1642483234497,817.4389138248168,930.0822675042077
1731653393.5362036,868.3281162232489,777.4330726751557,798.4976440201821,924.4948485601108
1731653393.540104,892.5593019857873,776.5684397392585,787.983012648356,928.4739792851549
1731653393.5408964,915.6416967045172,775.7597767310177,790.9605694633187,936.5679055841716
1731653393.5440042,919.952764514162,775.808856490477,802.340479841955,939.1705753997538
1731653393.5479045,901.1134981305756,776.528523680216,811.1448391768605,930.4757560688965
1731653393.5502255,871.2963952972609,777.0728675934416,811.1625348014134,913.3403958036852
1731653393.5518048,850.0153102948995,776.8413034572791,808.7081162707972,897.3290010046023
1731653393.5524712,850.0029005470913,776.1107501659529,818.823841120869,891.6538364766507
1731653393.5557053,869.1128958058734,775.8698602920003,851.3059064572353,898.6447296363309
1731653393.5596054,893.8018539888411,777.0448666001615,898.6580746882672,912.6785295424185
1731653393.5635056,910.3921033553536,779.740139403358,938.1536638069631,924.9224472761737
1731653393.5658293,914.6500911237397,783.0174300881083,948.057463826773,929.7123994499369
1731653393.567406,912.4934758060483,785.3431640346162,924.8310263387643,927.5828882644445
1731653393.5713062,912.4418107138201,785.4517631237276,886.646519661943,923.1858147412245
1731653393.5713243,917.0049377081017,783.146136089184,860.1967713068692,920.5063060968579
1731653393.5752068,920.3784441970104,779.5526552579518,861.6670385253758,919.5203874204853
1731653393.575793,914.056913152278,776.6131813017735,886.7458044247551,916.8443512922972
1731653393.579107,895.3322958400474,776.0329931447503,916.2761013590226,909.6087313784883
1731653393.5814333,871.2964216789051,778.2608075288182,931.4828840784586,899.1648078636055
1731653393.583007,854.5448709488923,782.1346494641383,926.1170282816674,891.1475865990041
1731653393.5869076,853.5581565809896,785.5103356975044,906.9414120021788,891.2452165899193
1731653393.5901775,865.4769477779516,786.5851024133233,884.4649459954103,899.9010207379414
1731653393.590808,877.5951704518626,785.0640329210313,863.4913017915521,910.7361946378693
1731653393.5947082,876.9685447088085,782.2983610080136,841.6491261582528,914.7498035005037
1731653393.5970366,860.6184327211029,780.2603081117802,815.6726360723945,907.2634310020936
1731653393.5986085,837.9854671783373,780.1702890460274,787.9826959162092,891.7765611747849
1731653393.6025088,823.5592204989482,781.8551087683558,766.6075663869832,877.2857017421184
1731653393.6064093,825.6555585847002,784.210427268197,758.6244946476876,871.2185115748216
1731653393.609031,840.2589123438975,786.1834793660886,763.8304923780656,873.8508168525691
1731653393.6103094,854.4871446018943,787.4061333118633,774.9474487711046,878.6460998383395
1731653393.6106896,856.6071291043431,788.1355316173299,784.070325005463,877.9197118460431
1731653393.6126404,844.8056230767911,788.8284023135357,789.1054266445777,869.0805562048465
1731653393.6142097,828.2616194392308,789.8300215915538,794.3964465530752,856.6249277902665
1731653393.61811,819.9352396303057,791.3133525712602,805.5702360203315,848.5814485572955
1731653393.6220102,826.5456646299076,793.2727404388439,823.7387576609415,850.2296724466719
1731653393.6259103,843.2815313237946,795.4247314665844,844.0680274852409,859.7388332388219
1731653393.627884,857.3329313635867,797.1487997724865,859.4520254909496,868.9172973771451
1731653393.628244,857.6817237115336,797.7081748992704,865.9979702827426,868.6991637878888
1731653393.6298108,843.6997048869706,796.756401678937,866.2051849847842,855.6831913742249
1731653393.633711,825.8996080282438,794.7928924695165,867.7673296645492,835.121691182583
1731653393.6376116,818.1884725766021,793.1424214308428,878.8404165185596,817.96692904823
1731653393.641512,827.4807490395294,793.3223430440883,902.7160285370353,813.6601050915827
1731653393.6438477,848.4070367367174,796.1142761856804,935.214336499537,823.5076081093767
1731653393.6454122,866.8185118721075,800.9283786747258,966.5338433982924,839.2837868741478
1731653393.6455865,869.3095957130537,805.9316110690471,986.5418764928672,848.1443066479933
1731653393.646737,852.0141313946513,808.9617754055939,990.2826007268537,840.6437614900074
1731653393.6493125,822.8504938613729,808.7312834701328,980.3280670081583,816.6325056063843
1731653393.6532128,795.9872624014038,805.5749565834423,964.6038391138504,785.2658692521361
1731653393.6571133,782.5125428560405,801.237806065103,951.1769649784114,759.2800569379052
1731653393.6594512,783.9298671946741,797.8349542170912,943.4331507792581,747.5670352808252
1731653393.6610134,793.0834435397643,796.6907668232805,938.8358937915926,751.131610291465
1731653393.6649137,801.2836720585773,797.7975756439346,932.0131606748566,764.6843418887617
1731653393.6655908,805.2730986541736,800.106949296691,919.7545195715171,781.6263112833939
1731653393.668814,808.0735815725034,802.2747859373552,903.9951466431683,797.9719999874225
1731653393.6727142,813.6256961477961,803.3155853377789,890.4718491839403,812.6160463963746
1731653393.675055,820.9048007214992,802.8842344167591,884.4134305309311,825.060801101904
1731653393.6766143,823.4009916488694,801.2298105647892,887.2340969109204,833.6412780660901
1731653393.6804826,814.6028145881437,798.9856954387,897.1533576506579,836.0842011072816
1731653393.6805148,794.5452792775234,796.908944296554,912.6611695431315,831.6359575812314
1731653393.684415,771.4617693029273,795.6248188298233,934.6214880228125,822.5042460831371
1731653393.684444,756.6894541269302,795.4393537169949,964.0141204360219,813.042173470773
1731653393.6883156,756.6235549396212,796.2943281354009,997.1271623656453,807.130698954274
1731653393.6906586,768.1129080865393,797.8848373253537,1023.6557196522601,805.8312194255337
1731653393.692216,781.121777228823,799.8650391362893,1031.4169969593183,807.2568435738164
1731653393.6961162,786.6752731057948,802.0233845010972,1015.2117877079698,808.7999513766091
1731653393.7000165,783.6937346067618,804.3460528295888,982.4719940114766,809.7850600546112
1731653393.7032971,779.0784366008074,806.9461502090601,949.8140902066389,812.0601200177503
1731653393.7039168,780.9764271416547,809.882557097521,931.8404267702999,817.688881304779
1731653393.7062624,790.9863159356231,812.9706412559877,930.4637221650654,825.6239657633213
1731653393.7078173,802.133028460814,815.7757346830822,933.5179500135062,830.6873442965378
1731653393.7117174,804.6115335151792,817.9120860617439,924.5178418649722,826.6742285568806
1731653393.7153792,794.541787294224,819.4667299180074,896.3921660595121,811.6951850234943
1731653393.7156177,778.1072183506251,821.093169459497,858.2414364636636,791.148993069016
1731653393.719518,767.128160968788,823.4735830732178,829.1521780783819,774.9444578571804
1731653393.721866,769.3951609679552,826.4451368900266,823.2082745994637,770.3671038832563
1731653393.7221506,781.7998626674245,828.59426599383,837.0427562928028,776.2496348785191
1731653393.7234182,792.3411056560235,827.942981460773,849.7627763547365,783.6577391588064
1731653393.7273183,789.8402761486187,823.4566936704986,835.9777717077817,782.9989543402062
1731653393.7312188,773.5120276959836,816.2018931926576,782.9316069484214,771.7840675778019
1731653393.735119,754.1515433387071,808.9923463433338,699.7025613772115,756.4528995810577
1731653393.7374697,745.4611721985043,804.5304850766328,612.2503526527946,746.7526601638122
1731653393.7390194,752.5456094294053,803.4780643888158,548.1708875589287,747.642468450969
1731653393.7410038,767.3738813249719,804.1690655820091,521.7239591114727,755.6498678708045
1731653393.7429197,775.2766476624378,804.3131130541068,528.4820727336962,762.3855832203142
1731653393.7468202,767.1491359516956,803.190088759735,551.5788128238715,761.6908424943936
1731653393.750276,747.1189182659964,802.3211591365017,573.856158026099,754.2825186514162
1731653393.7507205,729.2089769678859,804.0051992804705,587.3346666275198,746.5347219315458
1731653393.7530732,725.7281078192165,809.0907632651735,594.5555372526962,745.0857080847477
1731653393.7546208,737.0419124824056,815.9904316467735,602.6253193371813,751.8707754698339
1731653393.7585213,751.2920908631593,821.701921376341,615.5971011231373,763.1468592066769
1731653393.7598567,754.3924573513152,823.7998157334947,630.9865116269468,772.6754696133431
1731653393.7624214,741.9959318673374,821.731456915447,642.2531239798061,776.3347277036297
1731653393.7663217,723.3649404921433,816.6892460802806,644.4558716868403,774.8270043329547
1731653393.768677,713.866808306757,810.672973796427,638.4531955887121,772.7779426640722
1731653393.770222,722.4621914766878,805.7340174249788,630.7549516735647,775.0750054777063
1731653393.7741222,744.6681479013768,803.6679268988242,629.4964151142728,783.1246427789181
1731653393.7780223,766.5236390234758,805.6661464283399,639.3715300479096,793.6678401617114
1731653393.7787104,775.7023004467968,811.6052988133064,658.5446220125823,800.9275994805377
1731653393.7819228,770.4401817623664,819.4851808320923,679.1803114217591,800.4978276583156
1731653393.7842803,759.585293144635,825.915977568954,691.437756159512,792.2171897581557
1731653393.7851725,754.6727110345347,827.8564340177419,689.089086442039,780.0801234880897
1731653393.785823,760.8426270085947,824.5826389625889,673.6316308986951,769.3847680766346
1731653393.7897234,773.5336992936593,818.3364416348005,653.8667865440877,763.3031714139911
1731653393.7936237,782.9834183780933,812.9272042943412,640.447807608687,761.4589802797652
1731653393.797524,782.6086260586655,811.1679401547483,638.8355059996859,761.4732122833113
1731653393.7975636,774.5176773475947,813.0463186042248,646.0494769397544,761.9109521880745
1731653393.7998843,767.7158946191043,816.0109170907027,653.9814670513103,763.7830442470611
1731653393.8014245,770.403408915016,817.0725461213675,656.550472326411,769.0718153834333
1731653393.8053248,782.6630715647445,814.9960591008145,654.6369878900593,777.6403338630946
1731653393.809225,795.7179419631062,810.8902248505558,654.8115613887516,785.6517530263221
1731653393.8131254,798.6539502769302,806.9288591097927,663.4135244063565,787.4729022992809
1731653393.815488,787.3213332604521,804.496495514007,681.3421844371982,779.9206843736084
1731653393.8164167,768.2212234862219,803.3899544929496,703.732975823404,765.451434919512
1731653393.8170257,754.1226380817345,802.5809942249408,724.0702792681934,751.4904184053347
1731653393.8200688,754.6706138874093,801.5657758518803,738.6819563244587,746.0202306089716
1731653393.820926,769.200604295866,800.9023183712002,747.9662448916554,752.4396585113878
1731653393.8248262,787.3983302778629,801.486366506994,754.210561754236,767.3737428989809
1731653393.8287263,797.4366928305874,803.3912652908984,758.9201820006217,783.0266527615139
1731653393.8310916,795.1758247206286,805.4340623205171,762.4123220891671,792.3102038743244
1731653393.8326268,786.831149076803,805.8475412245381,765.5393625695665,792.9604160238739
1731653393.8352702,782.7590902867072,803.4585961595999,770.9037607754102,787.8671999853552
1731653393.836527,787.7157878975859,798.4876737577513,781.4268255148473,781.990276497324
1731653393.8404274,796.269667219821,792.5071165850817,797.1420821017657,778.7190031527535
1731653393.8443277,797.5895266137723,787.6667332243034,813.5128429377357,778.3659250618474
1731653393.8466952,785.4143143741315,785.6296002808473,823.7712423046576,779.2772607691614
1731653393.848228,764.3787682862747,786.7551152978856,824.1579862727227,780.0152377495378
1731653393.8521285,747.1819675120987,789.9702063088718,817.8024990352626,780.715568161497
1731653393.8541234,745.04909823203,793.4426296591564,813.5293974059653,782.7993313152382
1731653393.8549654,759.3898271360138,795.6928494393093,820.0144413591207,787.5570187787021
1731653393.8560286,781.233329255045,796.4615366017574,839.7688305133029,794.8302676842694
1731653393.859929,798.6060877617,796.7686731752563,867.5676451177894,802.8307185357556
1731653393.862299,805.8085869771639,798.1126041379526,894.0592711873858,809.250288924432
1731653393.8638294,807.1737306467477,801.3182064593374,911.197684459712,812.7983360581386
1731653393.8677297,812.3419323040697,805.7907107643377,915.5452588530391,813.9120907039141
1731653393.87163,827.0250535549476,809.719537193901,908.2747872130693,814.0299072114161
1731653393.8729763,847.0994755140772,811.2070572641126,893.5151469703845,814.0479420409287
1731653393.8755302,861.2444571302559,809.6548994928979,876.9395276728087,813.3666402531176
1731653393.8779025,860.1859838354957,806.4287983425661,864.8220198637623,810.5258150850068
1731653393.8794303,844.911586597293,804.1840884416869,862.6062732575832,805.0480661960445
1731653393.8833308,826.8587898433985,805.1784276356452,872.5900059705168,798.8565279326757
1731653393.887231,819.573658219707,809.7399841634813,891.765852167919,795.6639438875255
1731653393.889862,828.3243920050032,816.0195406392605,911.6243826565933,798.2887050959347
1731653393.8911314,845.9382550091065,821.1832507513807,921.1125352605857,805.8507968514881
1731653393.89183,858.3126255444955,823.1262685419534,912.1807784400373,813.4640699982937
1731653393.8935063,855.4582568033707,821.506647765343,885.1779052457332,815.3799576504839
1731653393.8950317,839.4383449012367,817.5418001110818,850.1913613593739,809.5322177374966
1731653393.898932,822.737508187632,812.9455396383961,822.1301388603553,799.678829935754
1731653393.9028325,818.1044614317717,808.89004924313,811.9607715736543,792.8770323660389
1731653393.9067326,828.058056700875,805.6779617205658,820.4280011851406,794.0080982475492
1731653393.9091098,842.8804739995862,803.1570691839081,839.2368955621652,801.9273280856693
1731653393.9106328,848.9066268643544,801.3465452895457,858.2776030333954,810.6064344153291
1731653393.9106832,840.0710486243744,800.6897025811369,872.2341207940401,814.2606235777046
1731653393.9145334,822.9020368811184,801.7596412801987,881.331247115225,811.9743070170742
1731653393.9184337,810.91099498045,804.6997331148488,887.2506382891238,807.9265438850489
1731653393.922334,813.3015924702295,808.8366068772403,889.4921014668981,807.2473289699045
1731653393.9247136,827.3297502974289,812.759032496872,885.7567635182775,811.2042698609184
1731653393.924759,840.2920946420921,814.8910064476868,875.1395947754538,815.8171615736327
1731653393.9262342,839.3997760754896,814.319110561129,860.3750875287944,815.085628694595
1731653393.9295363,821.8639674949949,811.4251496211275,846.8865473969172,806.2754863849968
1731653393.9301343,797.4210274454459,807.8510457044282,839.4658719143654,792.9820427172654
1731653393.9340348,781.1040573979076,805.6292429975579,839.1004074817753,783.2431695327915
1731653393.937935,781.5395111372276,805.8907984566414,842.121910613795,783.7802737870867
1731653393.9403172,793.9880674561213,808.0233332612243,842.3853065942798,794.7173112854191
1731653393.9418354,804.1314814391762,810.0027983004896,835.3529221390486,809.1284608809174
1731653393.9457357,799.998481494919,809.7927283558101,821.4268484281151,818.1023794718154
1731653393.9483898,782.3522966963966,806.7954905414174,805.8618008399235,817.4607531938575
1731653393.949636,764.7215222406321,802.200919896167,794.8947099123923,810.7186569142386
1731653393.9535365,762.6909637038552,797.9605874149158,790.9765139253531,805.8505375240024
1731653393.9559207,780.9832525016157,795.2930387135515,791.1819610067448,808.5376958726706
1731653393.9574366,808.8147364449063,794.0017793174452,790.4072018199762,817.5119124352736
1731653393.959655,827.5242975393248,793.0922613384969,786.7472059055277,825.8653356662916
1731653393.9613369,824.7735384720886,791.9795431384825,784.2875038671808,827.175081071903
1731653393.9652371,804.2271710408429,791.1307187497624,790.4842324176677,821.1628288583167
1731653393.967243,782.8312356596548,791.636293377438,809.7613984586277,813.9204058113138
1731653393.9691374,777.4778718770687,794.215095050628,838.302818985743,812.3923829070745
1731653393.9715245,791.5594020015016,798.5590797655523,864.5911274043575,817.9191756693845
1731653393.973038,812.3789158237596,803.4911012224609,876.1688304262161,824.6626351391993
1731653393.9769382,821.6657809095711,807.7012156904098,868.2001116609064,824.5397844691942
1731653393.9808383,810.5359410135154,810.4666093453528,847.5084700243575,814.4668192649452
1731653393.9847388,786.5204296669929,811.8910331488208,828.7480056890838,799.5216732781332
1731653393.986096,767.1071836708129,812.5878375383368,825.1379607652773,789.151731560081
1731653393.9871285,765.585759893056,813.093478999796,840.0957022769837,789.6273209277009
1731653393.988639,780.9842168707594,813.4457096546412,865.18611464955,799.1023012826807
1731653393.9925394,799.8523929263786,813.2171545885394,885.321340143486,809.240806490059
1731653393.9945517,807.6809783996989,811.9506149488122,887.705520962464,811.8145595029862
1731653393.9964397,800.2944537308465,809.6398583726628,869.1983026798247,804.8549201299423
1731653394.00034,786.195393910853,806.8677733822432,837.9595518718548,793.7593992456713
1731653394.0027318,778.5044130725688,804.4793023756495,808.5193179411885,786.9892579108073
1731653394.0042405,783.5682689351175,803.0309937172733,793.1987684278623,789.9475868238209
1731653394.0049496,795.8565485662351,802.4496171221933,795.0290282277125,801.4622093108716
1731653394.0081406,803.3832681160436,802.1850780098573,806.4447516509182,815.0019909598535
1731653394.0120409,798.8768157132863,801.7247405037177,814.4412177859892,823.4039316370232
1731653394.0159411,786.8286340743678,800.9905474366919,808.879296948293,823.6999262344476
1731653394.0183356,779.9671778492767,800.2694253811311,788.7767557754044,818.7570920809608
1731653394.0198414,787.9200608697328,799.8430352388266,762.813190117789,814.7270979726726
1731653394.0237415,807.8089577500126,799.7488923939757,743.9435954688095,816.3333153155372
1731653394.0238028,825.0915720087187,799.8361963194628,741.6522460598694,823.6609156940367
1731653394.027642,824.4196766610874,799.9407062398201,756.6663902615614,832.8398718497548
1731653394.0294485,801.9621774745129,799.986325240224,781.0903986865333,839.5934051933446
1731653394.0315423,769.3111831263177,799.9795460449185,803.3446035203864,842.2387393369422
1731653394.0339391,745.5982365837413,799.9573629345529,814.5519885726204,841.8743968562912
1731653394.0354428,743.6460314041028,799.9464434119619,812.6734687453057,840.565571914117
1731653394.039343,760.8268543866303,799.9522326809797,802.3987725705935,839.694649510185
1731653394.042656,781.8971019722766,799.9675960614429,791.2415204756538,839.5492584576799
1731653394.0432434,791.6869477886569,799.9844150995865,784.3491479876557,839.7871158808701
1731653394.0471437,787.4311941538865,799.9991932885769,781.3876649907617,840.0157219757385
1731653394.049543,780.611660747228,800.0125796741653,777.7714032173503,840.0684511074344
1731653394.051044,786.8061282932726,800.026574368706,769.5492198396713,839.9806406665896
1731653394.0549445,812.0438709119596,800.0424833198354,758.1568332964022,839.8526488165104
1731653394.0588446,846.9435383477954,800.0604729971323,750.6915223913326,839.7502120749189
1731653394.0615094,873.2318876387208,800.080091103751,754.5930624235837,839.6831981578397
1731653394.0627449,877.1381028019371,800.1008772000939,770.5280287729638,839.6313643567343
1731653394.064345,859.091487375051,800.1226302408288,789.6337685428955,839.5742361846272
1731653394.0651464,832.6414985233633,800.145360999039,798.4447925255545,839.5040913387653
1731653394.0666451,814.0590322238231,800.1691383500632,788.5856995656767,839.4235701967009
1731653394.0705454,810.9155605724147,800.1939863297513,763.8508678438848,839.3381717692504
1731653394.0744455,818.2545831891699,800.219869007019,738.7860774235037,839.2512401484014
1731653394.078346,824.7782933908301,800.2467248944314,729.4706866508312,839.1631540909516
1731653394.0803626,823.453292571726,800.2745016803882,743.2987703527391,839.0728295973092
1731653394.08075,817.4176762812092,800.3031649705372,775.0001772445331,838.9792777473425
1731653394.0822463,816.1881541039336,800.3326808987298,810.9867247339414,838.8822126976753
1731653394.0861468,825.7148795845382,800.3629909117899,838.0676206860646,838.7818712236157
1731653394.0900471,841.4085985416255,800.3940070957881,850.2497967182328,838.6786059762823
1731653394.0939474,850.7602431378018,800.4256518970195,849.7089889336202,838.572635982726
1731653394.0963538,843.6932851386034,800.4579343087861,842.6762024058104,838.464021582388
1731653394.0978477,821.8909740279413,800.4909972417975,834.3540543576678,838.3527523936388
1731653394.0992155,799.0315837240096,800.5250305792778,826.7416445081635,838.2388283248341
1731653394.0992413,791.301139647251,800.5600006846646,819.9928386383054,838.1222837674013
1731653394.101748,805.3771568257425,800.595347485668,814.7081771408161,838.003167542857
1731653394.1056485,833.1666157367066,800.6300465165359,812.2132920798891,837.8815149868253
1731653394.1095486,857.5093882100216,800.6634293131654,812.5127102361062,837.7573424536253
1731653394.1119573,864.6277565706021,800.6965750869883,812.5551078422685,837.6306737270114
1731653394.1134489,853.7195245003005,800.7330082736931,807.6448506234398,837.5015794652096
1731653394.1173491,836.2505913183825,800.7767670907274,795.671137367761,837.3701834094564
1731653394.1180692,825.8149061740806,800.8271629519445,780.1691139417456,837.2365870370426
1731653394.1212494,827.0956187149227,800.8734575155621,768.2401615324602,837.1007205450883
1731653394.1251495,832.9628187733473,800.8970804265601,764.1105438298619,836.9622422806534
1731653394.127561,831.7199910122562,800.8881494642051,764.3013427442646,836.8206968762297
1731653394.12905,818.0401987620082,800.8711970995953,760.0087171085627,836.6760438677043
1731653394.1329503,798.2930929425194,800.9147532961787,745.5478478774619,836.529278693876
1731653394.134138,785.8567879510077,801.0889334949952,725.0794682322299,836.3823656777702
1731653394.1368506,790.3193430238678,801.3621582216582,710.6110588646386,836.2366680886025
1731653394.1369224,809.3789401509143,801.5016154437496,712.3102798140894,836.0901642421004
1731653394.140751,830.0293373285696,801.1124140153994,729.6360920501351,835.9358864711945
1731653394.1431646,838.2685971708448,799.8972254764471,751.3058914220152,835.7654745438867
1731653394.1446514,829.8307962549659,797.975751116509,764.2221785784559,835.5794626834277
1731653394.1485517,813.4340137192422,795.9042503106843,763.6941641610188,835.3982791422544
1731653394.152452,803.7091953052287,794.2569041720831,756.5462446665558,835.2589158782906
1731653394.1557755,809.2223323794849,793.1416618654245,755.1170446121354,835.1831074863771
1731653394.1563523,825.2826582425281,792.1774513244982,767.59201884015,835.1255047112488
1731653394.1587684,837.6457916358569,791.0038008293263,792.3277317724251,834.950709393915
1731653394.1602526,834.2919120392038,789.8203620289333,819.8358994459735,834.5110400536951
1731653394.1641529,815.5794003371458,789.3709051034654,840.0145441330602,833.8462165125263
1731653394.1680532,794.2536408823415,790.3069050312656,848.8325608400987,833.3782988832529
1731653394.1690345,785.2020286631691,792.5148885936371,849.8440602986013,833.8180049808378
1731653394.1719534,793.3932866203851,795.1052895600701,850.1867407621919,835.5535702090416
1731653394.174372,809.9520090784711,797.1482669779789,854.8578513380594,837.7790304755987
1731653394.174629,819.6404635506995,798.4731355781844,863.9590314114607,838.316709814115
1731653394.1758535,813.6753108813928,799.7319210572858,874.5223793113153,834.9950232291308
1731653394.179754,797.3328815005359,801.6484788278362,884.2181220860473,827.8815054524183
1731653394.1836543,785.8891192588021,804.2167462999813,892.8353578736138,820.1198042033457
1731653394.1875546,792.0052398466925,806.6621054522676,900.2917381436246,815.9209894708896
1731653394.1899755,814.902073904173,808.1495394187564,903.9551867171294,817.053628762418
1731653394.191455,840.3374831380154,808.4279463511674,898.8861576609987,820.9481624556627
1731653394.1934822,851.4801359393946,807.7473253726354,881.4351611362387,822.3317051257039
1731653394.1953552,841.8052953432127,806.2786460292665,853.0202636135595,817.2617289131229
1731653394.1992557,819.618229406217,803.8370415988014,820.6217488857935,806.29673903137
1731653394.203156,800.8199660908606,800.3190549341401,793.4717241130674,794.1708260310944
1731653394.203931,796.1242127749593,796.409744960995,778.3538353693766,786.1820522851232
1731653394.2055793,803.2219601549743,793.7352367452603,776.4622032268659,784.1904827203541
1731653394.2070563,809.9779349660054,794.0732354539663,783.378494891333,785.4477940963033
1731653394.2109566,805.4681193083813,798.0554461475286,792.0404764806117,785.1930621248064
1731653394.212335,789.3372612919849,804.3376063715042,797.182021816407,780.8942947637519
1731653394.2148569,771.7549671911955,810.0497747629219,798.6303254334648,774.64116125995
1731653394.2187572,764.4338095137805,812.4777434486507,800.9523537653397,771.6417606064367
1731653394.2211833,770.6647825871662,810.8937387824208,809.2309391676845,775.9466546403111
1731653394.2226574,782.8192263949502,807.1070630478474,824.0219953780919,786.8499779948477
1731653394.2265575,789.1261615518666,804.1406086349637,839.7132334597801,798.9282658048178
1731653394.230458,783.7203255023901,803.9379583547403,848.0087205881249,805.7431242049568
1731653394.2311888,771.5637324162961,805.8877894652293,844.1551856270238,804.318826526301
1731653394.2343583,764.4111907829412,807.353717142925,831.3121648051471,796.9916645350877
1731653394.2367866,771.2643066608075,805.7851806588722,819.6282104686093,789.3673949794106
1731653394.2382586,790.9049397543539,800.7487334959104,819.9832551509445,786.0548875984547
1731653394.2388277,812.3347993699774,794.3548453163841,836.0214843810527,787.366224810547
1731653394.242159,822.9099788315017,789.8346149576693,860.1082438880896,789.3741971489933
1731653394.2460592,818.0332125332105,789.3666006680924,877.2599625749023,787.2821501635201
1731653394.2499597,804.7879318834475,792.7112223626035,875.5338860905792,779.6227874899929
1731653394.250042,796.3325174958521,797.5619649589336,855.3584050945806,770.0390234501016
1731653394.2523904,801.2262974629828,801.2760446434875,829.7577749127098,765.0530908819377
1731653394.2538598,816.2823834251362,802.6626272498639,814.5002463052365,769.3470668123133
1731653394.2577603,829.0015551114258,802.5003478715414,816.2172881543147,782.2784388858865
1731653394.2616606,827.818974850498,802.4911584823964,828.6349337893978,798.5547788562792
1731653394.2655609,811.7705965725033,803.6440793866917,839.5717888721528,812.504349202386
1731653394.267994,791.5279887744384,805.4989250779037,841.4515639316659,822.1766723756695
1731653394.2688951,780.8743143089944,806.7407694378603,835.592414186738,829.6696143216811
1731653394.2694612,785.5494190264264,806.4502128149777,827.5785957814584,837.6183983081623
1731653394.2733614,798.4945429499556,804.7676347728938,819.9076218706615,845.376038882443
1731653394.273724,805.3967058429748,802.510311034572,809.8528610603936,848.6596917021817
1731653394.2772615,796.2827110900403,800.3756591210227,794.1152039441002,843.1856814033854
1731653394.281162,774.0253772893664,798.6366111668534,774.5673019003577,829.1487669818476
1731653394.2835977,752.8090733762971,797.5083139215302,758.4958118353286,812.5597149109038
1731653394.2850623,747.4299491664129,797.5398200864237,752.5202041485618,802.0012839726859
1731653394.2877486,761.7854678459132,799.3846328631679,755.8256963668438,803.048461926919
1731653394.2889626,785.8475937880423,803.0769806667731,759.4596760040052,814.4926891045634
1731653394.292863,803.665626087709,807.5758810978463,753.2714540593338,829.2182473134035
1731653394.2967632,805.8758823070582,811.121845111013,735.1100973726749,839.0865748679348
1731653394.2992013,796.4634062117784,812.1540816510866,714.2842101932808,840.1472844695332
1731653394.3006637,788.412740401027,810.0570832276807,705.7328125075949,834.3564600286542
1731653394.3045638,792.2151198660808,805.2985905329546,719.2757514722078,826.9049275670701
1731653394.3066018,806.951281653017,799.1229510880156,752.5353916125666,821.7373861309665
1731653394.308464,821.1556686183707,793.1640008616772,792.7431699227772,818.9089988683612
1731653394.3086207,822.406606106123,789.0679581275231,825.0983836632543,815.4464718573159
1731653394.3123646,807.5919613262305,788.0029530904721,840.7644248538126,808.4405033213493
1731653394.314805,785.5229534674144,790.1253465942686,839.4335749431765,797.697600656399
1731653394.3162649,769.9178237639078,794.3898291060073,826.6749640835678,786.1005958138886
1731653394.3201652,768.6107952741904,799.026804562385,809.6898462522373,777.7145104143175
1731653394.3240654,777.8978739717587,802.5065320990262,794.4890219702936,775.1498806129823
1731653394.325455,786.616803457709,804.3438928409772,784.9387105335425,778.020181691538
1731653394.3279655,786.3260105024635,805.1560322202845,782.6130514610483,783.5036484591575
1731653394.3304086,778.7752487051945,805.9466580603646,786.7797299538554,788.5330165120578
1731653394.331866,774.2585477064557,807.1766740663187,794.7787294113538,791.914807264188
1731653394.3357663,782.324303545877,808.3272123971716,803.1567644404055,794.7052196165574
1731653394.3396666,802.8443125225347,808.2857155953276,809.2161269470339,798.6048476209489
1731653394.3435173,825.1004082555465,806.2794201717347,812.0621401431395,803.8690461349513
1731653394.343567,835.8086885855453,802.6660354169576,812.4872093691397,808.7031615135645
1731653394.3443084,829.6012227269412,798.9593680828332,811.9435203582325,810.8008522231962
1731653394.3460124,813.4413443874083,796.9949767409383,811.5152156629833,809.710014859115
1731653394.3474672,801.3019218843176,797.7764818681657,811.5517282007222,807.8405471790321
1731653394.3513677,803.273511252393,800.818060528558,811.9011683981887,808.9674228318776
1731653394.3552678,817.8272784513102,804.4702181795062,812.301750560053,815.2006358845326
1731653394.359168,833.4598224498319,807.0027830107936,812.611509086706,824.8535932655758
1731653394.361616,838.2888954542485,807.6784945060143,812.8298290542488,833.1791823352428
1731653394.3630683,829.6827328288589,807.110023185397,813.01761889747,835.7559864576145
1731653394.3631616,816.1544118622113,806.756448705694,813.2243087495592,832.0219163270694
1731653394.3669686,810.2576487643698,807.9823376049313,813.4635631857526,826.0014692542808
1731653394.3708692,818.4235804254547,811.271795264978,813.7251622825413,823.3159555269089
1731653394.3747694,835.7551327709839,815.9665516927547,813.9950226127964,826.660600874432
1731653394.3772197,849.5824666236932,820.5518792869591,814.266212790519,833.4486503156362
1731653394.3784137,848.8411095214619,823.2818782740345,814.5392169832687,837.7164436669615
1731653394.3786695,832.1695910430035,822.8771328144188,814.8174127223799,834.8290568440705
1731653394.3820148,808.7457454179015,819.067912682769,815.103317775883,825.0868604690221
1731653394.38257,791.2802916384019,812.7987590785184,815.3975135958531,813.2244636999912
1731653394.3864703,786.5039749207664,805.9535721371982,815.6993928959212,804.320389106523
1731653394.3903706,790.5956203237673,800.6033022036625,816.00822396876,799.7448747796426
1731653394.3928232,793.264452327586,798.0640760908936,816.3236834056099,796.7060598532054
1731653394.394271,787.0903061244211,798.3037344783942,816.6458228301194,791.7034650416108
1731653394.3981712,774.1280506447303,800.1301794952924,816.9748107803974,784.6179884571058
1731653394.4008682,764.0376886832614,802.0510305850273,817.3107455561272,779.5157736405506
1731653394.4020717,765.3995642815574,803.1474380382372,817.6536328460877,781.2034079425148
1731653394.4059718,777.8283417069127,803.3472484054485,818.003465888735,790.5199934333718
1731653394.408427,791.7366942431472,803.0823102500748,818.3602924655804,802.6843633487398
1731653394.409872,796.0024303918844,802.7926488070847,818.7241797279117,810.4591044297063
1731653394.4133103,787.1908844079653,802.6710731381506,819.0950713715329,809.6919164923395
1731653394.4137723,772.7606487132772,802.6915315049874,819.4726543840884,802.6651904999856
1731653394.4176726,765.5376947225178,802.7527389865137,819.8564500367457,796.4565850739269
1731653394.4197214,773.6909808405161,802.785193476022,820.2462784429235,797.5771581808096
1731653394.4215727,794.1060204361712,802.7767533789778,820.6429005823454,807.0534820744035
1731653394.4240303,814.5658748997058,802.7476082095772,821.0481335844403,819.6354077099453
1731653394.4254737,823.2413541517014,802.7192593552089,821.4635748882539,827.613129142042
1731653394.4293735,817.9776240832077,802.7003481122272,821.8879488751154,826.408268359697
1731653394.433274,807.7819229202726,802.6885931952748,822.3151084468177,817.9649985290314
1731653394.4371743,805.2090562619959,802.6784460981243,822.7364657229441,809.5768841246316
1731653394.4385746,815.8982335749246,802.6664221854512,823.1501928082727,808.9448597985934
1731653394.4396343,833.8602940574331,802.6521021704369,823.5727972586876,818.8707172606443
1731653394.4410746,846.2799769300073,802.6366470170763,824.0393943169341,835.2765060059356
1731653394.444975,843.8219853171529,802.6211720490888,824.5772842977952,849.9149866749626
1731653394.448207,828.1426092978995,802.6060764805544,825.1558281984048,855.7715789685343
1731653394.4488752,810.7111068357908,802.5912025489976,825.6540276666536,851.2436818020092
1731653394.4527757,803.9857378724313,802.576251782323,825.9163672201316,840.25490313154
1731653394.455238,811.995432192727,802.5610516533393,825.9326506759722,828.7114857064225
1731653394.4566758,827.7854090235852,802.5455912925014,826.0443536560053,820.4708252616157
1731653394.457428,839.6199056159196,802.5299356784512,826.9110515657625,815.9732883202864
1731653394.460576,840.6821290264916,802.5141413719676,828.9624074233476,814.0138533313708
1731653394.4644763,834.1662864321853,802.4982257398194,831.434400095611,814.2793717031053
1731653394.4683766,829.6551697289532,802.4821783601495,831.7915002853558,817.8650627414504
1731653394.4708416,834.1936510697838,802.4659829582333,826.717234424067,825.3159383923434
1731653394.4722767,845.918545326599,802.4496293732115,814.9101159935358,834.4557471533278
1731653394.4761772,855.5965411009381,802.4331133932961,799.7570922500148,840.6295012861946
1731653394.4762812,854.4240603830727,802.4164326295183,788.8335464327955,839.651319460011
1731653394.4800775,841.3062241957824,802.399586284148,789.2738184571797,831.0809718452173
1731653394.4831035,823.7380375485734,802.3825797227734,802.0430321366524,819.0189260722716
1731653394.483978,811.9632516204705,802.3654268263335,819.9916014305845,809.66088063036
1731653394.4864452,811.3381265576304,802.3481403062553,831.9885849677693,807.3959529241596
1731653394.4878783,818.8250541079559,802.3307082217489,830.3689846884164,812.1944191603649
1731653394.4917786,826.0350404685635,802.313074125402,815.8876296231175,819.9606776941191
1731653394.4951344,826.1604860855326,802.295155746107,796.3410366654282,825.466819207416
1731653394.495679,819.2432396570346,802.2769264874547,780.4992207928707,825.831686257075
1731653394.4995792,811.6132075025378,802.2585243310536,772.9163235152988,822.2010931396936
1731653394.502049,810.0241212311254,802.2402658631032,773.6813290269283,818.5062758253983
1731653394.5034797,815.4036986113852,802.2224190951839,781.7742020427108,818.2550995259622
1731653394.5073798,821.5838729491084,802.2047456234153,797.169234111799,821.827183420395
1731653394.51128,820.2893113237213,802.1861725243024,818.9978171609009,826.3967578034426
1731653394.5139878,808.3389113363718,802.1652453447487,842.3751905186483,828.4719697040358
1731653394.5151803,790.9925545766313,802.1417466890238,858.6855254430864,826.8447402364482
1731653394.5176525,778.4203926602736,802.1186947194901,860.5121008610879,823.4109946000448
1731653394.518,777.8461207895162,802.1023850786227,847.0296711809691,821.1344054519287
1731653394.5190806,787.5097182124214,802.0980190335257,824.6375162320005,820.8451708965666
1731653394.5229807,797.4283943252782,802.1020309985008,802.1079780214916,819.6710455781697
1731653394.5268812,796.8207549225829,802.099775762269,784.731843174907,812.8261293270751
1731653394.5307815,782.6944053839565,802.0848470105137,772.5277880141216,797.8531506922888
1731653394.532841,762.67603878785,802.1005705706799,763.2898373960186,778.031621607904
1731653394.5332563,749.3248191710526,802.2352559500517,756.6687021290645,761.599043649184
1731653394.5346818,750.1014801951794,802.472986799613,755.0240020058743,756.4108520570823
1731653394.5385823,761.1756189092165,802.4878176061702,760.4571245308837,763.7804575638401
1731653394.5424826,770.4974336081103,801.7118812398737,771.3559994848948,776.8040369889402
1731653394.546383,767.8933122268031,799.8399778081133,782.1852327875382,785.2803087351406
1731653394.5488598,753.8453960183302,797.3809360030052,786.9859291441378,783.570003251057
1731653394.5502832,739.5281996681018,795.6145827244397,783.4873096876044,774.7499451687842
1731653394.5516942,737.9267471925182,795.7748374496528,774.3115719885374,767.4557978515796
1731653394.5528965,753.2345263896754,798.0313477005828,764.5866438191185,768.2591476839286
1731653394.5541835,777.1027506056257,801.1396554828052,758.3703972452385,776.229553805671
1731653394.5580838,794.7367365251572,803.1712899885044,756.8294579778369,784.1055592303741
1731653394.561984,795.893308003457,802.8862155066196,759.0718132224756,784.5943989346122
1731653394.5644636,781.9153347729924,800.7505776017749,764.1238016225188,776.1427906680815
1731653394.5658844,763.3963119755543,798.7812490527042,771.8836695549611,763.5038716537365
1731653394.5697846,751.1970569136462,799.2115318472866,782.2570419135626,753.3242284499147
1731653394.5705476,749.0399488981927,802.8570632308702,793.5888346749003,749.1842350517809
1731653394.5736847,753.3646076861298,808.3775061598358,802.1798425026119,750.2004421005505
1731653394.5775852,758.5134282519236,813.0739706460353,803.6832359628977,753.2553793320852
1731653394.5800672,761.2725005143067,814.7344414248977,795.6323048196667,755.8454249971177
1731653394.5814855,761.6259545015392,813.1710157460228,779.5652590932681,757.2109299921681
1731653394.5853858,761.0317098452882,810.2611781982473,761.442397524789,757.8024207724363
1731653394.587793,760.6993516883625,808.4714125672563,749.7751186860372,758.3046635618214
1731653394.589286,760.9855432597365,809.0409577703394,751.846156694797,759.0739642538605
1731653394.5894008,761.6607405506135,811.2078726801159,769.6505338345446,760.102560997735
1731653394.5931864,762.3880499525343,812.9514177595004,798.1236872896139,761.2311336300568
1731653394.5956707,762.9954583418707,812.5393273309817,827.4918328028189,762.3349529725282
1731653394.597087,763.489604676334,809.660489230763,848.7820337630759,763.3823149918683
1731653394.6009872,763.9500022379098,805.3949005685151,858.6936045466222,764.4015446501127
1731653394.6048875,764.4380168402679,801.2594551012814,860.1783405786359,765.4293100857373
1731653394.608254,764.9690763159733,798.2554139903187,858.7103714619136,766.4831958818725
1731653394.6087878,765.5294276889954,796.6729115583811,857.9484470621286,767.5618396481691
1731653394.6112745,766.1015731304649,796.5573704557478,858.3507264785941,768.6568302492187
1731653394.612688,766.6775434843711,798.0579797220904,858.7313506684064,769.7622268603375
1731653394.6165884,767.2586504197201,801.0988038008622,858.2042351444751,770.8771074219663
1731653394.6204886,767.8495815719162,804.7358985457879,856.8002503971145,772.0035284566382
1731653394.6226895,768.4537536139246,807.1449613843816,855.029741251804,773.1437872075725
1731653394.6243887,769.0721094631432,806.6623247724021,853.3242106909079,774.2990944607305
1731653394.6268785,769.7041472881742,803.1372099815161,851.8226280003934,775.4696828273657
1731653394.6271074,770.3492656839406,798.3077585596092,850.4548945260132,776.6554641902916
1731653394.6282892,771.0074040180765,794.6658737267986,849.1059239651394,777.856512189639
1731653394.6321895,771.6789794697642,793.6434803399311,847.7134887609135,779.0731678023442
1731653394.6360898,772.364560941894,794.6048556740376,846.2769926693483,780.3059167578243
1731653394.63999,773.0646336638882,795.4593817139034,844.8226490123265,781.5552454032705
1731653394.6424818,773.7795500974566,794.3717387986783,843.3717350610821,782.8215774075007
1731653394.6438904,774.5095917187788,791.2152408308013,841.9300225739931,784.1052847418384
1731653394.6459606,775.2550392917946,787.6855847531674,840.4929204273282,785.406723317003
1731653394.647791,776.0162012953904,786.03072358281,839.0541593258348,786.7262559448191
1731653394.6516912,776.7934046871277,787.3502813617602,837.6105731256498,788.0642542817151
1731653394.6555915,777.5869750966976,790.7117225389599,836.1622150723579,789.4210902772841
1731653394.657586,778.3972287562832,793.7445243507414,834.7103963203299,790.7971305366169
1731653394.6580856,779.2244819157445,794.3010534866615,833.2560570303766,792.192739621939
1731653394.6594918,780.069066385813,791.9802164250001,831.7992982331994,793.6082877773633
1731653394.663392,780.931328930513,788.4158733091352,830.3397051490047,795.0441506737541
1731653394.6648138,781.8115963602038,786.1720038702574,828.8768087002907,796.5006899444437
1731653394.6672924,782.7101165631778,787.1020330404568,827.4103180856476,797.9782192090944
1731653394.6711926,783.6270319747682,791.3118051438292,825.9401096647003,799.4769873489428
1731653394.6736891,784.5624668044227,797.2841737546811,824.4661180827349,800.9972263941788
1731653394.6750927,785.5167504372216,802.880141697276,822.9882534451234,802.5392792180039
1731653394.6789932,786.4906313456914,806.4901563141703,821.5063814823421,804.1037261402131
1731653394.6828935,787.4851571281321,807.7075111996227,820.0203432248503,805.6913240833497
1731653394.6836672,788.5009518442647,807.2663850441043,818.5299794094989,807.3025975205342
1731653394.6867938,789.5371414540161,806.38937653563,817.0351417190649,808.937213523264
1731653394.689293,790.5910222766787,805.9907804441488,815.535691401492,810.5937625547549
1731653394.690694,791.6599395497122,806.2200507863846,814.0314934007386,812.270801378734
1731653394.6924827,792.7455764223145,806.5429779806236,812.5224122935443,813.9693156770641
1731653394.6945944,793.8576154561677,806.1912122207474,811.0083115746949,815.6949051998968
1731653394.698495,795.0106170374477,804.6891147448854,809.489054811653,817.4561463013083
1731653394.702395,796.2096541363346,802.2651124316828,807.9645068530574,819.2564409508611
1731653394.7025204,797.4306708511743,799.9767333357487,806.4345343725466,821.0825606162131
1731653394.7048965,798.6171189974716,799.3080878130179,804.8990060612572,822.9021547604116
1731653394.7062953,799.719358712048,801.2231763731747,803.3577929890952,824.6857401581345
1731653394.7101958,800.7762856441556,805.2874007742188,801.8107690824255,826.4536886496438
1731653394.714096,801.9765739464267,809.7752964217495,800.2578109175688,828.3130967298122
1731653394.7179964,803.5835753233121,812.8813061495566,798.6987959884892,830.4176047590486
1731653394.7205,805.6525197917091,813.9294931905029,797.1335999480741,832.8066349811487
1731653394.7213736,807.6766398572983,813.4894635056753,795.5620956570831,835.1986192824651
1731653394.7218966,808.5855514593837,812.5712126499155,793.9841580470259,836.9803123452539
1731653394.7257967,807.5753466038412,811.8540233950312,792.3996756192039,837.6756742518505
1731653394.727379,805.6972042558469,811.4866986619463,790.8085607885282,837.8729793661557
1731653394.7296972,806.9943116873583,811.3087880753363,789.210742595738,839.9444219249336
1731653394.7335975,817.2211077335785,811.1309861865598,787.6061290845507,847.4649803674444
1731653394.7361038,839.4326754353839,810.8711089347562,785.9945538942657,862.9083071618572
1731653394.7374978,869.2076252949325,810.5447697184535,784.3757638690676,884.9353617481802
1731653394.740227,894.693607247539,810.1999927254974,782.7495202033739,907.7486795088751
1731653394.741398,903.8507713851769,809.8687684850208,781.1158167855076,923.9367917136229
1731653394.7452984,894.2728249520467,809.5562209285991,779.4750538790083,929.411253307241
1731653394.749199,876.850024128055,809.2527289452678,777.8278554828872,926.7423041790232
1731653394.7517073,868.6983907589948,808.9483466878092,776.1743232588856,923.7561786640423
1731653394.753099,880.2105442625685,808.6392036968439,774.5130642223542,927.8415943438728
1731653394.7569993,906.918376090104,808.326459394962,772.8411055642314,940.1997523406479
1731653394.7590802,933.2239571604932,808.0127107383626,771.1559972630747,954.7131937292967
1731653394.7608995,944.9542580674099,807.6995498849345,769.4599481238398,962.5020441602983
1731653394.762276,940.1747940257853,807.3871423102005,767.7626801101319,958.6035044881554
1731653394.7648,929.3916464149065,807.0749370445061,766.0771513609926,945.5428346511709
1731653394.767311,925.533095544829,806.762419701829,764.4049052054612,931.2269358590568
1731653394.7687004,932.7504849272084,806.4494131334943,762.718581237494,923.1978564569565
1731653394.772601,943.6763254478938,806.1359954099307,760.9632458569538,923.9080712123417
1731653394.7765007,947.0277271961971,805.8223044547542,759.0995682110574,930.3206448872224
1731653394.7779334,938.3366265480372,805.5084166817874,757.1815724983546,937.3206646603736
1731653394.7804012,924.1605664302419,805.1943347559372,755.4017630145374,941.5998091092434
1731653394.7829146,916.2736417187917,804.88003116914,753.9946127025531,943.0209811838982
1731653394.7843015,921.2646587027504,804.565487493722,752.9504276073509,943.1410864655202
1731653394.7882018,934.7126248411066,804.2507022795281,751.7027674394093,942.9076344938771
1731653394.792102,944.7594715184151,803.9356737559143,749.2049537483731,941.7158549460142
1731653394.7960024,941.7865003575621,803.6203813780819,744.788942712826,938.3757122562909
1731653394.7967868,926.1364666834961,803.3047920666462,739.5600456915603,932.7989339109839
1731653394.7971723,907.8987502908869,802.9889013875752,737.0653245913824,926.7406612461435
1731653394.7985184,899.2202415938763,802.6727851059835,741.8859977493579,922.8392890710734
1731653394.799903,905.0917298534507,802.3565968146553,756.5594533970591,922.6175614025508
1731653394.803803,919.4380671441988,802.0404457972113,779.1970555493234,924.9724011141964
1731653394.8077033,929.4787470346123,801.7241769550736,803.8481615879854,926.4199580712901
1731653394.8116035,925.3429957209385,801.4072443777044,823.4128243060985,923.1676450325186
1731653394.814122,907.7722880986805,801.088986484448,833.1501692490158,913.7415270258872
1731653394.8155038,887.7332700505525,800.7694347201178,832.7611084918573,900.308672442952
1731653394.81564,877.8508444825416,800.45018741193,826.0594087045469,887.4956659085988
1731653394.819404,882.3167497031067,800.1341647217661,818.4910284540553,879.1815599790914
1731653394.823305,893.5593526022894,799.8231166105891,813.8105898968154,875.4423122235421
1731653394.8272047,898.5873586691724,799.5135253693089,811.8380077995901,872.1834270503972
1731653394.8297255,889.8123709695985,799.1947278540426,808.8667421505072,864.2753886497895
1731653394.8311052,871.3055767264417,798.8549262641604,800.68620153532,850.1244993071434
1731653394.8320687,855.275663013489,798.4967975220288,786.2544128639256,833.9239642578848
1731653394.8344932,851.7495155285314,798.1526921004772,769.5239231721589,823.1783790355909
1731653394.8350055,860.0052436378423,797.8766271229958,758.3164643882124,822.8430699709663
1731653394.8389058,868.771731487912,797.6934498345036,761.0105405074241,830.5970186694694
1731653394.842806,865.0678467551621,797.5207796570512,782.5344191440664,837.4547522916487
1731653394.8453293,844.620144565683,797.1365456080391,820.9944143294139,833.9182327366696
1731653394.8467064,815.5444885722208,796.2901666014499,866.4880475130237,817.2662816298279
1731653394.850607,792.3876348466356,794.9772689829191,903.9390862152934,794.3242339473863
1731653394.8533466,785.3296924816802,793.7066474392658,920.1653584347503,777.3791323010834
1731653394.854507,793.0483879734121,793.4273500311945,911.645377130827,776.1040755099234
1731653394.8584073,804.5212403823037,794.9197940392455,887.1684917148458,791.2658323144549
1731653394.8609333,807.8158941311266,797.9680215362356,862.4820705348101,814.534117545672
1731653394.8623075,798.7197125747194,801.0834108701628,850.6222048157963,834.2155373580606
1731653394.8662078,782.7895356441323,802.2929820757668,855.3910999070006,842.5575755840954
1731653394.8669655,769.9349895116661,800.5494146989012,872.211750145447,839.3955080234621
1731653394.870108,766.3371549507476,796.601287896246,893.6547854487771,829.9765010604141
1731653394.8721998,770.1202083589558,792.5405326959371,913.6129613609821,819.4387882001103
1731653394.8740084,773.8800317354436,790.4020811943376,927.3715242831825,808.8720266722952
1731653394.8765366,771.6438409447826,790.949013505955,930.2247168902077,796.0596730133249
1731653394.8779087,764.3025871060725,793.4629764958255,918.5370077232676,779.5714348476034
1731653394.8818092,758.8216700295699,796.4603729747424,893.3138710795365,761.8961323285371
1731653394.8857095,761.7759791032855,798.6682700004045,862.3040279381795,748.462099700507
1731653394.8896098,772.758087818858,799.647573572228,837.1326369768758,743.4374757016865
1731653394.891053,783.6076441015117,799.8363456083118,826.5003220283705,746.2431730990575
1731653394.8921404,784.6127953735714,800.1352992150074,830.4350863425341,751.9953437434006
1731653394.89351,772.8044912971118,801.3490787605223,840.1896274458105,755.4864172307745
1731653394.8974104,755.3453498480978,803.8102717530464,844.1130730392944,755.1992888865508
1731653394.9013107,744.7248994207952,807.3271494084626,835.3255526602592,753.910595944717
1731653394.901862,749.1183757536954,811.3261396026394,815.725457184135,755.4591825117948
1731653394.905211,765.4727374390758,814.9711000475381,793.6516313540269,760.5755328237341
1731653394.907744,781.0948166714219,817.2438249545643,777.350724196825,765.4968035813623
1731653394.9091113,782.92181029384,817.1979790715337,769.5382026538126,764.7370285529498
1731653394.9099064,767.4064102736322,814.4878444986672,767.0923774081197,755.7943203852197
1731653394.9130116,743.1846629715553,809.8616820761703,765.2355045752734,741.8067228546684
1731653394.9169118,724.3426269357507,805.0809634256412,761.7229179018335,729.8110818435728
1731653394.920812,719.7515365789681,802.0608645644267,757.240594514576,725.9597981419139
1731653394.9233477,727.1481995102608,801.703856713792,752.5353686484837,731.5705249622986
1731653394.9247124,736.4810642800239,803.2766260966845,746.1372083704647,743.023741619115
1731653394.9286127,739.0950925750167,804.8604828877474,735.5014621165129,755.171405784256
1731653394.9287596,734.6188638241164,804.6223783259154,720.4680677605921,765.1362253592428
1731653394.932513,729.9258388946055,802.0368738137681,705.4153794869865,773.4547299936831
1731653394.9364135,731.6752769576043,798.2129132383578,697.6401331943375,782.032748040312
1731653394.9367585,739.3247604995788,795.1176586258185,702.6974035453935,791.0061795747049
1731653394.9389513,744.8314123589155,794.2690495837514,719.8065669841498,797.3323241640344
1731653394.9403138,739.487223914326,795.813834591768,740.7099640398096,796.4898672544954
1731653394.944214,722.2703098738202,798.5674473788604,753.7525498288687,786.2162281705562
1731653394.9476128,702.5029760744588,800.8541604863055,751.7822542601667,769.4348320512997
1731653394.9481144,693.8765862475731,801.4624123415903,738.8533724245405,753.7195566066496
1731653394.9520147,703.9633902460259,800.1207260280885,729.6562195009166,746.9737860430109
1731653394.954555,727.5802468789968,797.4144223790335,739.9422339366728,752.0574620111003
1731653394.955915,749.9103345614986,794.4430352099397,774.0896134560071,764.4837692952977
1731653394.9598153,757.5691750742951,792.4623298948273,820.1452659491204,775.4439733295303
1731653394.9637156,749.0183265717637,792.5129907829167,857.5260679797011,778.2718674423841
1731653394.9664662,735.7925800450424,795.0043361304131,871.5800372192845,773.3372174395444
1731653394.9676158,733.2284744046913,799.4095498886171,862.9571656347007,767.2499262617345
1731653394.9701586,747.9322618827997,804.3301966731703,844.6185852491845,766.8551177169335
1731653394.971516,772.0425183483585,808.0234557952868,830.3458962519603,773.0107385511485
1731653394.9716551,789.0528601605846,809.1858667868065,825.0612976067055,779.5146917114886
1731653394.9754164,786.7273573598862,807.5870136796026,824.0147962955411,778.2264310193697
1731653394.9793167,766.8312147792049,804.1887952595885,819.5091820846969,766.0571638977522
1731653394.983217,743.838351890165,800.6742683795776,808.4082306953153,747.8488635114816
1731653394.9853194,733.7105274288497,798.676317828707,794.7715286302429,732.782737286589
1731653394.9857624,741.9391098359931,799.1571675296403,786.8101350841632,727.5943976443724
1731653394.9871173,760.4317400223449,802.2023518624798,791.2087036521061,732.3964024210995
1731653394.9910178,775.2357710392514,807.1494908356594,808.581985125981,742.1902066955711
1731653394.994918,778.1422880601231,812.8155682747539,832.39880876671,751.9812801333944
1731653394.9988184,772.4824991576552,817.7239097028909,851.7348472932638,760.6132046469576
1731653395.001366,768.8553317100215,820.4224504537865,856.4526009642818,770.2475367958536
1731653395.0027187,775.0790863648998,819.9404171322435,842.254900134337,782.6880175211232
1731653395.0041728,789.0721167892726,816.1866417371125,813.0725089318267,796.3827894326971
1731653395.0065515,800.4042938866703,809.9905323759143,779.521217560913,806.8593599862342
1731653395.006619,798.923443136522,802.7341613040978,754.002103228257,810.0493627889751
1731653395.0105193,783.2254455241351,795.8689901891303,744.6278177499286,805.5476164965361
1731653395.0144196,762.0310598736381,790.6263411934419,751.0543793895423,797.1102224354931
1731653395.0169697,747.3376412017005,787.9043878159688,764.8653577307638,790.0314820637798
1731653395.0183198,744.9694425552525,788.1044429301603,774.8361780749221,787.4643611646268
1731653395.02222,750.4002324084324,790.889216895686,774.053056066138,788.4838826818719
1731653395.023026,753.3971614855918,795.1392163995545,764.0754446638581,789.2730615365298
1731653395.0261204,747.5516320178493,799.3202242115245,753.1859415163663,786.3587198208792
1731653395.0300207,736.4829084279678,802.0921891758618,750.1534715204973,779.286623078463
1731653395.0325732,731.2251086289389,802.7713560838985,758.1395954851512,770.7453441205483
1731653395.033921,740.7921512270468,801.434452272975,772.7888581850729,764.3352248466025
1731653395.0378213,763.7731722623641,798.7463323662214,785.1594423672523,761.9964250611868
1731653395.0414484,788.1133628806145,795.6774062942,787.1049779443925,763.0813146351613
1731653395.0417216,799.647864150581,793.1988000215376,775.9368380692699,765.4550694420736
1731653395.0418792,792.8938296999744,792.0135919308525,756.154618472742,767.3751422253972
1731653395.045622,775.6281901569951,792.4103447609523,737.4174112907223,768.5233545004756
1731653395.048177,763.3791028279849,794.2709705278551,729.4173636607295,769.5146249390011
1731653395.0495224,767.7022613411463,797.1494634434487,736.1230178238553,770.5505784527065
1731653395.0534227,787.1675682537476,800.3440069921238,753.0869111782681,770.5548645166164
1731653395.057323,808.2576434470507,803.0355703783385,770.2969546185499,767.6847752241141
1731653395.0607326,815.7976095672252,804.6152598825474,779.135311424584,760.9750000522074
1731653395.0612233,804.8728613423104,805.0964884313489,778.3583605854045,751.8956274415217
1731653395.0637803,784.7692169970759,805.2366945154217,774.364861266328,744.4721513204278
1731653395.0651236,771.7318068704253,806.0962453871729,775.6142430879131,743.4460606525314
1731653395.0690238,776.2894663864657,808.2704192685062,785.8930772001776,751.3226622627681
1731653395.072924,795.1983527327945,811.4195841209594,801.8947460691309,766.2195421617097
1731653395.0763447,814.26367553281,814.500532890043,816.7370581900867,782.3034827843885
1731653395.0768244,819.6238714416467,816.4637294720941,826.0255240293095,793.0336627214509
1731653395.0793843,808.5324792453298,816.8225409776736,831.109730358287,795.3155122996016
1731653395.0795858,791.2457965485858,815.7606525736434,836.8527628546553,791.6367016885131
1731653395.0807247,782.6311283175313,813.9156654798699,846.2085618892514,788.3726780575786
1731653395.084625,790.1213202809489,812.0985942911993,856.790789568052,791.1751170521336
1731653395.0885253,807.5891476748501,810.9917538189555,862.7466976154433,800.7213924126355
1731653395.0924256,820.1910438545779,810.778648071908,860.2742603960494,812.1323193969116
1731653395.094988,816.4843283531911,810.8949247966814,851.7015547911982,818.7531264286051
1731653395.096326,798.0746352915455,810.2703280664415,844.4011736605703,817.5914868170486
1731653395.098439,778.8612402161002,808.1307218965375,845.5402390529757,812.1962993429239
1731653395.1002262,774.3497272597015,804.8175335776607,857.2379429639894,810.4878739188547
1731653395.1041265,789.5551313774132,801.8333046058833,875.9421575678983,818.8674449958661
1731653395.108027,815.05990217558,800.855044451977,895.7920348224311,836.977573552033
1731653395.1105917,834.1339668058826,802.3936381243108,912.4089591040448,857.2844992668367
1731653395.111241,835.1160071999873,805.2394504221071,923.9846569936324,870.1071716192062
1731653395.1119273,819.4749203867518,807.2885665780489,929.8564588369832,870.4317719666896
1731653395.1158276,799.7359664767639,807.1675362756656,929.2173433683741,861.2759575893922
1731653395.1172924,789.4057402522175,805.2914733885495,921.6485364679637,850.9656456918119
1731653395.1197278,792.9559687741341,803.3821234532522,908.2748151306776,846.5135796140543
1731653395.123628,803.5093363102793,802.8096117156115,891.2560698558375,848.418366791703
1731653395.1261952,809.6053055750401,803.2431975484313,871.5254050409851,850.99613880975
1731653395.1275284,805.1952461367702,802.9070898063914,847.512146507151,847.7827353898658
1731653395.1314287,794.5688508885402,800.2992550637955,817.304019701794,837.4143053319227
1731653395.135329,788.2999010572541,795.8365264112548,783.017737059352,825.1137453364593
1731653395.1361456,793.8960778257681,791.8787426636046,752.9495724790577,818.6225726872192
1731653395.1392293,809.2077565472138,791.0139783986203,738.2292569386212,821.9881489912085
1731653395.141799,824.1403263110303,794.035543322204,745.5720330055026,832.3123008809304
1731653395.1431296,829.1199958345765,799.2972152980637,771.6526650472441,842.0782253681347
1731653395.146138,823.1413308367264,803.9301882298861,803.7982229239389,845.071026230928
1731653395.14703,814.6473894132884,805.8840249235612,826.899905095191,840.9578070143749
1731653395.1509302,814.4602820769035,805.2085232063064,831.8739788389031,834.7642498945655
1731653395.1548305,826.5798114874118,803.7355967351441,820.1313604541084,831.8766432933083
1731653395.1549988,844.5354233646362,803.5782185207331,801.5063073211503,833.0834058023624
1731653395.1574025,856.4944902092482,805.612035442015,787.4554040391971,834.0640309687415
1731653395.1587307,855.011533805641,808.9242249039095,784.1461962169844,829.6379259500239
1731653395.1626313,843.2048574415737,811.4437982181137,789.7285816205792,818.7613494561459
1731653395.1665316,831.9788455556836,811.2333135248158,797.0744734959875,805.7689364954648
1731653395.170432,830.5699307693675,807.6330762407584,799.6930022375982,797.0289402294321
1731653395.1730063,838.5866987449881,801.6522595741121,796.7261583630568,796.2942684565382
1731653395.1738522,846.4970862476999,795.485003037419,793.814745414696,802.7098794878511
1731653395.174332,844.1802039011588,791.4851508662202,799.28149589747,812.532455848937
1731653395.1782324,830.2106708858395,791.1380170893289,817.9213995866996,822.3713773622383
1731653395.1810346,813.9616415271638,794.498588869955,846.4481639898114,831.0887548509135
1731653395.1821327,808.6490762778732,800.326361397035,874.2308269423083,839.3316367318504
1731653395.186033,820.8560639727837,806.8211253542115,889.7512862334395,847.7906803222257
1731653395.1886098,844.8774219232733,812.5318994048752,888.6621871677232,855.905761841896
1731653395.1899333,866.4098620810901,816.866298377254,877.1964219364351,861.9010951828711
1731653395.1927054,872.8413873880589,819.8829515153361,867.7799384239836,863.8698942046224
1731653395.1938336,862.2714143646908,821.6211503134334,870.0513451166896,861.0177462308111
1731653395.197734,844.3032695892965,821.6349198980066,884.37690351415,854.222926709461
1731653395.2016342,831.9958318242428,819.212374394249,902.6475641346201,845.5352018950207
1731653395.2042136,831.3629093920335,814.1014400607628,914.9039107216172,836.8931018180725
1731653395.2055345,836.8802829481292,807.0666958827154,915.9653525280569,828.9192184033664
1731653395.2094347,836.6713308727427,799.748202668315,907.2417556110476,820.7459157443742
1731653395.2115586,823.0964291750869,793.8989943668448,893.5556409620217,811.1834054489931
1731653395.213335,799.9197522441677,790.5499317296152,878.618715936525,800.4624402314271
1731653395.2159307,779.9474881748936,789.6310640795452,862.9719073491997,791.0756465919836
1731653395.217235,774.8790958029754,790.2097781216055,845.4218985363046,786.6681938757318
1731653395.2198172,785.6764288911396,791.1342222947098,825.981962865885,789.4473101534595
1731653395.221136,801.5669911426434,791.6901602439805,807.2917585230855,798.074745437942
1731653395.225036,808.7699127290585,791.9041094516866,792.9961248863135,808.0259133587464
1731653395.2289364,801.7901532296981,792.3296422309455,784.407683995822,814.5421138117223
1731653395.230412,787.7178381183653,793.4818149741009,778.6867528837133,815.9578110996123
1731653395.2328367,779.8248023803176,795.3581243016885,770.8816832697148,814.5630518082245
1731653395.2354207,786.013508383046,797.4527545657519,758.7943959360579,814.1539495976158
1731653395.236737,802.1370934000582,799.2660087125396,746.5597652916267,816.4091174879028
1731653395.2406373,815.8304933833185,800.83186535145,743.1515699522394,819.3785327138401
1731653395.2445376,817.2567762812806,802.7077012805648,756.0532226202013,819.4539891437161
1731653395.248438,807.3619967474061,805.3507614331559,784.717594651775,814.9665669718308
1731653395.2492652,796.7457260890224,808.4318458171043,819.1221026596,808.0862911412379
1731653395.2508276,796.4330416400713,810.7823498104057,844.956733704752,803.2851029846938
1731653395.2510245,808.4494951992218,811.1438775584091,852.0332257605537,803.6768735404627
1731653395.2523382,823.9540788336215,809.1465584841394,840.2987773863312,808.3549981423995
1731653395.2562385,830.4121785323492,805.6703852548704,819.6246157671212,813.0234435410152
1731653395.2601388,822.0228100161002,802.2440467083749,803.7035198854398,813.540736532834
1731653395.264039,804.9290769092756,800.0084472932984,802.1421044025619,809.5771824645611
1731653395.2666285,792.807773914151,799.1869660275077,815.7546024922909,805.3460555930175
1731653395.267939,796.2118813248043,799.4803038137302,837.5310008358323,806.6126908104668
1731653395.2681184,814.213809483077,800.8247469443751,857.7514057363167,816.181383085366
1731653395.2718396,835.0552471174541,803.5812621033531,869.3942766626305,831.3541207239749
1731653395.27574,845.1592727151269,807.911003420159,870.7319472328885,845.368442154056
1731653395.2796404,839.1841066159323,813.074835202789,864.4905739967516,851.7658128037864
1731653395.2822318,823.2516240135958,817.5323389600757,855.0258393060187,848.4504394890827
1731653395.2835407,809.2493849807323,819.8465275507612,845.6419542957473,838.5365480031284
1731653395.2857242,805.229004639203,819.5259816650014,837.6131678286631,827.5934047612255
1731653395.2869718,809.6938097578941,817.0324197287514,831.1226345043234,819.5883366166684
1731653395.287441,814.1028544743696,813.0968320255329,826.8881078241051,814.6641101066374
1731653395.2913413,811.204361511537,808.1833357944782,826.6751308545809,810.2906734425217
1731653395.2952416,802.0773718968027,802.6780859854874,831.8533055444086,804.5611263611494
1731653395.2978354,795.7118414572288,797.4817038311263,841.099677050203,798.6631026095018
1731653395.299142,801.1065844833042,794.1327033634302,849.653588966382,796.3242531465391
1731653395.3030422,818.4327661141986,793.9976259166966,851.6618301045515,800.6942615091264
1731653395.305825,837.1073256736005,797.0555410174986,844.3418251056438,811.3500519679379
1731653395.3069425,843.0752088728772,801.3960754043594,830.3851888603077,823.9500598036054
1731653395.3108428,829.7380328826067,804.1096952390083,815.9795677619275,832.7959556461977
1731653395.3134391,803.6461414260098,803.106515930212,805.8313629867613,834.2838976663276
1731653395.314743,780.2306576541728,798.5513004912694,799.7125813526276,828.7701251466718
1731653395.318643,772.8870795993059,792.8159153667341,793.6687328218211,819.7955260585386
1731653395.3206208,783.8738935961594,788.9794399419858,784.303269405602,811.5434450502383
1731653395.3225436,803.7569109766523,788.9960928337243,771.6369348844789,806.4271011514473
1731653395.3246782,819.2802882224837,792.7789117807,758.0671603025855,804.3071846742132
1731653395.326444,823.1591141527686,798.5784393138916,745.4069138642419,803.4909075735652
1731653395.329043,818.2090258890884,804.05591029792,733.7925235504931,802.3865088279032
1731653395.3303442,813.0887294951153,807.242541464259,723.6050277580821,800.4393077740632
1731653395.3342447,813.8044779262532,807.0946637963373,717.6648141135096,797.8971529984466
1731653395.338145,818.4154367312384,803.78686641593,720.3016574848306,795.1144094639989
1731653395.3420453,819.3211693941524,798.7403059672642,733.3045806010225,792.3472361905453
1731653395.3435316,810.7873389552376,794.1024165824597,752.5607856197153,790.173258725609
1731653395.3446465,794.9028922778382,791.6586455703211,769.2193502251525,789.7959340752634
1731653395.3459456,780.7321663447366,791.8322806556225,775.2225757429036,792.5481430199924
1731653395.349846,777.3473711546214,793.6169606921839,768.8984483058035,798.7714407239947
1731653395.3537462,786.4914957957589,795.5141350771719,755.9561017450346,806.9636249571121
1731653395.3555171,800.8237423557836,796.5954334230476,744.9896500222658,813.9924707762228
1731653395.3576465,809.2317269944631,796.8264147300998,741.1372823510866,816.4763876884296
1731653395.36025,805.221311996498,796.6646379123322,742.9910026643471,812.7324751278074
1731653395.3615468,791.9932712315539,796.5329002936992,745.0601434580972,804.2842123938764
1731653395.3623848,780.1660639453492,796.5877757057298,743.4481294834814,795.8523580570528
1731653395.365447,779.5760583691246,796.7777706543264,739.7746797749007,793.2765380175756
1731653395.369347,791.3235115116123,796.9955001763067,739.9428532637393,800.1351057373901
1731653395.3732476,806.532824079195,797.1771002738242,748.8008127044102,815.2346007639621
1731653395.3758538,813.3465195172882,797.3174658415719,765.2953654855891,833.0975398366016
1731653395.377148,806.8961397423903,797.4399889453503,782.2982956576042,847.4515263716984
1731653395.3810482,794.0174391137571,797.5657143244047,791.3267585933886,855.128572274019
1731653395.381238,788.3343027322344,797.7015383538383,788.3983302121039,857.3227761818782
1731653395.3849485,799.2011591006079,797.8439739571795,776.5893360566532,857.5137693692761
1731653395.388849,823.290266788372,797.9872559757238,763.7141641191183,858.2846653157486
1731653395.3904138,845.8271291787221,798.1282484044018,757.2259611357313,859.8544893118519
1731653395.391457,851.0137863795595,798.2669109642958,760.0465997202097,861.0159454220162
1731653395.3927493,833.9071188250483,798.4045653914297,769.7548466339219,860.8436341639679
1731653395.3966496,804.5537921815837,798.5422992063927,780.8583731417716,859.4267090014279
1731653395.4000914,780.847051098545,798.6804260854362,787.9516156571649,857.4536955147702
1731653395.40055,775.3531349660184,798.8187379934575,787.656230819679,855.5307058029056
1731653395.4044502,786.4227147187688,798.9569405982068,778.8885749663435,853.8789242255583
1731653395.407061,800.7186731504808,799.0948953345529,762.5284565011269,852.4253935602952
1731653395.4083505,804.9339105784821,799.2326258027757,741.5230982326789,851.0194200940452
1731653395.4122508,796.7429989352655,799.3702165656201,721.0579498037865,849.5720776294261
1731653395.416151,785.8495118509909,799.5077276409022,707.4941545982052,848.0768957832877
1731653395.4189446,784.7514397706993,799.6451721086058,705.7315383552188,846.5670083405049
1731653395.420051,797.6461344236358,799.7825433295345,716.5852377483944,845.0719141094496
1731653395.4226646,816.9712463046199,799.9198555270318,736.3046865806238,843.6011367186517
1731653395.4239516,830.008089845343,800.0571619238561,758.6707663357857,842.1496719206375
1731653395.4253104,829.4577669187793,800.1945255319206,777.9820512811681,840.7094012647967
1731653395.427852,819.1082038053793,800.3319450305219,790.8884399465844,839.2759402070499
1731653395.4317522,810.2843252215425,800.4692887990345,796.4809210606273,837.8492449909043
1731653395.4356525,812.3860741966037,800.6063379442377,795.4889768612949,836.4311571939369
1731653395.4377978,825.3138368828997,800.7430135076949,789.581403536795,835.0231661097172
1731653395.4382684,839.7218900172421,800.8796988732239,781.0303975716997,833.6256641294347
1731653395.4395528,844.6026028033554,801.0173154796754,772.4782988456161,832.23831188088
1731653395.4434533,835.8790118865529,801.1567162066775,766.6082347425129,830.8606545891807
1731653395.4473536,819.0845603630282,801.2973742626352,765.7185250592926,829.4924593356866
1731653395.451254,804.259075623011,801.4363391953763,771.1570282384378,828.1337124672568
1731653395.453872,797.6489461320004,801.5693318019412,782.5199207153997,826.7844600049832
1731653395.4551542,797.2205633721319,801.695223719421,796.9108758830338,825.4446781376423
1731653395.4566512,795.4827975578173,801.8218810498192,809.2039177301444,824.1142627699472
1731653395.4590545,786.9081461913152,801.9666915025996,814.1757003918716,822.7931290314227
1731653395.460207,773.579014287466,802.1439713285441,809.9366262755808,821.4813351604919
1731653395.4629548,764.278276766867,802.340200315335,800.2650211169481,820.1790915191203
1731653395.466855,767.5590463732522,802.4970811715239,793.2902485046653,818.8865334755117
1731653395.4694755,784.2493023173798,802.5378662615566,796.4043857292704,817.6033070810068
1731653395.470755,805.6400221463014,802.457421360665,810.6378376709152,816.3283283293182
1731653395.4746556,819.4072321920968,802.4337886130846,828.9515286054553,815.060288032032
1731653395.4755044,819.0299239791809,802.8403194429677,840.4052433568133,813.7991480069409
1731653395.478556,809.0996547083017,804.0480029291206,837.607478619374,812.5477645774279
1731653395.4824562,801.7320442895814,806.0907261848879,821.9524018377023,811.3114491117435
1731653395.4850793,806.5296492815779,808.4717799759364,802.5400401274957,810.0933704190895
1731653395.4863565,822.2402334246752,810.3327623972405,789.484451797739,808.8869684079066
1731653395.4902568,837.237181180917,810.9173981704897,786.7002869745851,807.6724432189044
1731653395.4941573,838.740239295734,810.0479369489252,789.6294380611591,806.4278303228451
1731653395.4943576,823.3606395705247,808.3007009037907,789.4645781424988,805.1579128681917
1731653395.4951034,800.3553343491925,806.6951081087102,780.4638250846477,803.9226114709862
1731653395.4980574,784.8613067550452,806.0359889179736,764.8111722730353,802.8229136929141
1731653395.5006833,786.4258940557743,806.3989835636912,751.5680109113833,801.9085504545967
1731653395.501958,801.9220626839411,807.2169490558058,750.6957768320036,801.0380638016527
1731653395.5058582,818.5293899739921,807.9132342872689,766.5092510783871,799.8322666775671
1731653395.5097585,824.4369360323301,808.5022933524201,794.9478590266896,797.9149033440193
1731653395.513211,818.4884711893898,809.5881343569736,826.0511557966538,795.4786154535371
1731653395.5136588,810.5653766477936,811.7408185031641,849.4684536636831,793.8064434155754
1731653395.5162866,812.1872244819226,814.7882678254857,859.3135116766385,794.9977370244527
1731653395.5175593,825.4282915314809,817.6395215121609,855.9004022479618,800.4444549213038
1731653395.521459,840.0695912751329,818.8394324456509,844.3989094055681,808.9443027289037
1731653395.5253596,841.8201605901104,817.4923925744075,832.1158020627036,816.5128001142124
1731653395.52926,824.6048318302833,813.8920159618098,825.9701989115947,818.87322782954
1731653395.53,796.3094680612417,809.3909674799287,830.5143143079472,814.7343091413875
1731653395.5318904,773.1700740010881,805.619668809178,846.1272083741145,806.765350278302
1731653395.5320642,767.6872485468639,803.6434520454943,867.6759612460576,799.3100317771688
1731653395.5331602,780.0267320067402,803.6149661455535,885.1717701510829,794.9158043401196
1731653395.5370605,799.4470958236363,805.004965162424,887.784194784358,792.6388377628
1731653395.5409608,813.6235122286349,807.053759100099,870.1281246547929,789.3694745630506
1731653395.5448613,817.2962717229573,809.0415904792139,836.8709427197626,782.8803969984023
1731653395.547494,813.4239083699915,810.2823754305068,801.6452774502296,773.9872835058845
1731653395.5487614,807.9948615082569,810.0809484436963,779.967943055684,766.049233846707
1731653395.5509174,804.8261728613562,807.9512282044213,780.4891141258361,762.2944333570755
1731653395.5526617,804.2856168638905,804.0906277113614,800.3971743971596,763.2762856404094
1731653395.556562,804.9360414493271,799.6944673244533,827.9168683694508,766.6128209444657
1731653395.5604625,805.4323433879972,796.619858887934,849.9504940675881,769.1859187028149
1731653395.5630977,805.299609541605,796.3856321107801,859.6579586780302,769.9084516867739
1731653395.5643628,804.7304534009932,799.1638008748271,859.2243887334809,770.7466477685381
1731653395.5648966,804.0829569984014,803.5994439868564,856.6148528309146,775.1488578271977
1731653395.5682633,803.562180670362,807.6988521537156,859.162962636105,785.0854223149831
1731653395.5697708,803.1791072288682,810.131323843827,868.6225402785598,798.9741370495457
1731653395.572163,802.8543343640658,810.9270326609376,880.7977479904486,812.1737673819692
1731653395.5760636,802.5191435516361,811.0818706926681,889.3795147911312,819.9211161660612
1731653395.5787013,802.1522741950539,811.5195981382843,890.746130732877,820.7305388039646
1731653395.579964,801.7660790071004,812.3479644881678,886.1947455678311,817.6860989641531
1731653395.5838642,801.3795700459909,812.9693951635096,880.3285280942581,816.4123152214421
1731653395.5877645,801.0026702356965,812.7885423135393,877.2319070771005,821.0432056522061
1731653395.588624,800.6351219349834,811.7846604612593,877.4468657068123,831.2248077557584
1731653395.5916648,800.2723809027608,810.4571171409068,877.8815465322193,842.4909316275301
1731653395.594305,799.91083506978,809.284934794832,874.5806092993289,849.6723543825002
1731653395.5955653,799.5494735294022,808.2616046710873,866.2753404831768,850.5584047845322
1731653395.5994654,799.1889775664863,806.9499766038833,855.9776636766754,846.8973984652235
1731653395.5997932,798.8302510999656,805.0033739645978,849.1279317759555,842.129662368776
1731653395.6033657,798.4736118269424,802.6612976464864,849.4071814870563,838.0693095640879
1731653395.607266,798.1187883754263,800.7291619011614,855.3965860733961,833.6460210854306
1731653395.6074772,797.7653354010254,800.003446446556,860.8853933912885,826.881728178864
1731653395.6099086,797.4130608969299,800.6156069934852,858.8877165158324,818.1324263350988
1731653395.6111662,797.062201758386,801.8680770701238,846.5856091115174,811.2139252166385
1731653395.6150668,796.7131863117706,802.7124134377964,827.6895718533067,810.8780387676288
1731653395.6189673,796.3659790016732,802.4569508792251,810.4480003329427,818.6154441655594
1731653395.622867,796.0193809945541,801.1212862412037,802.4892595190348,830.5660938391294
1731653395.6255124,795.6711401086131,799.2291981823643,806.0254585516765,839.6202873207669
1731653395.6263306,795.3197100779619,797.3507367157633,816.9517389976195,840.201501456854
1731653395.6267676,794.9672753011719,795.8399167779044,828.4819347896752,832.0424894473839
1731653395.630668,794.6213429427802,794.8899002625917,836.1457484950041,820.2120343448518
1731653395.6345682,794.2907099698427,794.6652296747504,839.8216724501846,811.5594797110623
1731653395.6346896,793.9742154344159,795.258316985327,841.4878406834102,810.1847671175514
1731653395.6384685,793.6490562362526,796.4883242284815,841.6482936043946,814.9769040894353
1731653395.641116,793.2750674861668,797.7716407261561,838.4542034390684,820.7392084800422
1731653395.6423688,792.8299207964913,798.2581756899475,830.3657979625345,822.0202207317863
1731653395.6451838,792.3650915542091,797.2366117844862,819.3182980726662,816.9482986765713
1731653395.646269,792.0288044676778,794.6213000852418,810.7613695092712,808.349319896886
1731653395.6501694,791.9788493640127,791.2214088271711,809.9776984499526,801.401605875259
1731653395.6540697,792.1660728841093,788.5219531377246,817.6516451548107,799.7047081255014
1731653395.6567197,792.1322126953232,787.954177493154,828.5697422461536,802.8130957262268
1731653395.65797,791.1364724865095,790.0298421176986,834.9589831677984,807.0047822176375
1731653395.6618702,788.8674927132232,793.9413989922297,832.2746078277072,808.4399089404171
1731653395.664037,786.4963377907303,797.9842282948437,823.0715653312966,806.1133140348041
1731653395.6657703,787.035403359618,800.5598565310586,815.6565669446425,802.3753729319652
1731653395.6695862,793.6938444586133,801.0909069392155,817.9709845022078,800.7633194079898
1731653395.6696708,806.3718857295138,800.2905042929823,830.9840038930304,802.9310805855894
1731653395.6723232,819.4588358122663,799.7026842339059,846.7517199161188,807.196546558079
1731653395.673571,824.9236755627433,800.8100655250449,853.1176859277994,810.0321191475098
1731653395.6774716,819.6365640228478,804.1100819130845,841.943367933878,809.3466235216578
1731653395.681372,809.5497167858238,808.5681594511191,814.8662573115447,806.5834219212478
1731653395.6828904,805.0393341304971,811.8594196559328,782.4492809084165,805.4286388520128
1731653395.6852722,810.9940802068644,811.5674954453827,757.654863536479,808.0559359316613
1731653395.687927,821.3783401040071,806.8395551045401,748.5172292003492,812.4623321150669
1731653395.6891725,824.0193451937376,799.3348041627767,754.7166578675829,813.7192442967744
1731653395.6930728,811.5856714155666,792.4883378787971,769.3333313217677,808.2940896570353
1731653395.696973,788.8586863084429,789.366521158667,783.5560375528466,797.568553649265
1731653395.7008734,769.7387646792636,790.7048455928385,790.9348038410194,787.3016465331582
1731653395.7017436,766.456607192129,794.7111300353672,789.0704094656361,783.3797017631232
1731653395.7035306,779.9337805811988,798.7162910257607,778.9586139371676,787.340712623678
1731653395.7044828,799.0014754097572,801.1679783630738,763.6624450032066,795.248059609086
1731653395.7047737,808.9954114767686,802.3130249035744,747.5480844517009,800.787157106327
1731653395.708674,803.0721823975338,803.2544072210239,735.7566226399937,800.2167049388796
1731653395.7125742,787.5696330194872,804.5292521862607,732.8568646527268,795.3302890080541
1731653395.7164743,777.124446828616,805.594437611926,740.7191638425529,791.9772048283686
1731653395.7191343,783.0537706635357,805.5466644952597,757.2121282645595,795.1594970105574
1731653395.7203748,804.0249513978283,804.1741314646168,777.1908027553886,804.6597635868044
1731653395.7205968,826.6535658374999,802.2254806114439,795.265163755336,814.9270794507006
1731653395.724275,835.89652058189,800.6953216866671,808.228313140667,819.4579730451104
1731653395.7281756,827.0263570875171,799.9519156431192,815.5984164338801,816.0987845514626
1731653395.732076,809.4569635109704,799.6282681599164,818.6493087250507,808.9274784909488
1731653395.734738,799.2521855290864,799.3401834897081,819.302110213558,805.2427250703508
1731653395.7359762,806.3344257576766,799.4127076656773,819.5112177100756,810.0837848956486
1731653395.7393794,826.5807895832546,800.7681466330504,820.693119189444,822.4187187839506
1731653395.7394502,844.9587577050065,803.9534427603235,822.8597050062647,835.6650928407261
1731653395.7398765,847.1358244602236,808.169546794558,824.1573380980261,842.0555706168161
1731653395.7437768,830.4379373008837,811.2915533804419,821.8552542822289,837.7934440795032
1731653395.747677,805.5578518530596,811.0939632148483,814.6104278749668,825.4477156672142
1731653395.7503417,787.7285689902054,806.8615364284063,804.1855970524231,811.9075552317797
1731653395.7515774,784.6479853135328,800.1553317342654,794.7202556740597,803.4079103532282
1731653395.7554777,791.204385113531,794.0822603401901,789.701633133544,801.4060255123624
1731653395.7583034,795.27257349504,791.5164867220067,789.092037759543,802.424786433081
1731653395.759378,789.2459300717934,793.4629566365425,789.1771013778937,801.6932808648811
1731653395.7632782,777.0397935176502,798.6058909772867,785.3233625340047,797.3177337906237
1731653395.7659452,770.4996297921393,804.2444847471497,775.3277141248196,791.5503160529959
1731653395.7671783,778.5946233825346,807.9360101607073,760.8069409625818,788.45852969797
1731653395.7710788,798.9509598470348,808.7997409779238,746.0047983304876,790.2909041423342
1731653395.7742758,818.9604269845029,807.7289840497732,735.3496444249912,795.5634438323901
1731653395.774979,825.3949210975686,806.4827920296714,731.4659321550705,800.174008527849
1731653395.7771566,814.5194148590653,806.348489493905,734.4154527147044,800.4663527322114
1731653395.7788794,794.6382601632075,807.3250246257879,741.9864900052949,795.8969386519641
1731653395.781549,779.3284199095247,808.3586708729989,750.6094144408161,789.3753064485337
1731653395.7827797,776.9779141532346,808.3380684919991,756.7173853904602,785.0010158259022
1731653395.7866802,784.9888535453518,806.9910810435042,758.4044273759628,784.8592714825223
1731653395.7905805,793.152611695839,805.0203076423281,756.7488045108817,787.4902437381243
1731653395.7944808,793.2390902684137,803.5484983044428,755.6885728147906,789.5433502387718
1731653395.79601,786.6349094456815,803.4534243020126,759.7921187149059,789.3637212471878
1731653395.7971523,783.3309653852257,804.9993466026497,770.8638047604418,789.1672167643793
1731653395.798381,792.8318664190216,807.7065337430585,785.8506656216136,793.4029380963088
1731653395.8022814,814.6698465608068,810.3208616727107,798.209763738228,804.4510301865075
1731653395.8061817,836.9282896407526,811.0830277654252,802.3688725550037,819.5897260073881
1731653395.8091724,844.6207045684196,808.5913623477899,798.0897504321827,832.2490349217896
1731653395.810082,831.4156355859956,802.992789014581,791.1512951727932,836.6961196432434
1731653395.8127563,805.1645743706832,796.5364303307506,789.5413730018246,832.207664960937
1731653395.8139822,782.5353866629921,792.6266833382891,797.980974722452,823.3292845042788
1731653395.8148632,776.7731567895661,793.6622992337684,814.9093751916807,816.2570398091433
1731653395.8178823,788.177628640422,799.2127547285102,834.0105261322817,814.469288789467
1731653395.8217828,804.8398161678522,806.1419042168098,848.8382511684925,816.984237650531
1731653395.825683,812.9841175420217,810.8047896137851,856.9147078817749,820.1885322546109
1731653395.8283598,808.3795386350281,811.6242211361763,860.2958776466616,821.2990480875801
1731653395.8295834,799.3378608063879,809.9338374550784,862.4111332638929,820.4749446984324
1731653395.8334837,798.9061754211548,808.4663562432371,863.9656439231503,820.0568049057465
1731653395.8337164,813.0378771658465,808.9178179542808,861.5933941278645,821.9938600576482
1731653395.837384,834.8171119099587,810.7099300931687,850.7770014579556,825.9462509712079
1731653395.8412845,849.5059410012971,811.8371214437868,830.7772342278616,829.6472832427377
1731653395.8439636,846.1360124599408,810.805772772661,807.2011447763094,830.9156517963598
1731653395.844069,826.2475860410957,807.8981441309454,789.559404153857,829.3716893551747
1731653395.8451848,802.973513873031,804.840550664389,785.3978078413459,826.5065776825156
1731653395.849085,791.3470457617487,803.4131901356876,795.5397904319856,824.3669360568836
1731653395.8525698,797.3194982593815,804.2452391027624,814.025812472204,824.1012196817632
1731653395.8529854,813.7359542178393,806.5781587541067,832.45283905301,825.3476207236594
1731653395.8568857,826.1648604821683,808.8598562941743,845.0565611399485,826.6175382844184
1731653395.8595672,824.0359963370316,809.5643013117557,850.7661694335657,826.2810013657459
1731653395.860786,808.4997504930843,807.8139113889478,851.3722274425012,823.5827121337254
1731653395.8646865,790.9483439622995,803.7201960256838,848.2094187503884,819.0707164044983
1731653395.8685863,783.5285645519226,798.4226609439269,840.6687344888652,814.0585739065962
1731653395.871423,789.4523738658572,793.7221083687962,827.8351553516671,809.4928815655591
1731653395.8724868,801.0412092094626,791.3219549301059,811.4310359666554,805.3223834740346
1731653395.8751707,806.9142590958511,792.0043622801254,796.7723832123373,801.1626747834648
1731653395.8763871,802.0093133272305,795.2147083846747,790.0539855012511,797.6723673917504
1731653395.8789656,791.8147287565117,799.3014297741769,793.7298914940748,796.9953499686916
1731653395.8802874,787.2521188235697,802.2669051444922,803.917778231306,801.2611299958991
1731653395.8841877,794.7087554120725,802.6548681575681,812.4073479691182,810.1152147625965
1731653395.888088,809.8913640135643,800.2108385010083,812.028686323034,819.6463971236308
1731653395.8902762,820.9451039294617,796.0670454473885,801.3177549781387,824.3229689833407
1731653395.8907745,818.4185206532892,792.3307080089668,785.0953723412508,821.0486519740228
1731653395.8919885,803.7581636511247,791.1464144738368,770.9046650238713,812.2817039075134
1731653395.8958886,788.9948871459007,793.5944627686331,764.2164048381877,805.3143270026275
1731653395.899789,787.4235384511898,799.0158385834293,765.7252732400366,807.5060040924956
1731653395.9036894,802.6324556075326,805.2429535055168,772.1097431414186,820.6111796999496
1731653395.9063785,824.9388311486515,809.697733912267,779.0986725616611,838.6000484710221
1731653395.9075897,838.4849036917975,810.7363208092431,784.356853904007,851.1549969674116
1731653395.9091296,833.5722713672615,808.4489908784293,788.2591788675306,850.7498973147019
1731653395.91149,814.4243102237082,804.4948710684481,792.4290081982984,838.2233284834831
1731653395.913862,796.0914617145256,801.139293652239,797.555617766566,822.5526376412147
1731653395.9153905,792.7888155670546,800.0533156264908,802.3380301000118,814.6725399274615
1731653395.9192903,806.7800359573707,801.4728769832163,804.3573308288363,819.6198835022761
1731653395.9219818,826.6424048165097,804.0912699877348,802.1583933217776,832.741843805228
1731653395.9231908,836.448569820418,805.7292494731863,796.8945794870067,842.9879344329865
1731653395.9270911,828.6503746574867,804.5080906256711,792.083020936137,841.162640884545
1731653395.9279828,810.2688244517626,800.0094806315859,791.2306899709184,827.0929046469968
1731653395.9309914,797.234603501433,793.8028692348062,794.7888919711324,810.0912782650277
1731653395.9348917,801.3375481692773,788.8769624374168,799.0340432690003,802.0094217108492
1731653395.9375854,820.3454977062524,788.050024091446,798.6622204361594,808.0860222963572
1731653395.938792,839.3496895626445,792.1962353582267,791.8006120819263,822.8724554551296
1731653395.9426925,842.3277779290191,799.5189545642017,783.1030575485267,834.6261121495006
1731653395.9465926,824.7069146509499,806.5467998614303,781.2183070988684,834.5997168545914
1731653395.946836,796.9687982093955,810.2414000306078,791.7935924463703,823.5439016326228
1731653395.9487586,776.5383822921049,809.6789350795328,811.9146598667108,810.1831507603366
1731653395.9504929,774.4841994267878,806.1335841413915,831.3009969805635,803.3377482502627
1731653395.9531891,787.5754023798239,801.7520701593073,839.7169431838744,804.6640712497831
1731653395.9543934,801.8638732979401,798.0804481854207,834.5203615404009,808.1198007316477
1731653395.9582937,804.6263317879415,795.5577401052834,822.2650701936516,806.2039906278341
1731653395.962194,794.6860489249875,794.0402999763068,813.4650954154793,797.2157043210931
1731653395.9656894,782.5747397616556,793.5460780447524,815.0544413583642,787.1991093830018
1731653395.9660945,780.6771618610569,794.4202005490137,826.2376945407117,785.0822196692668
1731653395.968793,792.0203467018841,796.8240938622245,840.0591927919044,795.2790106129235
1731653395.9699943,807.3287558597132,800.1272338755518,848.5466270969173,813.8336111391568
1731653395.9738948,812.7027207992837,802.8931101907881,847.3369788418261,830.9812926528197
1731653395.9777951,801.3059172431539,803.6636898137925,837.1360517849699,837.8854405935326
1731653395.9816954,779.3820775999316,802.0463711909088,822.2118450823319,832.4215255749723
1731653395.9836552,761.8792047663756,799.2292882671159,807.829480583434,820.0580382212269
1731653395.9843965,761.3281882084475,797.3452907526897,798.2302670933286,809.7068227533987
1731653395.9845426,778.6288811972859,797.9560161885229,795.5163026887042,807.8239768301423
1731653395.9855957,802.6571485314745,800.7319735786247,799.1492685727038,814.8188984272796
1731653395.989496,818.8833027342072,803.4509244526789,806.0987806439795,825.8507421325128
1731653395.9933963,820.3573888486831,803.516019033369,812.0574843417342,834.9154212662548
1731653395.9972966,812.3986185632428,799.9449503682442,813.6275328153398,838.9048731844736
1731653396.0,807.1249395756822,794.280555486585,810.3210556114784,838.6444376494285
1731653396.0011969,812.3813611657251,789.6547969570628,804.9273671700362,836.6105251809746
1731653396.0033958,824.6456504208346,788.6857844882037,801.8584738831723,833.8718394471292
1731653396.0050972,832.2211980635205,791.7668663577277,804.4949243628698,829.2282376419319
1731653396.0089974,825.9704581604489,796.923840363801,813.0522683102048,821.1785121855594
1731653396.012898,808.1054821253562,801.1873437396274,824.0447903808567,810.5384204359075
1731653396.0156038,791.2376481578449,802.3894328011239,831.7377574491156,800.9257468233437
1731653396.0167985,788.3901513622465,800.1874974734849,831.1570627751066,796.3797034664739
1731653396.0185518,802.4133742665501,795.8737464794549,821.1152524776079,798.0906086261809
1731653396.0206983,823.6722545977369,791.4339214092474,805.1550522716954,803.158144775585
1731653396.0222492,837.921183421719,788.6519771871725,789.4985143148863,806.6856697118087
1731653396.0245988,837.829193590261,788.6718738177865,779.4703626405749,805.6835491856561
1731653396.0284991,828.5217808214869,791.8372406534688,777.0986489879948,801.5539624100062
1731653396.031207,822.3881555241801,797.4864768312419,781.3172828040393,798.9356689809795
1731653396.0323994,827.5178949562599,803.7930173637492,789.8278110293014,801.7536124346423
1731653396.0362997,839.8538247752415,808.1330683204042,800.6666744983297,809.8206295510403
1731653396.0402,846.1727348309718,808.2203384779801,812.4521801947398,818.9157936764057
1731653396.0411024,835.5437104451102,803.4816731795872,823.7127226372047,824.1965461995599
1731653396.0441003,809.344568365458,795.6639239190063,832.3428633682486,823.9231104413942
1731653396.046811,781.1297161083238,788.07531761226,836.0513098141153,820.4149488354349
1731653396.0480006,766.4484297412862,783.8799308569961,833.9152753153979,817.766372511964
1731653396.0519009,771.1250774191147,784.5645997044508,827.9546921539604,818.5223314343642
1731653396.0534482,787.3945770773587,789.4858404296314,822.8637681216107,821.9669946735391
1731653396.0558012,800.514420548186,796.5557644894941,823.112938739496,824.9993225937546
1731653396.0597014,800.1855657000293,803.4254999792303,829.3144813367853,824.5947159915203
1731653396.0599556,787.8564666074043,808.4536396298605,837.2611953818403,820.0354625707085
1731653396.0624146,774.649563307683,811.1138350187964,841.075778416949,813.5007519597995
1731653396.0636015,771.9265679753694,811.8473906107023,837.9723093193268,808.6417140830572
1731653396.067502,781.9736510203534,811.5554510299432,830.4262200342907,807.9971047772626
1731653396.0714023,796.1087858052392,811.0421253797169,824.0375910417122,811.0559952432757
1731653396.0753028,801.7834339001106,810.7103031674985,823.3240173298396,814.6206080411332
1731653396.0780184,793.1143068109117,810.5935403618757,828.9632126158072,815.476976112993
1731653396.078809,776.3152088942257,810.5636285246105,837.9385301930578,813.3171714970377
1731653396.0792031,765.3594603699886,810.5087854589855,845.5700855051253,811.3297940963837
1731653396.0831034,771.0286937312572,810.3960478664459,847.8839849998112,813.6829742662766
1731653396.0870037,791.975017951373,810.247561697013,843.4375074562819,821.8043380592654
1731653396.0883448,815.0241049420143,810.095541368403,833.9675142266683,832.5126493348588
1731653396.090904,824.7311425503005,809.9564838419893,823.29988747204,839.6487377383044
1731653396.093622,814.8763215843925,809.8298619555183,814.925529264909,838.097945426759
1731653396.0948043,792.9283619511708,809.7081856024689,809.9380615484254,827.2261499561502
1731653396.0976622,773.9114886573362,809.5856721549035,806.8744611355951,811.1797765511519
1731653396.0987046,768.5309268088465,809.460904656571,803.2247973501142,795.8912887641033
1731653396.1026049,775.2319685775558,809.3352458760897,797.0429963872298,785.215075121035
1731653396.1065052,782.8581932117554,809.21041936901,787.7537660274779,779.3266023191992
1731653396.1092255,781.6464815465731,809.0872440120553,776.6796472797082,776.5224719288761
1731653396.1104054,772.8119345640141,808.9656550813515,767.6659637041387,776.3634571199216
1731653396.1143055,767.8694489352204,808.8452652216408,766.585804487829,780.723176096795
1731653396.1165154,777.9030646200338,808.7258070217541,778.2760836720768,791.3960431830286
1731653396.118206,802.2420436043151,808.6072481032116,802.0500339276527,806.6086719659803
1731653396.1221063,826.8779670590845,808.4896932635758,829.6876191448318,820.2501599007392
1731653396.1232414,834.5612456216414,808.3732558527216,848.853008265197,825.228023853514
1731653396.1248293,818.4075046721192,808.2579961929009,850.2908419959192,818.4531278273131
1731653396.1260068,787.832829679683,808.143927977161,833.4151090567746,803.3772605667594
1731653396.1299071,761.9939148160049,808.0310513865005,806.0070241501248,788.0495069411825
1731653396.1338074,755.9945741404297,807.9193781975004,778.7176452807272,780.1918585386622
1731653396.1353688,770.6404410010718,807.8089365058872,759.1053223446784,782.7859818738049
1731653396.1377077,793.3264554309108,807.6997585887165,749.4173789153606,792.9270819951495
1731653396.1404333,808.6848143104227,807.5918623662797,748.3668563527283,804.3113682727347
1731653396.141608,810.2036835039829,807.4852410474322,754.0100198966002,811.4919850024617
1731653396.1455083,803.8340933279818,807.3798772127859,765.1561735345662,813.130388283122
1731653396.1494086,801.4138240881559,807.2757871682568,781.1368654869699,812.2032298253685
1731653396.1533089,809.9120125429761,807.1730704703263,801.1408656730375,813.1591965254913
1731653396.154222,825.5250006914321,807.0719014864134,823.7309159871154,818.2172924254049
1731653396.1560366,837.2780859111364,806.972400305105,846.276669467728,825.7015198982834
1731653396.1572092,836.7767819681869,806.8744113062571,864.3968926471085,831.6995419900547
1731653396.158138,825.73435469381,806.7773885181599,872.4610056722172,833.5736426648268
1731653396.1611094,814.8834028096644,806.6806955528684,866.0018184924782,832.2862107462053
1731653396.1650095,815.0868772516098,806.5844337505762,845.1050370398771,831.5000206092375
1731653396.16891,827.9695253565247,806.4902953137307,816.1532951583049,834.1352272544095
1731653396.1716404,843.9225216958295,806.4012344350491,789.7718934010687,839.2834409150041
1731653396.1728103,849.4403936591469,806.3188664201747,775.5227780490322,842.3127636094714
1731653396.1730752,838.1234630772612,806.2393611716767,776.604040964046,838.5615850305555
1731653396.1767106,816.4511900227782,806.1518013333535,788.1424479262048,827.9089353130258
1731653396.180611,799.3460600735272,806.0446550529405,800.2722606355169,816.2291533088124
1731653396.1845114,798.6865038719396,805.921699083591,803.9519949447694,811.7934457271315
1731653396.187244,813.7930867590361,805.8167221120972,795.7929071298329,818.8872925591074
1731653396.1884117,831.5920289730543,805.7838345756896,779.1360658890662,833.7382684681119
1731653396.1919286,836.560893859861,805.8445541773738,761.3069451674166,846.4319779942492
1731653396.192312,822.8067163492261,805.909531787815,749.3543144734667,847.6960275026461
1731653396.1930344,798.9081773653891,805.7497780167724,747.0424099264358,835.378242510036
1731653396.1962123,781.7135010861927,805.1086215681735,754.3453776198012,815.6813615154568
1731653396.2001126,783.7318751768859,803.9435422000242,768.6193507096575,798.4448549298052
1731653396.2028477,803.6565382263361,802.5969961341104,785.8037975019411,790.3260353358193
1731653396.2040129,827.2210856724394,801.6373104292275,801.0107406745402,790.9912962662667
1731653396.2079132,837.7508201105928,801.3734317763275,809.3340647123493,794.712535936243
1731653396.2107818,828.3743433171151,801.4394420874507,807.701115587933,795.5185007376958
1731653396.2118134,806.6310682188222,800.9069203780348,796.9452139029619,791.6042306824908
1731653396.2157135,788.1672160428689,798.9536088638001,782.0880330981329,785.7385886448808
1731653396.2184513,784.7106540332103,795.5851630508095,769.8981015984889,781.8916931282259
1731653396.219614,795.8116373124421,791.801899205375,765.237365550313,781.3481603713217
1731653396.2235143,810.5214873194176,789.0354853790665,768.8505363215055,781.7071601003317
1731653396.2274146,817.0369570445092,788.2603559370923,777.8860130419364,779.4117685024466
1731653396.227931,812.0851170205848,789.4240656518533,788.179822198177,773.3315409053306
1731653396.229635,802.4968423642094,791.5797573184398,796.452263955031,766.1718329928103
1731653396.231315,798.2052540762022,793.5756243843233,801.342585777759,762.5293238973424
1731653396.234055,803.036610266349,794.7601491867914,803.2630000247917,765.2497648313258
1731653396.2352152,811.3078366284435,795.1929234472957,803.5402911943539,773.0318877750009
1731653396.2391157,813.1538519551948,795.2999600474838,803.4454975090835,781.1932432175365
1731653396.243016,803.8997241901538,795.409240028715,803.6395811162142,785.1207646820919
1731653396.2469163,789.0864080213096,795.6596709459814,804.1881268706295,783.8650127723288
1731653396.2484884,780.3481520431752,796.2905479840633,804.8857923074568,781.0458939685473
1731653396.2496586,785.3843662845842,797.8026877124441,805.5475340168576,782.1142583020223
1731653396.2508166,800.7395082711314,800.5751126550638,806.1154069836435,789.893328705651
1731653396.2547169,813.9483232204151,804.1960801544329,806.6232036321843,801.9507875528477
1731653396.2586172,813.5171008564475,807.2630138652656,807.1233326722414,812.1177859104663
1731653396.2625177,798.3375858413682,808.0918964468043,807.6435621411124,815.1258296499013
1731653396.2628276,778.6100331369096,805.918068476625,808.183759071331,810.6857496151133
1731653396.2652624,767.6580850478833,801.6374084699623,808.7319006864554,803.7386340809026
1731653396.2664175,771.5651437882034,797.4464358450276,809.2783785554087,800.6978857318272
1731653396.2673416,784.9662427185069,795.5799740408337,809.8206358156817,804.6178877019747
1731653396.270318,795.9234918469551,796.9989924707361,810.360753263641,812.9379470010667
1731653396.2742183,795.4570333725725,800.8989587371457,810.9015134244177,819.4198667137816
1731653396.2781186,783.8972233623467,805.338980149188,811.4442698304356,818.7428669589838
1731653396.280866,769.3012758621032,808.5159583709624,811.9889235742371,810.2403468264138
1731653396.282019,760.1343178345222,809.7500975172021,812.5348202443957,797.9967694390359
1731653396.2859192,759.1267235075193,809.5285644006133,813.0814819949786,787.5322728031123
1731653396.2861948,763.1499840241867,808.7936522246166,813.6288112934795,782.0651323572105
1731653396.2898197,767.5234016148818,808.2199333124593,814.1769402375943,781.270164219745
1731653396.2937198,769.7225250931397,807.9830040189864,814.7260216434873,782.7775276182197
1731653396.2964697,769.8883741787427,807.9440417180488,815.2761256038987,784.3873397739236
1731653396.2976203,769.3133395658443,807.9189888141392,815.8272459768133,785.1782177289125
1731653396.2977242,769.007789213652,807.820372539911,816.3793500347032,785.2991849787403
1731653396.3015206,769.2396397033564,807.6572154505026,816.932415609474,785.2485511431206
1731653396.3050482,769.7936842721297,807.474476665856,817.4864396246908,785.3577875080579
1731653396.3054209,770.3827591553452,807.3044940876124,818.0414289738119,785.6778557460553
1731653396.3093212,770.8687284904472,807.1539751334325,818.5973894850126,786.1068967395595
1731653396.3120732,771.2641223268363,807.0144118519094,819.1543209247458,786.5410163961197
1731653396.3132217,771.6386253318478,806.8760619525822,819.7122176712603,786.9405032478626
1731653396.3171215,772.0431471553501,806.7347284596184,820.271071354783,787.3182306279781
1731653396.321022,772.4889093697553,806.5912084481706,820.8308726740888,787.7018289252533
1731653396.3239014,772.9632522426291,806.4479354069813,821.3916117688145,788.1082098576643
1731653396.3249223,773.4513496404477,806.3065133851054,821.953277835277,788.539314754019
1731653396.327677,773.9468956944969,806.1671752311746,822.5158587054888,788.9896409001212
1731653396.3288226,774.4513739841923,806.0294063779788,823.0793405123837,789.4541272254403
1731653396.3326206,774.9688758141934,805.8926798222623,823.6437071643917,789.9312669824856
1731653396.332723,775.50224301696,805.7567795965674,824.2089396030453,790.4222238144962
1731653396.3366232,776.0521900845661,805.621745193607,824.7750155634988,790.9287821621414
1731653396.3405235,776.6182553175644,805.4876878416989,825.3419110136389,791.4520771675525
1731653396.3427546,777.1999437104112,805.3546667248306,825.9096035570107,791.9924530845356
1731653396.3432806,777.7972379903182,805.2226686316491,826.4780755044297,792.5498950548431
1731653396.3444238,778.4105185801272,805.0916448538793,827.0473116806581,793.1244373601044
1731653396.348324,779.0402793544898,804.9615490416624,827.6172881293102,793.7163063089965
1731653396.3522246,779.686933178922,804.8323505324012,828.1879560474268,794.3258596978649
1731653396.3561249,780.3507776441677,804.7040277976292,828.7592379925746,794.9534766748575
1731653396.3588843,781.0320511839222,804.5765585434289,829.3310581905936,795.5994951177519
1731653396.3600252,781.7309927797751,804.4499189918195,829.9034081614938,796.2642083427099
1731653396.361608,782.4478650678734,804.3240933029161,830.4763991556902,796.9478887058501
1731653396.3639257,783.1829459772532,804.1990819262137,831.0502077227175,797.6508070602295
1731653396.3675172,783.9365113736729,804.0748917762907,831.6248518273749,798.3732378052737
1731653396.3678255,784.7088262024222,803.9515002783583,832.1998982483034,799.1154557080982
1731653396.371726,785.5001490695171,803.8288139339966,832.774435526156,799.8777341306163
1731653396.374488,786.3107439478007,803.706676031482,833.3477041265953,800.6603476664251
1731653396.3756263,787.140885410889,803.5849775267045,833.9203396603488,801.4635729636035
1731653396.3795266,787.9908436384928,803.4638461026542,834.4952352371745,802.2876778766631
1731653396.3804612,788.8608484875144,803.3437417418547,835.0762642281442,803.1328975018278
1731653396.383427,789.7510592997578,803.2251957334973,835.6638820177913,803.9994155826985
1731653396.3873272,790.6615916347037,803.10809966373,836.2498604356321,804.8873867858313
1731653396.3900917,791.5926361447358,802.9909812012374,836.81765895668,805.7970220648513
1731653396.3912275,792.5446177584244,802.8713020473404,837.3553704616975,806.728696192898
1731653396.3951278,793.5182166053031,802.7477008621244,837.8791027986127,807.6829497210955
1731653396.399028,794.5140366495796,802.6235006491166,838.4466491199496,808.660241771916
1731653396.3993144,795.5319362725969,802.508059107619,839.1286892901609,809.6604820491317
1731653396.4024138,796.57054522965,802.4111370572849,839.9230407379544,810.6827291834379
1731653396.4029284,797.6279170104792,802.3292081209548,840.6610353772271,811.7257142647272
1731653396.4056952,798.7038739703598,802.2329159004189,841.0315857176506,812.7895227795074
1731653396.4068286,799.8028812116302,802.0754185114981,840.8437935610697,813.8775261911825
1731653396.4107292,800.9339724849447,801.8371493868817,840.461920079035,814.9960859952414
1731653396.4146297,802.1039248876675,801.5900840589782,841.0063903045732,816.1495052304371
1731653396.4181678,803.3046483063962,801.5135049421067,843.7100950561913,817.3312618096476
1731653396.4185295,804.5054471822848,801.7725948763173,848.2200543033518,818.5193357196238
1731653396.421299,805.6678678434275,802.2500394250563,850.8369224537819,819.687855291653
1731653396.42243,806.791512132134,802.3124490098784,844.93109779242,820.8397863708416
1731653396.4263303,807.9653083397442,800.9562171777839,825.0857112621744,822.0410781516514
1731653396.4302306,809.3569846775861,797.4976066937368,792.7094225924487,823.4086217495919
1731653396.434131,811.0741893176712,792.33740949775,757.545686556038,825.00844652442
1731653396.4369023,812.9292448810693,786.9564805586784,732.4519212559459,826.6936564013291
1731653396.437021,814.3228012710997,783.0279569046336,725.7102434419616,828.0395562898713
1731653396.4373102,814.5766928897364,781.5724200678908,736.9503504558281,828.6047272561786
1731653396.4380312,813.838627741216,782.869212735347,758.1784523950638,828.5879110677091
1731653396.4419315,814.0347778920194,786.7522005581973,777.7426188147867,829.5031533805645
1731653396.4458318,818.6494986277932,792.6354038920101,785.5014081333495,834.0768769522358
1731653396.449732,830.4055865598425,799.3352555974133,778.1889944727377,844.8070691412439
1731653396.4525063,847.9585377005199,805.2477823880295,762.4693942495772,861.7025501903659
1731653396.4536324,864.9276547575013,809.0374449176533,752.2143546496733,880.8583017315513
1731653396.4558742,873.5963863933024,810.3001422959894,759.6288115916107,895.6086497027969
1731653396.4575326,871.147161304777,809.5748706691816,785.58530031348,900.4643460809754
1731653396.4614327,862.9840284416489,807.7143017736329,817.1394816170499,895.487172515328
1731653396.4653337,859.5192685309659,805.2705447761875,835.686211203408,887.3530874688473
1731653396.4681098,868.3277118885977,802.4981640166703,830.3948466850263,885.240112145271
1731653396.4692338,887.8256206134175,799.8684780406296,806.3255237095301,894.0168195415976
1731653396.4722068,907.8216521965554,798.3771223676113,780.4629634754084,910.1294287534623
1731653396.473134,916.9348684229893,799.0898785444775,768.9644591616908,923.9444457444646
1731653396.4747276,911.2985227194719,802.1883363042907,776.1911466658943,927.0908150892704
1731653396.4770343,897.6782273260025,806.4062768584471,793.9860808408916,919.0170566491463
1731653396.4809346,888.2800092771639,809.498345263222,810.3649217410484,907.4091260933293
1731653396.4837136,891.0733276482385,809.4701664594161,819.0304929111834,902.0778004375812
1731653396.484835,903.3186399481566,805.6406637966202,821.762420698983,907.264962434234
1731653396.4887352,913.7692208452163,798.8406818966132,823.3671965677253,918.5467999383857
1731653396.4926355,912.0234260010229,790.8611502031206,825.6360554575674,926.6507768438313
1731653396.4935808,897.3661081351684,783.7700667013858,826.3491899553622,924.8766035580121
1731653396.4965358,879.6198565500289,779.4767344378665,823.1476435137911,914.1172823279974
1731653396.4993172,871.1967950518786,779.3798528561146,817.0754837286345,901.7433939661888
1731653396.500436,876.9980179974253,783.8362930697358,811.7466505553467,895.6572034989988
1731653396.5043364,890.5669124607371,791.6528055106605,809.3995212787567,898.4162325136218
1731653396.5071034,899.5638534486958,800.1940729978179,808.4280952868098,905.8301872177543
1731653396.5082366,895.8930777287605,806.4153028248754,805.0505771136711,910.6602200410398
1731653396.5121367,882.1447484017939,808.357021618598,797.3109248091394,908.1893382630844
1731653396.512434,869.2361776947785,806.1541231038727,787.5195996111615,899.385105713309
1731653396.5149207,867.3869715527246,801.8853058522043,781.0915265340954,889.6145551259758
1731653396.5160372,877.8816778736461,798.3553063871614,782.9265423538151,884.353819743227
1731653396.5199375,892.2407964331802,797.5451779903977,793.9782499196864,885.3300320754381
1731653396.523838,899.2467663995931,799.6106499841458,810.0137395837551,889.7662716611331
1731653396.5277383,893.8767063544926,802.9631584925681,823.1555149487982,892.8164581845695
1731653396.5305245,880.8369107669396,805.3457609164028,825.6126280185313,891.0200460861603
1731653396.5312874,870.072210333281,805.2301811235884,814.0292064789428,884.239130150571
1731653396.5316386,868.2481421831545,802.6659956397701,792.1098386024588,874.9986147724142
1731653396.535539,873.2752927495497,799.0873962605975,769.4236447864874,866.1326154629794
1731653396.5394392,876.2440994060997,796.3001344402736,756.325797669567,858.75325848575
1731653396.542,869.1334577625131,795.3981034039895,757.9014528853183,852.1242010407252
1731653396.5433395,852.0625882174471,796.3011350167326,771.1337415853222,845.3569091216375
1731653396.546128,834.0782442508979,798.0724980205222,787.3390640244705,839.2091626579302
1731653396.5472398,826.414353406409,799.6548941378862,797.8446682925136,836.1204321217416
1731653396.5501406,833.2780058078351,800.5254789157905,798.6430679407594,838.2742834861394
1731653396.55114,847.7246954585651,800.9557940827319,791.2837534592907,845.452568481182
1731653396.5550404,856.5773570171369,801.7995713625107,780.6513664993805,854.7576188693299
1731653396.5589406,850.9266107625737,803.9080527235051,772.1354319687788,862.5353808169001
1731653396.5617318,833.6045839594287,807.4533890276334,769.8481530039562,866.7531854457053
1731653396.5628407,817.0516108511575,811.5854196833994,775.7800246353079,867.7355562566867
1731653396.5667412,813.0002268300485,814.7434601866194,789.2378591151502,866.8091188042429
1731653396.5689938,822.5212973689734,815.5209659125854,806.6586205739126,864.3457874059217
1731653396.5706415,834.8502237558931,813.5340598950294,822.428262433875,859.1035971711135
1731653396.5745418,836.1051579416549,809.6886792067572,830.7910025494203,849.4621689813263
1731653396.5768964,820.8106714342966,805.6611472526994,828.0213383242346,835.4570212948827
1731653396.5773354,796.8280902155151,802.969353308372,813.8272627719563,819.8236451154991
1731653396.5784423,779.5804835099838,802.2787522331906,791.5068750666883,806.974682524983
1731653396.5823426,780.0364913123055,803.3641385052483,766.9398637385165,800.3779687242125
1731653396.586243,796.029190219946,805.6109657518228,746.7170381808155,800.1264656240318
1731653396.5878472,814.014032425471,808.5276447850584,735.9363132237635,802.6030463137877
1731653396.5901432,820.013067660394,811.8218647706061,736.535801229254,802.7552169474591
1731653396.5929391,810.8318473211838,815.0950385298934,746.9853889929275,797.4914251175057
1731653396.5940435,796.1855177329245,817.6164585177415,763.4445441807966,787.7121673779608
1731653396.5979438,789.9364219080875,818.5219664243359,781.6667880896107,777.4650646990598
1731653396.601844,797.9588758732684,817.2887279785606,798.6373530572223,770.931138651004
1731653396.6057444,812.9982095169846,814.0372220753026,813.1596009261541,769.5471549759026
1731653396.6067004,820.72622761491,809.4282138099553,825.1001318293025,771.2872765876224
1731653396.608543,811.6501120900876,804.3585462984755,833.7942128204844,772.3831884707834
1731653396.609645,788.9715995005661,799.7736417822138,837.0112746360919,770.044494391847
1731653396.611793,766.2659137925996,796.6021498938957,831.9338608834012,764.2233800702521
1731653396.6135447,757.1162383478936,795.547310559144,818.0438407022983,757.2900683625343
1731653396.6174452,764.895265367938,796.669333664626,799.5795020661361,751.9997255684355
1731653396.6213455,780.5289108094535,799.1459436304418,784.6738320199483,749.3803293161037
1731653396.6241465,789.8926052505128,801.6576625671486,780.662720142597,748.2687644458518
1731653396.6252458,785.0388745775858,803.2774515435705,788.6360624888877,746.906257092006
1731653396.6255536,770.3645556388885,804.1256429698211,801.7021769720706,745.1588028026484
1731653396.629146,758.7519583637069,805.1346245999546,808.9708389490017,745.1871439376328
1731653396.6330464,760.7933895895845,807.0747131551833,802.7748631354019,749.6538268621023
1731653396.636947,775.8722242378894,809.7301696649996,783.8934555449076,758.8534303987556
1731653396.63975,792.3314633555061,812.0118950118564,760.8807876563208,769.3718618478581
1731653396.6408472,796.4879082542054,812.9111089093644,744.0544021701518,775.8011038688419
1731653396.644407,783.1391280094172,812.3809607351675,738.7449011928386,774.515457486081
1731653396.6447475,759.2585049975329,811.2891787996235,742.8336440205198,766.6530693843961
1731653396.6466897,738.2622486687342,810.4855025683465,750.0669126909684,757.778110292009
1731653396.6486478,729.7198845419547,809.9020183909772,755.9722535166989,754.0897274544787
1731653396.652548,732.7257331052851,808.5849011435845,761.22015056728,757.8128124920652
1731653396.6553538,737.9218189447056,805.6572817752839,769.670834105825,765.3798438822677
1731653396.6564484,736.0844109101415,801.3238741490902,783.158456978424,770.1049458972193
1731653396.660349,725.9566017414994,796.9996634734541,798.087732280363,767.4595002708668
1731653396.6632602,714.8654745412342,794.446408448732,807.3180299478212,758.7254331512574
1731653396.6642487,711.8778308250767,794.6274382863635,805.9007245575934,749.9586335934274
1731653396.6681492,719.5762671208554,797.1332940516093,795.5301596696286,747.0855821758827
1731653396.670957,731.5973482492842,800.505527028282,783.5865979475315,751.223985569444
1731653396.6720495,737.9984528729124,803.1391186709509,777.4814092313186,758.0195494207878
1731653396.6759498,733.7353890452441,804.1394125484285,779.1722162826155,761.2330294001338
1731653396.67985,722.9314790694527,803.6371893457232,784.4489974094706,757.3278940174057
1731653396.6815865,715.385402418882,802.4644116010998,787.3366175658721,747.4926297993369
1731653396.6821134,718.4535620458943,801.5077190627853,785.6518743929445,736.2120759347117
1731653396.6837504,731.1917927601371,801.2180889476882,783.0362635638345,728.2448957718085
1731653396.686561,745.469168203546,801.5479026999845,785.9413708395595,726.3197687238398
1731653396.687651,752.8536166686415,802.2027908512603,798.2100381076518,730.4536246799177
1731653396.6915512,751.4090309909494,802.8919162981563,817.7188906448754,738.4921664188089
1731653396.6954515,746.7892867939659,803.3959024536266,837.723433534748,747.2712481853401
1731653396.6993518,746.8470413006028,803.5419272640283,851.6126633403184,754.0553583303655
1731653396.7009668,754.4175124701152,803.2528404564763,857.0209324478275,757.7741400488284
1731653396.7021646,764.449945453128,802.6518379367519,856.184025844479,759.2670189701062
1731653396.703252,767.974917179529,802.0295516699663,853.1164012322511,760.1312468082688
1731653396.7071524,759.6831061976419,801.5967185385091,850.6757654337496,760.9717581441828
1731653396.711053,742.9228027380199,801.2540156077446,849.6240837308834,760.7054946563206
1731653396.7149527,727.9747287539991,800.6979268377022,849.3988036859952,757.818283950049
1731653396.7164826,724.7116957993908,799.8399761066345,849.2366286070721,752.4696188329585
1731653396.7177684,735.1132420704976,799.091285962197,848.7704920668998,747.139341664674
1731653396.7188532,751.4237712733436,799.100627393859,848.0348411034277,744.7278853745418
1731653396.71982,761.7688455328191,800.0866475030399,847.2158138176507,745.7384461778438
1731653396.7227535,759.382696201762,801.3964086174472,846.4486821266173,747.5172480184578
1731653396.7266538,748.2774622813037,801.7873048025124,845.762440477329,746.7473425466582
1731653396.730554,740.2809475742224,800.2725527188624,845.1223505909524,743.0448124919433
1731653396.733372,745.1923304725838,796.8537794147725,844.4880348565105,740.1013875632866
1731653396.7344544,762.0884774753806,792.5827952064534,843.8419634704611,743.0268811964305
1731653396.7383547,779.5528629148826,788.9793492953589,843.1874192944609,754.2069630501159
1731653396.7386732,785.1542165016617,787.2904049726337,842.5346156621956,771.3633570674332
1731653396.742255,776.2435932242058,788.040637132365,841.8903956652108,789.3162814006988
1731653396.7461553,762.7218663663468,790.9715164579679,841.2559066645372,803.605939791959
1731653396.7489758,759.265311330748,795.2204381258999,840.6291564503902,812.8664813741722
1731653396.7500558,773.4093003719297,799.6139076902982,840.0080727132707,818.4251837247407
1731653396.7513793,799.1657045778244,803.0401368561892,839.3918697752674,822.1020355478768
1731653396.753956,821.1563622712266,804.8232711859395,838.7808333162243,824.3752899431346
1731653396.7575266,825.9080123426828,804.9239999747301,838.1755526931659,824.3452989273218
1731653396.7578564,811.6017676234844,803.8448135462654,837.5763834625811,821.2383780500704
1731653396.761757,788.9757246929174,802.3245115524892,836.9833381995329,815.9269226157909
1731653396.7645793,772.9376935454484,801.0476708514361,836.3962454031127,810.9557647527618
1731653396.7656567,771.5638134185568,800.5235892982962,835.8149689021253,808.820773276446
1731653396.7695572,781.0521900967478,801.1000511407974,835.2395628671921,809.8417196535534
1731653396.7734575,790.2632068776707,802.9628829299385,834.6702860165783,811.5977089247206
1731653396.7763798,790.6548234519523,806.0214768645264,834.1074072694333,810.7977893217528
1731653396.7773578,783.2185265507287,809.7424384397647,833.5508203966124,806.3207320928069
1731653396.7801833,776.9015178344723,813.1333846971363,832.9997238076288,800.8150901061163
