timestamps,eeg_1,eeg_2,eeg_3,eeg_4
1731654353.6964684,817.5394843918209,807.7789699857715,803.2940109753329,813.7236042314123
1731654353.7077398,837.1729217411531,806.6027432554948,805.4946293430883,828.5362878651212
1731654353.71163,846.9633360858318,805.7511208257713,807.5708747133223,838.6053726338864
1731654353.7120633,844.1964819003637,805.8740514601051,809.5801452212058,841.6299196040742
1731654353.71552,835.1243758391865,807.6743857286527,811.7168118583563,838.8384605952504
1731654353.7194102,829.9435139738885,811.1815752263398,814.0257846222935,834.0143994181811
1731654353.7233002,834.5646203174676,815.3571964999243,816.1369170425274,830.9615758860717
1731654353.7243783,845.7073733496725,818.5990303611391,817.3459848392788,831.0512666346167
1731654353.7271905,853.5943323989956,819.8190517741673,817.0848812263298,832.6191178797803
1731654353.727658,850.32284775489,819.1463095262276,815.4200524701725,832.7075300545476
1731654353.7310803,836.9242456683143,817.6136733652753,813.1119453650215,829.7946207252779
1731654353.7349706,822.8865330184477,816.1286149215202,811.1249121981296,825.2415086915596
1731654353.7388606,818.303682937304,814.6892192798357,809.9901576991817,822.1571412062447
1731654353.742751,825.3407620626166,812.5703377932917,809.5820687014156,822.5860421628016
1731654353.7432437,836.4230590339117,809.2981644172587,809.4749118245759,825.4992751844674
1731654353.743253,840.7231872254554,805.4867608462181,809.4727355642322,827.5118580136359
1731654353.7466407,833.3897554995419,802.7090671147647,809.7440891847264,825.9024291884672
1731654353.750531,819.7667271018043,802.4344029270571,810.431373192021,821.3773805478257
1731654353.7527745,811.1665935411511,804.9060706381633,811.1939094360123,818.014563185961
1731654353.7544212,815.65296131642,808.893617990225,811.260849778473,820.0801529745818
1731654353.7583113,831.1893445736788,812.4943692936821,810.0714620682857,828.1488682961657
1731654353.758848,846.6266859215953,814.2931623208201,807.950178580524,837.8674746559159
1731654353.7621088,849.9533570842958,813.9958985668252,806.1280213502387,842.8108663061383
1731654353.7622013,837.5554430784866,812.225789015995,805.9493580609087,839.4815418817115
1731654353.766091,817.2281687024981,809.8823219035655,807.8461840917568,830.3812745395168
1731654353.7699816,802.3701426913409,807.6554325135172,810.9401876976877,822.3220385654886
1731654353.7738717,801.7937656502273,805.9273133033499,813.6385238753178,821.0638742848005
1731654353.774443,813.233829503409,804.8803097022329,814.7318210886472,826.6558939636611
1731654353.7777617,825.6629985440835,804.5605572270129,814.0912425122788,833.4101036660991
1731654353.780974,828.2992594950899,804.8448181230833,812.4919328545087,834.4927502249701
1731654353.781652,818.8678270410219,805.4097951247396,810.8912165719129,827.2351506995132
1731654353.785542,804.6515056714795,805.7862135455432,809.8425493211907,814.8946885919129
1731654353.7876663,796.000592671353,805.5091765537927,809.3871141369407,803.815418016812
1731654353.789432,797.9798141046675,804.3400078786618,809.2524175554622,798.6752157277331
1731654353.7900376,806.9118642815386,802.4821678267755,809.0643805106419,799.6375518105909
1731654353.793322,814.204491007656,800.6293378466204,808.5129226768521,803.2315850559216
1731654353.7972124,813.8433690663675,799.701603437148,807.5557672073429,805.7068777285015
1731654353.7998395,807.1911669922472,800.3437310803248,806.5900107683904,805.9427028691367
1731654353.8011024,801.2900163737658,802.5173967198622,806.3425022432366,805.7342878937831
1731654353.8049924,802.3926829171791,805.5171402682429,807.3854393920325,807.5526242948132
1731654353.8056326,810.3079222141748,808.4081507285689,809.5934300520373,811.8626005143266
1731654353.8088827,818.2596161274006,810.5278757402747,812.0455161282845,816.3259998942403
1731654353.8127728,818.2707773539572,811.679890229906,813.5419292889949,817.5749905391491
1731654353.8166628,807.5944568386884,811.979697822111,813.3420933439088,814.0450328425595
1731654353.8187046,791.0397587193132,811.6132558278715,811.5275011133592,807.4315951275252
1731654353.8205528,777.487224507023,810.7334530580703,808.7668780912079,801.4816137183432
1731654353.8212276,773.4559407939065,809.4677818765109,805.8068885476199,799.0656340216926
1731654353.8225584,778.6739770813351,807.9012470579058,803.1679875528039,799.8988241093244
1731654353.824443,786.851328025988,806.0430769465116,801.1869648091771,800.7480485226592
1731654353.8283331,790.8306637587137,803.9091617840453,800.1411115237244,797.9816938586141
1731654353.8322232,788.0350596526654,801.7016380989947,800.1707221740475,790.486670465186
1731654353.8361137,782.0116365497026,799.8378727624236,801.0716792258178,780.7030949656069
1731654353.8368225,778.9963963473257,798.6950631319157,802.2889604670589,773.010373656286
1731654353.83757,782.4249046689828,798.3209366431824,803.2361360858217,770.7676949227354
1731654353.8400035,789.9680549827071,798.434237176805,803.6503036623293,774.3010705532546
1731654353.8438935,795.552981433867,798.6777180034105,803.6460497811014,781.2436766294546
1731654353.8477838,794.641266372998,798.8386802079773,803.4932091324915,788.6610742665268
1731654353.8516738,788.2750983132819,798.884497612382,803.3878625786309,795.030125837806
1731654353.8524172,782.4125215796765,798.8754643952973,803.3810061538627,800.5193624138283
1731654353.855564,783.0339370474065,798.8725563208793,803.4323734795213,805.6976674967473
1731654353.8564353,791.0850221952659,798.8984250152286,803.4885871296335,810.1914441524482
1731654353.8574502,801.5192872222634,798.9449252812664,803.524289583314,812.6819821442206
1731654353.859454,807.3477976040286,798.9957061371891,803.5421020971277,812.2207805728308
1731654353.8633442,805.4294993583965,799.0410849459257,803.555055608015,809.5241553479248
1731654353.8672342,799.1593962563602,799.0802860855291,803.572511946772,806.8796151251389
1731654353.8680122,795.6536994265047,799.1168417830191,803.5963972696741,806.5337805839271
1731654353.8711245,799.65072123226,799.1539249996289,803.6242263194608,808.8240593021817
1731654353.8750143,809.2774044997002,799.1925684481133,803.6531575091543,811.6628739990027
1731654353.8753004,817.3911589157423,799.2322366873443,803.6819578998924,811.9767068584198
1731654353.8789046,817.4725109189998,799.2720520518402,803.7108422566229,808.1383264726866
1731654353.8827946,809.1188717006905,799.3115355398681,803.7404989853221,801.5512388026021
1731654353.8836071,798.527673306062,799.3506762568592,803.771375147732,796.0693764957127
1731654353.886685,793.6102658370894,799.3896689416384,803.8035193975313,795.5055030715224
1731654353.8905747,797.7977053666452,799.4286730404687,803.8367626950884,800.9338004120505
1731654353.8923423,807.5065159287211,799.4677318060811,803.8709314341257,809.7356991865031
1731654353.8941658,815.141913813243,799.506810666109,803.9059420169217,817.1665437445643
1731654353.894465,815.1505304867336,799.545862250531,803.9417863557982,819.4384611380887
1731654353.898355,808.3621654186556,799.584861216845,803.9784798090408,816.1696493242528
1731654353.899202,801.2127443505241,799.6238038827277,804.0160237376948,810.410818599412
1731654353.9022453,800.3783178690417,799.6626945188563,804.0543938638973,806.1926454820635
1731654353.906135,807.0513339348944,799.7015384433598,804.0935438579234,805.4506853522878
1731654353.9100254,815.660522455602,799.740346172273,804.133416406028,806.756625293496
1731654353.913031,818.4311022194986,799.7791376437393,804.1739638472621,806.8883890363376
1731654353.9139154,812.2077218879944,799.8179310495782,804.2151775151215,803.8969615228675
1731654353.9147968,801.6536345369501,799.8567129369691,804.2571043912404,798.9728214274187
1731654353.9178057,795.720140186654,799.8954129290167,804.2998108092195,795.3992584769106
1731654353.9216957,800.107481708376,799.933929384101,804.3432722100706,795.4972965412242
1731654353.9255855,812.1790810557183,799.9722370021155,804.3872479724557,798.3855106181969
1731654353.9272342,822.877425205293,800.0105277663478,804.4313024867945,800.7253076964897
1731654353.929476,824.147856740647,800.0492235184857,804.4751364134829,799.8760783994956
1731654353.9303918,815.561914224438,800.0886711465376,804.5191589564743,796.5657180890596
1731654353.9318962,804.5034592221648,800.1285425366632,804.5647894393891,794.4947747371955
1731654353.933366,799.8066136690244,800.1674201835068,804.6136906314241,797.0274179877239
1731654353.937256,804.310114306794,800.2034173026877,804.6656307547191,803.8322120831943
1731654353.9411464,812.6555063586379,800.2363033245541,804.7162618550883,810.5461274564879
1731654353.9450364,816.0959765905609,800.270041874067,804.7579298172951,811.978563023784
1731654353.9459867,810.0605401518536,800.3125990471505,804.7863498942835,806.2750249960909
1731654353.9489264,797.985209721662,800.3696800621084,804.8111928597552,796.5661824096536
1731654353.9507616,788.3341993875149,800.4334464428106,804.8602831455929,788.7129751034291
1731654353.9528165,787.5922154140864,800.4759612929483,804.9625330624333,786.9766431724879
1731654353.9567068,795.1495743217839,800.4631764348661,805.1052937260407,791.0566483218129
1731654353.9605968,804.0362560677095,800.3964186365503,805.1913525028698,796.7022413136311
1731654353.9615817,806.5379490241397,800.3576705565873,805.0489091905445,799.1893374528297
1731654353.9621265,800.0881571781738,800.4982414473528,804.5235076569154,796.8204694820334
1731654353.9644868,789.0431462730105,800.921037835384,803.5857768431019,791.8682382302272
1731654353.968377,781.2854635120488,801.519084249267,802.3447014115928,788.5554552959426
1731654353.969627,782.3275610097769,801.964520982461,800.9810787222609,789.8285723949012
1731654353.9722672,791.2254061735675,801.9635434347424,799.7277528055439,795.2804747696732
1731654353.9761572,801.2865146258159,801.5818899943538,798.8941942608002,801.5216667261793
1731654353.9771764,805.145659036014,801.2764850021299,798.7713564773557,804.5789023688037
1731654353.9800472,800.4846347392725,801.5267333747935,799.3783337861141,802.6243538302772
1731654353.9839375,791.9446200443949,802.3868640914977,800.2771578141447,797.1783118663378
1731654353.9878275,787.5401387821712,803.3927696254534,800.7053287744473,791.9799564452287
1731654353.988492,792.2679609093515,803.9328619733624,800.0069827725495,790.3773029010733
1731654353.9917176,804.0297069152289,803.775078513124,798.0781066740166,793.1769324428909
1731654353.9927714,815.2106417953827,803.3168953098684,795.5170518582717,798.486400969467
1731654353.995608,818.5967388830268,803.348705617558,793.35526789938,803.4337205517821
1731654353.997018,812.7002772380737,804.4756715928414,792.4853807401117,806.1802868196582
1731654353.999498,802.188364428967,806.5990343521732,793.1116461246046,806.6800983878061
1731654354.003388,793.5286061473209,808.8715498995078,794.6200776385128,806.0050101733917
1731654354.007278,790.1340836118784,810.2477264930955,796.0477298685632,805.2347462722851
1731654354.0073574,791.0914182065832,810.2682088871373,796.849854332503,804.8558290307396
1731654354.0083663,793.4636588703223,809.4298720539388,797.3164786388353,804.8211787250026
1731654354.0111682,795.0575364800043,808.765594314068,798.2167015401709,804.892012974443
1731654354.0150585,795.3806151663342,808.9736189579323,799.9550017113648,804.899017336583
1731654354.0189483,795.0034669406245,809.9099786201962,802.0346351133496,804.8093872582888
1731654354.0228386,794.6049289976763,810.8851565731335,803.3722445894928,804.6697606147308
1731654354.0239613,794.4887579815008,811.3472021801359,803.195451668761,804.5318597563593
1731654354.0262227,794.6085076611755,811.2364491657468,801.6874005608397,804.4172920085766
1731654354.0267286,794.7964776905089,810.8281610730292,799.7945427345259,804.3212171433319
1731654354.030619,794.9377024368434,810.408152193278,798.4253691182325,804.2304428828465
1731654354.0319102,795.0117264352484,810.1007304882792,797.8136408365419,804.1364196901739
1731654354.0345087,795.0514888880869,809.8871933943859,797.5707121609541,804.0379250212568
1731654354.038399,795.092282996494,809.70038386819,797.2158449141408,803.937639113629
1731654354.039556,795.1483453185941,809.4947143195636,796.5529874823261,803.8382349121175
1731654354.042289,795.2159502835748,809.2624965001928,795.5796690784599,803.7407023397446
1731654354.0450878,795.2859641604626,809.0171851845442,794.2448163805644,803.64468
1731654354.0461793,795.3526209553696,808.7729342687564,792.5357254736505,803.5494424581941
1731654354.050069,795.415190991346,808.5353625878599,790.8638294140374,803.454552412193
1731654354.0539594,795.4755520291956,808.302914480123,790.1842109613906,803.3599613174388
1731654354.055151,795.5355168555074,808.0719262810541,791.4538776722591,803.2658100628456
1731654354.0578494,795.5957260168678,807.8401207072163,794.785466418153,803.1722252612811
1731654354.0617397,795.6559051594576,807.6072423317627,799.1121700075322,803.0792409361966
1731654354.0639532,795.7155481133823,807.374067244807,802.7726075232828,802.9868230292086
1731654354.0656295,795.7743561294878,807.1413327260495,804.5656347356284,802.8949227637975
1731654354.066802,795.8322978029527,806.9093013143425,804.4100740719545,802.8035090294813
1731654354.0695198,795.8894684863506,806.6778699077473,803.1450541907619,802.7125714853381
1731654354.070746,795.9459514236476,806.4468449005456,801.7665337510828,802.6221091617185
1731654354.0734098,796.0017665739448,806.2161167281411,800.8038806211197,802.532120044566
1731654354.0773,796.0568892936612,805.9856821660351,800.3008297634686,802.4425976969231
1731654354.08119,796.1112872979942,805.7555874506828,800.2529203442651,802.3535329819193
1731654354.0828185,796.1649417922731,805.5258731426235,800.9237119777696,802.2649165729489
1731654354.08508,796.2178476484078,805.2965541724172,802.6126018732328,802.1767396806108
1731654354.086341,796.2700040557557,805.0676268919016,805.0697630931419,802.0889932711989
1731654354.0889704,796.3214083442205,804.8390822664594,807.2428717537978,802.0016678555435
1731654354.0928605,796.3720586338102,804.6109128335698,807.8201900698191,801.9147556743194
1731654354.0967505,796.4219620391856,804.3831139166158,806.2247266667414,801.8282546120971
1731654354.1006403,796.471138132506,804.15568547526,803.14570854098,801.7421695574704
1731654354.1016836,796.5196064845323,803.9286373222878,800.0482297990297,801.6565053993407
1731654354.101694,796.567357835925,803.7019914914192,798.0752162218312,801.5712507483945
1731654354.1019356,796.6143310690153,803.4757700708634,797.3262090666352,801.4863639171808
1731654354.1045308,796.660437617324,803.2499646431221,797.0795607544622,801.4017846523001
1731654354.1084208,796.7056602570552,803.0245074475663,796.6161165372721,801.3174887226876
1731654354.112311,796.7501807086131,802.7992895156578,795.8551753695114,801.2335627852149
1731654354.1162012,796.7943884517981,802.5742625242599,795.359247881947,801.1502175126604
1731654354.1175306,796.8386003491487,802.3495875492625,795.8782651404232,801.0676379452514
1731654354.1200912,796.8825151294096,802.1256765025184,797.8487297487918,800.9856726446778
1731654354.120549,796.9248440777566,801.9029234280904,801.0933502021579,800.9035996624666
1731654354.1239812,796.9638885070308,801.6811047850732,804.7793840241222,800.8204113963914
1731654354.1278715,796.9994803991185,801.458881557622,807.6808065714954,800.7358925236585
1731654354.1317616,797.035273325895,801.2342624994271,808.739922017835,800.651976027642
1731654354.1331255,797.0785179501516,801.0066313411086,807.6870325348161,800.5727749352546
1731654354.1356516,797.1343116467641,800.7794694693113,805.2944263198831,800.501486899078
1731654354.136586,797.1953513217626,800.5607503669227,803.0155640783494,800.4345231871632
1731654354.139414,797.236120819682,800.3573798516769,802.1889816595987,800.3577150704672
1731654354.1395416,797.2258463056105,800.1639764073981,803.2796501877073,800.2528689947333
1731654354.143432,797.1662861276601,799.9551336577156,805.5903196020068,800.1188722118743
1731654354.147322,797.1323743736832,799.698078597934,807.6199430621408,799.9959783687144
1731654354.1487205,797.2604522059025,799.3975992824692,807.9324727173106,799.9622151599395
1731654354.151212,797.6317664524374,799.1606407570247,806.0915271632382,800.0702401390902
1731654354.1551025,798.0819629910704,799.233309246352,803.0553422688156,800.237700879583
1731654354.1582794,798.1162712092192,799.9411262362223,800.6543331238809,800.189608566308
1731654354.1589923,797.1967347874557,801.4977721073026,800.4029925183055,799.6079686094065
1731654354.1628823,795.4862636524542,803.7768522882636,802.4784693103082,798.5536984266594
1731654354.1643152,794.6009079528916,806.2750724806095,805.6542229557264,797.9321136686985
1731654354.1667724,797.3708543080878,808.4118324794156,808.2415286994416,799.4551574412695
1731654354.1706626,805.8984726007731,809.968433375384,809.2783966923836,804.6656424654558
1731654354.171478,818.9048771277511,811.217103498299,809.0420005600082,813.4141854869852
1731654354.174553,831.0960413079044,812.5147707392267,808.5710263251094,823.0984925326593
1731654354.1771448,836.3045563047652,813.721114848657,808.6927303474462,829.7722166635765
1731654354.1784427,832.4663953448313,814.1133148263142,809.3669215008367,830.715333183206
1731654354.1799102,824.0074671469088,813.046567412583,809.8028515797063,826.6133476530553
1731654354.182333,818.9591483924004,810.7867650316008,809.1627028337763,821.5046547681693
1731654354.186223,822.6456532244316,808.6145190270785,807.2614412247164,820.1799893690454
1731654354.1901133,833.0648244668969,807.9353813889375,804.7451254446394,824.6948553531794
1731654354.194003,842.1107623086501,809.14529701956,802.6522811472079,832.6212257783103
1731654354.1955051,842.0285434440646,811.3148696339016,801.7159136915099,838.6216741296687
1731654354.19601,831.901627796375,812.9974349417624,801.9338936893812,838.3797783921412
1731654354.1978934,818.7141852530758,813.4113295457761,802.6987958597755,831.8831533568138
1731654354.2017834,811.989702641586,812.9586545173944,803.3217059627866,823.4041944101783
1731654354.2056737,816.313202535667,812.7224131544432,803.4934335409816,818.1409521513932
1731654354.20637,827.7041283357585,813.4718841031715,803.3399754707232,818.2255146888006
1731654354.2095635,836.670798892193,815.0043788478089,803.1095532112652,821.3732994519268
1731654354.2111,835.6066344475838,816.2726086084378,802.8205220805178,823.3153107157639
1731654354.2134538,824.9358340966593,816.1505289440953,802.1828858139484,821.9916958719051
1731654354.2148752,813.2360034191777,814.2911767807178,800.8518774458423,819.8256170561971
1731654354.2173438,810.8141790575285,811.4671654858951,798.8055608854419,821.7360656114389
1731654354.221234,821.1712003051424,809.0765642074798,796.5410690117217,830.1204336597083
1731654354.225124,837.0102674467553,808.0716510608247,794.909169958376,841.086798178965
1731654354.2266948,844.6829302282971,808.0954091592846,794.673501109408,845.8782926768896
1731654354.2290142,834.4320199929344,807.5962166647314,796.0970015528239,837.3024671361744
1731654354.2329042,808.4776263994938,804.9752429720947,798.8345711291946,816.2111082157969
1731654354.2337406,780.0099375599351,799.9200374207279,802.1528375076608,792.1809570233031
1731654354.2367945,763.4795637726625,793.8174164561905,805.2525457449577,777.0511961042698
1731654354.2406845,764.0371211400384,788.8466098530731,807.4794985828865,776.2397103580695
1731654354.241262,774.725744273128,786.4617128877627,808.4209870135463,784.9894060454282
1731654354.2422898,783.3083238152234,786.4980043519826,808.0059880740062,792.6220953849056
1731654354.2445743,782.5198200349562,787.5973507372074,806.6129549712093,791.1329856330498
1731654354.2484648,775.1324242246492,788.5153174645552,805.0273492810442,781.0404957488357
1731654354.2523549,770.1529337993447,789.1371711977829,804.1410955857722,770.0576069625661
1731654354.2526057,774.0655449518831,790.3226482875302,804.5239556514047,766.2301509456024
1731654354.256245,784.8467824151279,792.7679199889336,806.1499602427789,771.460919100193
1731654354.2578847,793.6985736462854,795.9977022790378,808.45685799042,780.5414080039126
1731654354.2601347,792.759966434208,798.5351752933316,810.6652628785271,786.0157068038975
1731654354.2640252,782.093030891529,799.2121915086624,812.1209194967241,784.5182794032153
1731654354.2679152,769.98091898241,798.4161968267708,812.463204775241,779.3547419333313
1731654354.271471,766.284267639692,797.9835097030044,811.6025847630909,777.4607832372999
1731654354.2718053,774.4472417076763,799.6617137996873,809.6494171371469,783.4980549973377
1731654354.2734797,788.8067361206955,803.4722082568459,806.9332866526115,795.9358732502488
1731654354.2756956,799.3197468671733,807.4954896589597,804.0824476692507,808.0742885304821
1731654354.2761538,799.6395349585554,809.3289846210927,801.9737246260073,812.9537209926435
1731654354.2795856,791.856712559761,807.9479787071695,801.4153273635824,808.2713255269795
1731654354.2834756,784.1974022576819,804.3821247358019,802.6794282192155,797.7522152824382
1731654354.2873657,783.8532387410369,800.7437449923057,805.2146745490445,788.2748555872674
1731654354.2890744,790.9881467376388,798.5816399045865,807.8125258441285,785.0893398362705
1731654354.2903364,798.795400499544,797.9669089922805,809.2028983014554,788.5725886498689
1731654354.291256,799.4340204249038,797.8894768448419,808.7566797182312,794.6123837764618
1731654354.295146,790.914071517604,797.3715049980739,806.885650527023,798.0473891880339
1731654354.299036,779.2663015594337,796.2596959607228,804.878981639382,796.4894501695522
1731654354.3029263,774.1294226437299,795.164428744286,804.2006319356714,791.743424393678
1731654354.3046694,781.1872927675905,794.816469874712,805.5791444059414,787.9822301251155
1731654354.3068163,797.4585017773452,795.477674858324,808.4199334253518,788.350802171145
1731654354.3092017,813.2139542656872,796.8166025962121,810.9931836527246,792.7550102937383
1731654354.3107064,819.0789770585624,798.2119319931115,811.4193506006053,798.4143007151687
1731654354.3110456,812.8383079434514,799.1784142471868,808.8919391336776,802.4337807996345
1731654354.314597,800.7416736484892,799.6311210049437,804.2933496056667,804.1536025800913
1731654354.3184867,792.4179603399847,799.8761802477733,799.6991252898569,805.4256409096242
1731654354.3202643,793.4758519436499,800.3738539403428,797.0560945935383,808.7224259832863
1731654354.3223767,801.6192226844295,801.4072896425571,796.9560422994131,814.6838065058937
1731654354.3262668,809.2160946017202,802.8337146090671,798.3778480854642,821.1411989909308
1731654354.3280668,809.9997213715764,804.0899330665692,799.5516362348228,824.5211539606944
1731654354.330157,804.2489223039921,804.5095633007036,799.2693856270773,822.6121168730286
1731654354.3340473,798.194713349895,803.7881542386432,797.6796366239599,816.4705042730019
1731654354.3358593,798.3466746611122,802.2685443659282,796.0674176486432,809.8444883250003
1731654354.337937,805.6850136869725,800.8089032457852,795.9159432478825,806.5283051306629
1731654354.3418274,814.6338347078004,800.3125621790685,797.993474879619,807.790588013806
1731654354.3457174,817.5946522420152,801.259212239315,801.9996826526408,811.8878811399144
1731654354.3459375,811.2067494824057,803.537374663386,806.7757124140857,815.8181431104498
1731654354.3469322,799.2148707452809,806.604670026459,810.7821745916851,817.6177737383631
1731654354.3496077,789.701665806276,809.7779290929199,812.6253409408786,817.2950536278654
1731654354.351454,788.9752134275562,812.4525343682071,811.5516918691903,815.9402400959134
1731654354.3534975,796.9903103828971,814.187955902574,807.7829938584075,814.1939321573709
1731654354.3573878,807.869027909595,814.705589641356,802.4786505332864,811.6335994588928
1731654354.3612778,814.9064602746564,813.8703436624396,797.2616834693385,807.5767615147669
1731654354.365168,815.7479539179902,811.7099605070899,793.5644996004874,802.3890168337772
1731654354.3657973,813.3955468552543,808.4847823619637,792.175229796517,797.9133920774838
1731654354.367049,812.5384122740007,804.7541115652749,793.1334370620651,796.4679135252482
1731654354.369058,814.9743991917516,801.3407960611981,795.8364826995395,799.1823573052893
1731654354.3729482,818.4769589822861,799.1328380038119,799.2356693228137,805.0661235692979
1731654354.3768382,819.7130681342061,798.7631769286909,802.1924138925625,811.5982494567736
1731654354.3807282,817.6671333443214,800.3016461713491,803.9750932966482,816.364304038824
1731654354.3808296,814.0748781375606,803.1267298934358,804.5585491919744,818.4321008643203
1731654354.382644,811.2293624717774,806.1048274658242,804.4430285297273,818.4524862506045
1731654354.3846183,810.072501726211,808.0768390861755,804.1892371572785,817.5965605571447
1731654354.3846626,810.1307588588234,808.4526041201849,804.0950261692408,816.3818183114979
1731654354.3885086,810.4996669067974,807.5578077685736,804.1791477037231,814.3883600910433
1731654354.3923986,810.6161862204624,806.4410207097826,804.3351671974942,810.9558441540729
1731654354.3962889,810.4033284288674,806.1885298059625,804.4714522027637,806.0874683234476
1731654354.398239,810.0370639735634,807.1965909971002,804.5606679413469,800.7356368920543
1731654354.400179,809.6908213744697,808.9356534013317,804.6204127519852,796.3081503283562
1731654354.403528,809.4281469281107,810.3537202114348,804.6766682808657,793.8675448162243
1731654354.4040687,809.2255146456488,810.5404750853672,804.7428022485994,793.5776127565532
1731654354.4079592,809.0366298081017,809.1423304299477,804.8184089150859,794.6526582211077
1731654354.4118493,808.8343250593806,806.3863356224531,804.8974115370446,795.804799592526
1731654354.4138336,808.6166265498247,802.9536475929503,804.9750866461034,796.0125888230173
1731654354.4157217,808.3936221228959,799.876853005734,805.0502369693696,795.1796602878826
1731654354.4157393,808.1742800368809,798.3003824012668,805.1239217052498,794.1043123833405
1731654354.419629,807.9614812385855,798.9252673799217,805.1975005863679,793.6043410288161
1731654354.422393,807.7536863838591,801.4107704337728,805.2716054045947,793.5368497561784
1731654354.4235196,807.5484153719987,804.3489457170185,805.3461531991722,792.8470212778576
1731654354.4274096,807.3443349233127,806.078947273042,805.420799099043,790.884500488788
1731654354.4294286,807.1414436827722,805.8053988021715,805.4952946091464,788.7243944461702
1731654354.4312997,806.940317048277,804.1053365936798,805.5695799372467,788.8591718096429
1731654354.43519,806.7414062985672,802.421824473444,805.6437029635251,793.1198540560478
1731654354.43908,806.5447899025418,802.0260321971106,805.7177151736992,800.6018755358756
1731654354.4412584,806.3502887402752,803.2810394742966,805.7916274570962,807.6131742064251
1731654354.44297,806.157713409331,805.6097219705849,805.8654261783038,809.9246499288156
1731654354.4450235,805.967070089349,807.9383917550715,805.9391070583528,805.6601925952446
1731654354.44686,805.7786145380251,809.191315771083,806.0126830869448,796.7546383947805
1731654354.4506135,805.5926659067505,808.650941239627,806.0861484928736,788.0513172796565
1731654354.4507504,805.4091818998176,806.2245620133918,806.159423194743,784.6323298171749
1731654354.4546404,805.2273537396503,802.6082412965706,806.2323449987389,788.9366469903955
1731654354.4585304,805.0457805022215,799.1902208007796,806.3047811874774,799.3462613543322
1731654354.4601238,804.8637115558006,797.5752310454853,806.3768478977339,811.1736389857723
1731654354.4606185,804.682970474154,798.8572942114052,806.4490564368385,819.5463378502461
1731654354.4624207,804.5086811065071,802.9968445929584,806.5220763068855,822.3294989718248
1731654354.4663107,804.3461610686766,808.6736512969029,806.5959526202989,821.0498176640214
1731654354.4702008,804.1934165973785,813.7729716276258,806.6691933869978,819.1705854064759
1731654354.4740908,804.0343115838791,816.3287810060596,806.7388814868458,819.0745584176925
1731654354.4762132,803.8432326456197,815.4606281868986,806.8030077285765,820.1401354815158
1731654354.477981,803.609718241474,811.7808129324538,806.8645796448308,819.4629250373782
1731654354.478989,803.3737347942568,807.0168021311872,806.9338892023957,814.6752433580398
1731654354.4818711,803.234452445043,803.0750084440355,807.0232029164949,806.5541774406597
1731654354.4855056,803.2846374674843,801.133341879619,807.1315485401201,799.101721152034
1731654354.4857612,803.4674470467714,801.2865229567193,807.22859835258,796.721629950628
1731654354.4896514,803.4611263085562,802.821257320638,807.259946076472,800.6545985581986
1731654354.4918082,802.7970340985235,804.7668803747669,807.1946906992711,807.8037192794674
1731654354.4935417,801.3513982696463,806.3117504206616,807.1029068009833,813.264740096005
1731654354.4974315,799.9992581020339,806.9484076110933,807.191967824563,814.522161513201
1731654354.4978542,800.7183473774162,806.4637646725499,807.7003015069209,813.4855425707868
1731654354.5013218,805.3337198986143,804.9050367298051,808.6322537335869,814.3445165354985
1731654354.5052118,813.1448655979046,802.5306595526097,809.5280732890044,819.1621938620227
1731654354.5074031,819.6418415149523,799.7069518741357,809.5764007622282,825.3916772797684
1731654354.509102,818.8811345548896,796.7802139445911,808.1191418655528,827.7654488337587
1731654354.512992,808.6645378262482,794.0192215314873,805.1555995242417,822.9019301335328
1731654354.5167196,793.6302160891123,791.683487436837,801.3890253836324,812.4419522960947
1731654354.5168822,782.4600708613808,790.1573385759112,797.8040981236151,801.8951150020722
1731654354.5203974,781.144836022456,790.0028878513963,795.1820099818618,796.2379450174657
1731654354.5207722,788.2049877138113,791.8010156996678,793.8928861282069,796.1078421808138
1731654354.522998,796.0332155090706,795.7777904744725,793.9278218509417,797.7965588430322
1731654354.5246625,797.1950644838998,801.4061926760605,794.9426998280837,796.8700793004737
1731654354.5285523,790.4098217887391,807.3095175037886,796.2638681405799,792.1201157611034
1731654354.5324426,781.3256832911709,811.7069635994985,797.0355136791088,786.3976617850569
1731654354.5355847,777.6074780299048,813.2823876743946,796.6047021835603,783.7901807700732
1731654354.5363326,782.5430815727691,811.9537019334548,794.9175545658949,785.8900221759143
1731654354.5385928,792.4456184640983,808.9663647743117,792.5641679688248,790.5242230566332
1731654354.5402226,799.8021081560216,806.1840303549151,790.3858907318572,793.8413053182901
1731654354.5441127,799.3494941713469,805.0621533046142,788.9695175711882,793.6202956232808
1731654354.548003,792.066868270211,806.0050283695084,788.4474832295373,790.9055584766684
1731654354.551893,784.0878530577316,808.426077914017,788.7058363376775,788.9034137754721
1731654354.5541878,781.8005627435952,811.2555084531599,789.7155671694965,790.4043087270388
1731654354.55445,787.2704466463578,813.4307972894537,791.6200467403455,795.7789372120169
1731654354.5552895,797.4153666763133,814.1671979030882,794.4707780356281,802.7319022804993
1731654354.5557833,806.9980276142671,813.1206219108833,797.8519614130962,807.7225529675613
1731654354.5596733,812.4820615757079,810.5414201904947,800.7870043237496,808.1515716374354
1731654354.563563,813.6650079419144,807.2829501649219,802.1460754305248,804.0737132842793
1731654354.5674534,812.5340285211024,804.4721816976087,801.367123957374,798.311046271211
1731654354.5697827,811.1650201403253,802.9149799963179,798.9640724950655,794.6797589548405
1731654354.5713437,810.5269189153737,802.6156483919451,796.3456097153394,795.3977086102626
1731654354.5733154,810.5560947936038,802.7975702698353,794.9512097508544,799.5495949306419
1731654354.5752337,810.8006435875193,802.4850439959607,795.2818035324728,803.8295172031812
1731654354.5791235,810.9292419027921,801.2917582553382,796.5701282996097,805.021463598026
1731654354.583014,810.8710495229215,799.8505245490967,797.3939502344577,802.2781053908158
1731654354.5853777,810.7119555052695,799.4921753226763,796.7941675376672,797.4355248016069
1731654354.586904,810.55168563603,801.3023025493064,795.0319089641322,793.2296994945955
1731654354.5901814,810.4336187056646,805.2187171642337,793.3908859369333,791.0017244860819
1731654354.590794,810.3497884118103,809.9058582319128,793.1932997898518,789.8575636278762
1731654354.5921805,810.2751027560248,813.5774495929836,794.8131099932265,787.9615461419015
1731654354.5946844,810.192748918182,815.1461324158768,797.4409344320593,784.7530959991831
1731654354.5985744,810.0999381509167,814.773227556346,799.7358022311162,781.9993196973618
1731654354.6009724,810.0016112077025,813.4099725393571,800.8133952070808,782.5697480342001
1731654354.6024644,809.9029020694325,811.8246248868235,800.8050833041789,787.8833913690854
1731654354.6063545,809.8057776242653,810.0453555556212,800.6110087112471,796.2950088146656
1731654354.6102448,809.709573640011,807.6898622279512,801.1198063450488,803.9827256966338
1731654354.6110458,809.6128722161956,804.7618115179257,802.5466652551519,807.7350888682731
1731654354.6141348,809.5147818729549,802.0664650094383,804.366671750493,807.3511609666693
1731654354.6165674,809.4151555893632,800.8268937288424,805.7922271043195,805.6681717028358
1731654354.6180248,809.3142079472894,801.8733748822849,806.3528327814149,806.228252455989
1731654354.621915,809.2121106215868,805.1221440267249,806.1811428786261,810.5361637984124
1731654354.6250734,809.1088454568405,809.6872816677127,805.9253886145696,817.1055670685208
1731654354.6258051,809.0042926054401,814.3595550864711,806.4234979752987,822.8997563399738
1731654354.6296952,808.8983926876869,817.9794102303797,808.2680246351949,825.7671752496672
1731654354.6299112,808.7912163026672,819.5535664821399,811.3651448693142,825.7800036267504
1731654354.6321623,808.6828416813496,818.3580954680834,814.7020579454529,824.5212013172293
1731654354.6335852,808.573076789822,814.2499672721445,816.619538483298,823.2262180142123
1731654354.6374755,808.4612608539337,808.0133853212124,815.6552607490804,821.6069804364778
1731654354.6413655,808.3465207102226,801.3046213374259,811.521174903083,818.4374152630218
1731654354.6452556,808.2286817770781,796.0009664209548,805.4800374356948,813.3161082704829
1731654354.6477573,808.1093608482141,793.2926377269721,799.7220590982726,807.921316290624
1731654354.6487763,807.9918930184024,793.1318877675709,796.1252283088373,805.4506939025473
1731654354.6491458,807.8786594660816,794.4101263460343,795.2920323794891,808.4447533150893
1731654354.653036,807.7662586842098,795.7246982387376,796.4933289454066,816.6030082030378
1731654354.656926,807.6426817357444,796.2343689244674,798.3918050146895,826.4046255254901
1731654354.6599653,807.4932553540575,796.0789207282608,799.8907847807191,833.1191380285815
1731654354.660816,807.3183433464338,796.115843608714,800.5606847759509,833.9458971387934
1731654354.663352,807.1526729012355,797.1663844771509,800.5751183358933,829.9325046870813
1731654354.6647062,807.0603529832639,799.3242542690917,800.4179859497348,825.0207951734659
1731654354.6676416,807.0806005249494,801.8665675168279,800.5962345213755,822.7815564724552
1731654354.6685965,807.1377423037242,803.835077160001,801.4279217633413,823.4346215111448
1731654354.6724863,806.9991107629637,804.7765077751153,802.9211800772584,823.7345344772582
1731654354.6763766,806.406120821731,804.9897492650191,804.7868641777807,819.9655883798695
1731654354.678947,805.4193970915261,805.0996653921496,806.5845524174833,811.5435349194983
1731654354.6802666,804.7653694055839,805.4148182615673,807.9136484306035,802.0751045526389
1731654354.684157,805.6983817646791,805.697903208504,808.5676000545337,796.8648702879896
1731654354.686507,808.9851170139905,805.5369669114756,808.6415591314291,798.8760790011106
1731654354.6880467,813.4742530371203,804.9191397113918,808.5629140293829,806.3825452398847
1731654354.691937,815.9180854853075,804.4313970660205,808.9263104778894,814.0808079992297
1731654354.694542,813.3672408593571,804.8593570644666,810.0877497242087,816.7175038424155
1731654354.6948574,806.5450569465113,806.4898719852118,811.7503155251233,812.5409003042948
1731654354.695827,800.3500228361829,808.711012775511,812.945740039939,804.2127125906738
1731654354.699717,799.9875547896595,810.3122763368993,812.5869639166677,796.7155268605597
1731654354.703607,806.1076097011231,810.3269458862496,810.2759445557479,793.8740665693923
1731654354.705372,813.8315565792,808.7624854395993,806.7580256370477,796.0188604097274
1731654354.7074974,816.889615197643,806.6094168793896,803.6137116217518,800.4150078547943
1731654354.710137,813.1551358653361,805.1299687828958,802.3226944423712,803.9058759112512
1731654354.7113874,806.4865356956144,805.0306145695391,803.3030105832237,805.4311165195629
1731654354.7152777,803.1839586550792,806.1143267038301,805.582042123788,806.2695559260065
1731654354.7191677,806.2972885369874,807.473517609243,807.3566379967954,808.0091422717777
1731654354.7230575,812.8989144057912,807.8934345565614,807.1069909357083,810.4140207877882
1731654354.7242374,816.6154315911575,806.2726229119186,804.5443109345513,811.4141069662177
1731654354.7257316,812.9614853880704,802.1468953020751,800.7802808075293,809.2859037932716
1731654354.7269478,802.7468478656401,796.2621363450513,797.6437987597682,804.8652879551862
1731654354.7297492,790.9242047549917,790.7001607686191,796.6365046687087,801.5295848495887
1731654354.730838,782.4815765694004,788.0447186341408,798.1890968959162,802.7528831139784
1731654354.734728,779.2410970526728,789.8217385454166,801.5753241512147,809.2632844040093
1731654354.738618,779.8043925172967,795.3081154866607,805.376109492001,818.20299483243
1731654354.7413266,781.6514881189601,801.7754779882009,808.1435319492674,825.0052538256792
1731654354.7425084,783.0551787627363,806.1516455441856,808.9722241280956,826.5186023087939
1731654354.7431028,783.5998172786738,806.8984841554516,807.8256716412305,823.0201607875027
1731654354.7463984,783.6579575969469,804.7265492987235,805.5148719743094,817.713733483091
1731654354.7502885,783.6966921379553,801.739582410973,803.2771345563602,814.2098475091668
1731654354.7541783,783.9281596584182,799.8315199084944,802.1022273362895,813.8948796476708
1731654354.7569215,784.3211422352854,799.6021423965162,802.1959053814694,815.0766753375532
1731654354.7580688,784.7589248590375,800.4370272855308,802.9623495167104,814.442194106368
1731654354.7619588,785.1608351750758,801.3682297402913,803.5311858069955,809.6914656996539
1731654354.761968,785.5120509284404,801.8312409515261,803.4331831360364,801.4258878065266
1731654354.764641,785.8352957113173,801.8035856817847,802.9219687157536,792.9659869327579
1731654354.7658489,786.1552233480356,801.525814327291,802.7352418644681,788.2313821176427
1731654354.7697392,786.481907424648,801.2888028457007,803.5160215825254,789.1128556216079
1731654354.7725165,786.8128572838216,801.4338978598008,805.3220507083525,794.1204297182279
1731654354.7736292,787.1417372409142,802.2959776773358,807.525531815116,799.2987251600359
1731654354.7775192,787.4645187505475,803.8955284922882,809.117559661611,800.8807707976181
1731654354.7808332,787.7806841348055,805.6468978116618,809.2133505957553,797.8612430137492
1731654354.7814095,788.0915495043163,806.5456408282477,807.4842727054685,792.6206368957734
1731654354.7852995,788.3983963061698,805.8699210750219,804.2896451228056,789.1280033999681
1731654354.7881112,788.7016901494555,803.8152783495584,800.4449526353187,790.089126361204
1731654354.7891896,789.0012613323327,801.4208253315165,796.8135391085119,795.1974554689311
1731654354.7930796,789.2967928625029,799.7870702600055,794.0500226155955,801.7015722679379
1731654354.79697,789.5881341380273,799.2778657289333,792.6502727203373,806.6014108800778
1731654354.7995331,789.8753246258448,799.4097103881587,793.0926932506063,808.5674011779721
1731654354.7996986,790.1584460547008,799.4507563448693,795.7041079616014,808.210474943382
1731654354.80086,790.4374776132139,799.0895189067157,800.1938180983884,806.9769771729075
1731654354.8037062,790.7122881650852,798.5616378281486,805.2952509451468,805.9547005575059
1731654354.80475,790.9828133488791,798.2585339756691,809.0719620443751,805.455142240921
1731654354.8086402,791.2493230592352,798.3338759551931,809.9330765528651,805.2771597530692
1731654354.8125305,791.512506511206,798.6623759154397,807.6739344273259,805.1300245506052
1731654354.8164203,791.7730415079968,799.0397445019439,803.6555306992775,804.8677961530484
1731654354.8185637,792.0306174523628,799.3480536584627,799.8855258102519,804.4984755089931
1731654354.819301,792.2831160547645,799.5795974633497,797.7322627642895,804.0913887863634
1731654354.8203104,792.5273447495572,799.7786755205734,797.3102211698799,803.6989431852754
1731654354.8242006,792.7623085969683,799.9842047878844,797.8632725185587,803.3335294665524
1731654354.828091,792.9936276443108,800.20845823738,798.5612545885419,802.9825858497279
1731654354.8319807,793.2341977616078,800.4445881065767,798.9909712284518,802.6306606128112
1731654354.834425,793.4951527981884,800.681811468038,799.1538999269512,802.2707002180322
1731654354.8348958,793.7674017636208,800.9143978170296,799.2214472585486,801.9036540093683
1731654354.835871,794.0080772180303,801.142375908213,799.3285616934877,801.5333043892506
1731654354.837429,794.1581066835671,801.3682393535885,799.5094245638641,801.162275213082
1731654354.839761,794.2066409785374,801.5939907342425,799.7332977703662,800.7910408242287
1731654354.8436513,794.2708130945972,801.8201781096626,799.960666769794,800.4188441087184
1731654354.847541,794.5951440866253,802.0463899102215,800.1729113990485,800.0448613901506
1731654354.8504908,795.3646378669747,802.2720674413026,800.3720214629836,799.668745257336
1731654354.8514314,796.3554096643486,802.4969462162807,800.5676023378253,799.2905604601103
1731654354.8553214,796.7130256869065,802.7210619871069,800.7665328636372,798.9104989975941
1731654354.8562944,795.3434737304135,802.9445659055687,800.9702240431538,798.528679231076
1731654354.8592114,792.1404177680041,803.1675731439905,801.1768571811831,798.145108323544
1731654354.8631015,789.3104524497105,803.3901204818045,801.3843637074027,797.7597394061984
1731654354.8660858,791.0242696935874,803.612197200147,801.5918618574368,797.3725317966088
1731654354.8669918,800.3206161561253,803.833788122655,801.7995323741787,796.9834688101964
1731654354.8693173,815.2614861032655,804.0548949304981,802.0079009222358,796.5925393365121
1731654354.8708818,828.5205802756877,804.2755348488184,802.2173138605848,796.1997166481639
1731654354.874772,832.1566264146368,804.4957305931016,802.427824675791,795.8049676941873
1731654354.8751595,824.1226512662945,804.7155030746488,802.6393278822776,795.408301198718
1731654354.878662,810.7360307534248,804.9348698920551,802.8517156191526,795.0098185116447
1731654354.8816805,802.4359840151241,805.1538467759962,803.0649461526841,794.6096907612887
1731654354.882552,805.881897446691,805.3724483995877,803.2790317140255,794.2080003495124
1731654354.8864422,818.7703039773781,805.5906876319202,803.4939992732803,793.8045019871271
1731654354.8903325,831.712012289733,805.8085754504629,803.7098641959296,793.398546607634
1731654354.8940248,835.7058774685037,806.0261246040425,803.926625882633,792.9894949472983
1731654354.8942225,829.1002228563593,806.24335697557,804.1442755395485,792.5776680557589
1731654354.8972754,818.4469452952717,806.460308181147,804.3628042560734,792.1651643024442
1731654354.8981123,812.81278986695,806.6770183778688,804.5822061671039,791.7551777676057
1731654354.9020028,816.4206989811258,806.8935040819661,804.802477641966,791.3488209422623
1731654354.904209,825.5680569311747,807.1097268418014,805.0236154858889,790.9407598608753
1731654354.9058928,832.0147543046422,807.3256002935263,805.2456159694746,790.5184306888867
1731654354.909783,829.7698864510546,807.5410763506002,805.4684745618308,790.070724719019
1731654354.9128704,819.670454302373,807.756290205731,805.6921853469083,789.6060680218079
1731654354.9128902,808.1814430181753,807.9716313255408,805.9167397962658,789.166049590083
1731654354.9136727,801.6739806011587,808.1875390162772,806.142126226048,788.808801329371
1731654354.9175632,801.1314996788593,808.4039543586259,806.3683322789323,788.5459178143005
1731654354.9214532,801.7698056008118,808.6197693877668,806.5953511829607,788.2622234909503
1731654354.9253433,797.7921310255966,808.8330705830155,806.8231877022973,787.7099281510943
1731654354.9284654,788.0526366230006,809.04287636261,807.0518545752703,786.6771482128648
1731654354.9292336,777.6383241904807,809.2518245694785,807.2813518822585,785.294977132485
1731654354.9317553,773.9339964052973,809.4671631270717,807.5116366635143,784.2077142388625
1731654354.9331236,780.4359875004966,809.6963521342448,807.7426140502159,784.3033114939768
1731654354.9370136,793.4276371585995,809.9365202893081,807.9741913810287,786.1118290395896
1731654354.939101,804.280961035275,810.1649435426827,808.2064002134198,789.4026262842242
1731654354.9409037,805.6947340692174,810.3457222431523,808.4394989367335,793.3498052324449
1731654354.94406,797.1093033588293,810.4643738843713,808.6738810906286,797.0684332189234
1731654354.944794,785.1101125532929,810.576887616117,808.9096649349383,800.0152237473209
1731654354.948684,778.4301531870615,810.8205064663807,809.1461380932748,801.9635158204405
1731654354.950621,781.3854744363232,811.3179237182842,809.3816723554071,802.7376142309735
1731654354.952574,790.9112583813722,811.9670199771106,809.6148561852777,802.1584779243016
1731654354.9564643,799.5355641515191,812.2522671677782,809.846813942774,800.4139766483378
1731654354.959655,801.7560962495754,811.3262594503478,810.0829145502904,798.5139276947456
1731654354.9603543,798.4444084878328,808.488035198542,810.3305756080665,798.2003033586377
1731654354.9642444,795.6226163858416,803.8135562012591,810.5911749235057,801.0446651698254
1731654354.9681346,798.8027420185606,798.4277535143917,810.8500088147979,807.2220207433834
1731654354.9694858,807.8268514608418,794.0970183775789,811.076297258488,814.9099648156869
1731654354.972025,816.6221939779887,792.3304161688815,811.2465359520962,820.9696654950166
1731654354.9739928,818.1071187827517,793.5498654261438,811.3881576618683,822.7082619623502
1731654354.97525,810.2305533884081,796.8491634607336,811.606784726072,819.6968314873297
1731654354.9759147,798.1701754242245,800.4927941677992,812.0351078903662,814.3753307361296
1731654354.9798048,790.7153703632825,802.8761678605049,812.6719527206731,810.7822585748517
1731654354.983695,793.5174018089015,803.4094219154662,813.1943114931127,812.0118860286184
1731654354.9875853,804.5816524040047,802.8063300411662,812.9628057640301,818.1132879082288
1731654354.988351,815.7817765976506,802.5654830127058,811.4171781678807,826.0613268841659
1731654354.990845,819.3195582433653,803.9107593505496,808.7063350885649,831.9313830736667
1731654354.991475,813.873313616813,806.8562709375298,805.9450182512668,833.6406995282108
1731654354.9953654,805.3313085537101,810.0757990142616,804.5902218679581,832.140447362195
1731654354.9992554,801.5597822867402,811.7636904508602,805.2868201388299,830.2024719354652
1731654355.0031457,805.7691514578956,810.9276341826951,807.2450991134916,829.871713062364
1731654355.0064397,814.1932045245813,808.1352550789251,808.8067626657603,830.6775801530476
1731654355.0070355,819.8534706614864,805.1019969187023,808.6871828743988,830.0408144142816
1731654355.0072165,818.6559361092434,803.4473524430213,806.7549222738755,825.5300076336787
1731654355.008885,812.176023897885,803.6360036518453,803.7649308222066,817.1304174169853
1731654355.0109258,805.183016203536,804.9088587478984,800.5137203205246,807.6725428169856
1731654355.0148158,801.2461358967332,806.1125509673307,797.3250127544399,801.0348762996916
1731654355.0187058,800.7404566922006,806.6139381233585,794.2668742831559,799.495651241411
1731654355.0220346,801.9836539582748,806.5581860868257,791.6853866701196,802.2557240040926
1731654355.022596,803.2584548453952,806.4164247512507,790.3518424568394,806.2051278123403
1731654355.0260816,803.8400027502663,806.373046290705,790.9764961946705,808.2565956466794
1731654355.0264862,803.8616327375514,806.1171934384123,793.5288454875226,807.4204351548094
1731654355.0303762,803.7353472438816,805.1291984173113,797.0402971232741,805.1156806529176
1731654355.0342662,803.7332808958828,803.1032608903652,800.137515510161,803.6690896722163
1731654355.0376296,803.8967182730055,800.1214860241431,801.8829335431351,804.3272516929824
1731654355.0381565,804.1417237967627,796.5347195692312,802.2295364809235,806.3274206365802
1731654355.0420463,804.3829455985592,792.812331411705,801.7888786541093,807.5929824267968
1731654355.0437768,804.5877658556007,789.5726964442027,801.2429038101334,806.3576978413761
1731654355.044947,804.7666420520148,787.67694507083,800.9383305587904,802.4627409602645
1731654355.0459366,804.9420449073691,788.0606236073868,800.8717764197065,797.4583210883288
1731654355.0498269,805.1276013756146,791.1880969994793,800.8925040077294,793.5123061731301
1731654355.0532246,805.3246553914785,796.4821325281484,800.8809457607753,791.8845450625654
1731654355.053717,805.528464857003,802.302404103318,800.8057372648317,792.0130589996743
1731654355.0576067,805.7346693379849,806.6988766268618,800.6930464056843,791.9415458022186
1731654355.0614972,805.9418321798569,808.4982513558297,800.5774187133429,789.9660896047785
1731654355.0638125,806.1507032510624,807.9151544321238,800.4754073962152,786.4186251234802
1731654355.0653872,806.3625275048571,806.2120779715668,800.3854788033939,784.1462129222355
1731654355.0688193,806.5779988740236,804.7259171975222,800.2992724663111,786.9622948539311
1731654355.0692773,806.7971548570325,804.0880315998747,800.2107065462428,796.8376591784978
1731654355.073167,807.0197626723934,804.1616727428337,800.1184680308136,811.8181975184905
1731654355.0770576,807.2456929391672,804.4921697784148,800.024103687575,826.5041208356754
1731654355.0786688,807.4750376009409,804.7396585216001,799.929412974705,835.1916108492164
1731654355.0809476,807.7079718119991,804.8153718375297,799.8351698290005,835.6113962583955
1731654355.0826774,807.9444957679099,804.7904874361699,799.7412141475234,830.4292756709202
1731654355.0844142,808.1842743891559,804.7593373053443,799.647074750917,825.223242666697
1731654355.0848377,808.4268210847988,804.7669008073958,799.5524317656434,824.4469327669061
1731654355.088728,808.6721202118601,804.8087223913743,799.4572216999559,828.5563429755439
1731654355.092618,808.9213392291734,804.8618445499253,799.3615239517225,834.4422914857671
1731654355.096508,809.176733985387,804.9096900018366,799.26542408197,838.4135812785156
1731654355.1000092,809.4398415743443,804.9487783682978,799.1689506148464,838.8834004376713
1731654355.100398,809.7083295325042,804.9834323602306,799.072079816009,836.5842503806919
1731654355.1015427,809.9742983721214,805.0186274376658,798.974765340515,832.7770249400738
1731654355.1042883,810.2284264752104,805.0565106525851,798.8769647433315,827.7573203282286
1731654355.1081784,810.4716771436058,805.0966715922121,798.778660052971,821.21138252214
1731654355.1120684,810.7275794027141,805.1378567951615,798.6798744419372,813.6839918308509
1731654355.113561,811.0379913258657,805.1792333958904,798.5806704879992,807.1589702055448
1731654355.1156042,811.4265919839511,805.2206692943145,798.4811030203699,803.7709580348414
1731654355.1159587,811.8403553287746,805.2624151826465,798.3811243320295,803.7541012181904
1731654355.1198487,812.1248471260935,805.304727824253,798.2805100911063,804.7222520819709
1731654355.120408,812.1140300545937,805.3477036829864,798.1789405848408,803.3190335518057
1731654355.1237388,811.8556415806382,805.3913080876076,798.0763275165298,798.1332559686192
1731654355.1276288,811.8234791250397,805.4354719030011,797.9732390790921,791.4188034289253
1731654355.131199,812.787928925968,805.4801572476115,797.8709364197041,787.8472567796598
1731654355.1315193,815.0712978454158,805.5253657344261,797.7704526447183,790.8852625359526
1731654355.135409,817.4288515445203,805.571110023077,797.6707825527812,799.5635464463608
1731654355.1392732,816.6071167041439,805.6173818081769,797.5676347599814,808.4384161970072
1731654355.1392992,808.8782906857075,805.6641437469218,797.4553064425724,811.1493883893406
1731654355.1431894,793.4427408521669,805.7113599179768,797.3330983385938,805.0156525320542
1731654355.1467938,775.0117904986424,805.7590545302236,797.2129692173878,793.1261133860585
1731654355.1470797,762.1684214611939,805.8073496527724,797.1189521787231,782.2857284056906
1731654355.1484528,761.5154439781634,805.856405552015,797.068269673989,778.3932655201226
1731654355.1509695,772.2922455967291,805.9062267969465,797.0373740410907,782.6748441033794
1731654355.1548598,786.5717054026096,805.9564397686773,796.942440685549,791.3237777532722
1731654355.1581385,795.2839983246794,806.0063261327956,796.6823267961162,798.4586924952677
1731654355.1587498,794.9913394698275,806.0554016101158,796.2658985537572,800.0640637130981
1731654355.1623888,789.7016223372401,806.1044211945546,795.9551307689397,796.2107737711177
1731654355.16264,786.4618710702257,806.1559151820555,796.2509711124767,790.3128061611793
1731654355.16653,788.8401457888675,806.2128546104628,797.5772927537379,786.2759434183088
1731654355.1704202,793.9864814845236,806.2749046180784,799.7985857953659,785.7409068134025
1731654355.1743102,795.597137841201,806.3345112571602,802.0374040752389,787.379255909015
1731654355.177004,789.9384122967813,806.3782853286723,803.1518201278914,788.5615357069312
1731654355.1779838,779.6107425605509,806.3986857874035,802.6119260703443,787.8872286277434
1731654355.1782002,771.8761365027785,806.4126432337886,801.0328715660096,786.4583135684495
1731654355.1820903,773.0696914177951,806.4691397297464,799.8575293140788,786.872312207497
1731654355.1833446,783.8289371789091,806.6197159095767,800.3877342647447,790.8132536223259
1731654355.1859806,798.9699396677853,806.8444917490276,802.8570395705996,797.2947820501573
1731654355.1898706,811.6922677736055,806.9788196281942,806.1699907352235,803.1086855643409
1731654355.1935785,818.1894829161452,806.7375365397342,808.4722282309095,805.2214831495935
1731654355.1937606,819.0319063094499,805.8987402577022,808.223032177017,803.1837935866729
1731654355.195869,817.1958398839962,804.5389523409265,805.1582151537818,799.5016244517515
1731654355.197651,815.3430345188715,803.0702638606139,800.5531970819465,797.5605620968728
1731654355.2015407,814.5349272734105,801.9766866492729,796.5552310131956,798.7616463118237
1731654355.205431,814.5462404463327,801.4808554585957,794.9400322563631,801.2474506030674
1731654355.2091734,814.7603007201669,801.4679228177541,796.0997598458033,801.3237056212093
1731654355.2093213,814.7842996298846,801.7254749605406,798.9681177327576,796.4878098460812
1731654355.2132113,814.5692771780522,802.2460533354114,801.9066591387569,787.6925130012578
1731654355.2147343,814.2453529855472,803.2849848334622,803.84107454435,779.097320170508
1731654355.217101,813.938524238526,805.0903577112149,804.787841594948,775.4877247910653
1731654355.2182367,813.6943386016511,807.5300156884134,805.4722202594855,779.225871604323
1731654355.2209916,813.4953026840091,809.9736266547054,806.4875032953577,788.8468736629212
1731654355.2247684,813.3077376183654,811.605937388106,807.7375120236295,800.1737955601467
1731654355.2248816,813.1120260818096,811.9728094390013,808.5624437917719,809.0259662394948
1731654355.2287717,812.9068246478655,811.3208858938088,808.3482602045934,813.5125339469904
1731654355.2326615,812.699454515699,810.4288758560778,807.0767945078618,814.3438960426374
1731654355.2335997,812.4963556457462,810.0437101183504,805.3958684187832,813.2473540431158
1731654355.236552,812.2995333794016,810.3594931413661,804.1872475622622,811.0925200542596
1731654355.2403634,812.1078027792187,810.9379546363382,803.9532396098979,807.4209125925145
1731654355.240442,811.9193195740588,811.126610370795,804.4391757141857,801.6897324521766
1731654355.244332,811.7330823460738,810.6590996312143,804.7636423049522,794.9310123050078
1731654355.2482224,811.549048779284,809.9664695661903,804.029010077388,790.0839258271192
1731654355.2521124,811.3675747791706,809.900612985004,802.0544501185977,790.3501431217106
1731654355.2524648,811.1889085170059,811.007692157965,799.70605584664,796.6688995652288
1731654355.2531283,811.0130362651605,812.901391741138,798.4848503247775,806.3786287984612
1731654355.255958,810.8398087737919,814.2983561262489,799.5500387593429,814.4307328919523
1731654355.2560024,810.6691430711383,813.79198347653,802.8573454467826,816.5523382200255
1731654355.2598925,810.5011171276618,810.8262192110539,807.115346083117,812.0576944331174
1731654355.2637827,810.3358554767965,806.1333696416848,810.6491771378992,804.1080340718472
1731654355.2676728,810.1732333113181,801.3091467678208,812.4720154344661,797.239851569263
1731654355.27133,810.0126235303322,797.8553897756879,812.6981234674344,794.2565172567272
1731654355.271553,809.8530801720204,796.3812499806793,812.1117708609763,795.0041107708645
1731654355.2715628,809.6942302274888,796.4757397900551,811.4603669130207,797.6860238336748
1731654355.275453,809.5374981820775,797.2256745035664,811.0741258479953,801.0400605046835
1731654355.2793431,809.3863266433511,797.8828091085027,810.91895696679,805.1821641096677
1731654355.2832332,809.2437504607134,798.1818357607244,810.8324239312561,810.5629827252569
1731654355.2871232,809.1073472271621,798.2281770406473,810.7006780394589,816.4527831641939
1731654355.287148,808.9654258337988,798.2235418567108,810.5026272075855,820.7110952611239
1731654355.2880204,808.8016345143405,798.2858990625838,810.2704687114787,821.194334808827
1731654355.2901957,808.6124571454951,798.4238033597159,810.039267388411,817.5452005895829
1731654355.2910137,808.4292617594793,798.5935245850437,809.8234390024654,811.7488627883408
1731654355.2949035,808.3188955924711,798.7562072517871,809.6195273037697,806.8867716289031
1731654355.2987936,808.3335255960168,798.8993720663726,809.4185590024127,805.0096641450865
1731654355.3026838,808.415381679459,799.0296702817199,809.2147995059009,805.8043997906009
1731654355.302743,808.335262914006,799.1578138219405,809.0074919988042,807.1355430664461
1731654355.306574,807.7996306570649,799.289560037849,808.7984944029598,807.017240095361
1731654355.3090606,806.7962228752352,799.4249323991272,808.5896297789749,805.3654648367848
1731654355.310464,805.9982656822924,799.5614682810365,808.3815690355865,804.0861357083361
1731654355.3143542,806.7361382972176,799.6971684237905,808.1740701682951,805.520718192011
1731654355.3182442,810.0614964616086,799.8314752953695,807.9666509339504,810.6403400980536
1731654355.3183377,815.2376494227271,799.9647930001072,807.7590277540794,818.4125191207987
1731654355.3221345,819.2789263753936,800.0976803760116,807.5511806910595,826.5918548754858
1731654355.3229125,819.0195449663843,800.2304078038983,807.3432180413117,833.0549719582671
1731654355.3260243,814.3876078716111,800.3629470847958,807.1352393172898,836.6549088140257
1731654355.327926,809.1388610585607,800.4951534471459,806.9272808013171,837.2182196507578
1731654355.3299146,807.3656190221114,800.6269162201519,806.7193264191104,834.9937874018224
1731654355.3338046,808.9063754921123,800.7582023342126,806.5113375132341,830.1647854735451
1731654355.3339326,808.5570343464807,800.8890278593218,806.3032774313697,822.932361623634
1731654355.3376946,800.5381992844812,801.0194177868084,806.0951339848768,814.1920241155211
1731654355.3415847,784.4855796992889,801.1493855152121,805.8869436059387,806.1356003277485
1731654355.345475,767.3629407213868,801.2789297005157,805.6787963500994,801.8392354661263
1731654355.3467913,759.04417072873,801.4080340660702,805.470781846225,803.5962405376611
1731654355.349365,764.8939223317717,801.536665617108,805.2628654673184,811.0282169426026
1731654355.3495276,781.4208857155768,801.6647827569311,805.0547764526408,820.6107075321452
1731654355.353255,798.5957439087483,801.7923672814345,804.8460865922737,827.3761142113955
1731654355.3571453,807.0186881825313,801.9194708626895,804.6366204412144,827.8340294042429
1731654355.3578043,804.3586952063343,802.046226624839,804.4270425399571,822.0880039492104
1731654355.361035,796.231106737268,802.1727595018738,804.2190033277403,813.6521545254972
1731654355.3649254,791.099479893343,802.298989316075,804.0140457460461,807.1072080860694
1731654355.3651223,793.3626519601869,802.4244702053295,803.8112172783628,805.1814912769041
1731654355.3656564,800.0645992395886,802.5485486840257,803.6051407271864,807.1519093792949
1731654355.3688157,803.7363277493541,802.6710338975234,803.3879552010561,809.6009718517182
1731654355.3727057,798.9861307634201,802.793085399367,803.157434905442,809.0937227036752
1731654355.3765955,787.3831106441319,802.9173162902629,802.9276635190566,804.9935221139476
1731654355.3804858,776.4845919462122,803.0459205172646,802.7300903097711,800.2726745851658
1731654355.3807173,773.6998520265332,803.1769247752709,802.590530127366,799.3940878277432
1731654355.384376,780.1156269520534,803.3015234451112,802.4831890708996,804.6296930323706
1731654355.3845215,789.5487184248283,803.4078002049915,802.2967128266196,813.7502754780845
1731654355.388266,793.6865978893056,803.4938760506343,801.8733796659566,821.2309882680808
1731654355.392156,789.0137084207848,803.5838062222739,801.1486278579445,822.2858153128445
1731654355.3926964,779.7326112114592,803.7265517134807,800.3034784012431,816.524473219679
1731654355.3960464,774.2554393994491,803.9564174219773,799.7546279101468,808.1567998729245
1731654355.3963122,778.1528743847407,804.2193495547664,799.9084037247233,802.5201456063552
1731654355.3999364,789.3396678662363,804.3207845050124,800.8393735192335,801.8469082569982
1731654355.4033873,799.4786731848629,803.9805,802.1511092870155,803.8394959034013
1731654355.4038265,800.5687311956906,803.018739182457,803.1301785623551,804.1704439081128
1731654355.4077168,791.4274906057889,801.559202177617,803.0924689683989,800.6131588980008
1731654355.4116068,778.7513921700058,800.0658116533697,801.718231718745,795.1335652659773
1731654355.4119072,771.8124374302784,799.1455311294598,799.2000219682973,792.1424246161617
1731654355.4154968,775.1290170849758,799.2505847949199,796.1444160506688,794.5379408415232
1731654355.4193869,785.1520494842565,800.4930828317922,793.3123161684381,801.0762739896805
1731654355.4222522,793.6072512067402,802.667537512515,791.3571156805084,807.3273851700445
1731654355.4232771,794.5418795961085,805.390834209215,790.6671510682274,809.2602338549002
1731654355.4271672,789.1372889576455,808.2081452435863,791.3061762855527,806.2892301587531
1731654355.427502,784.3941900919415,810.6296654975039,793.001475049218,801.2813817819244
1731654355.4275882,786.9623520503096,812.1995808936734,795.1872383105649,797.7875443877135
1731654355.4310572,797.3117115720987,812.6585229127145,797.1656279162846,797.0758848456173
1731654355.4349475,809.0432418371555,812.0689130219216,798.3837247103106,797.4719274134497
1731654355.4388375,813.8994703882377,810.7024931520956,798.6755151706676,796.3188593623495
1731654355.4411175,808.3863490663524,808.7275643834816,798.269289805815,792.6010821599776
1731654355.4427276,796.5655416403783,806.0505872914762,797.5364698678858,787.8562201552411
1731654355.4430969,786.6873199945862,802.6073701955513,796.7135325915146,784.658252001334
1731654355.4466176,784.4694090550119,798.888248036289,795.8627854336647,784.1368444269924
1731654355.450508,788.6845506454224,796.0674011834175,795.0705389520208,784.8140400091783
1731654355.454398,792.7502907990145,795.3725590571748,794.6086278752481,783.8720617795963
1731654355.458288,790.8591516740634,797.1162924795717,794.8323225189959,779.868816571398
1731654355.4586918,783.3578932975292,800.2761282662839,795.8923463499063,774.6130568198522
1731654355.4599829,776.8435165894604,803.0932082079045,797.5385792775528,772.4226626246486
1731654355.4621782,778.9180740910408,804.2466833045605,799.1882680442474,776.9691201198796
1731654355.4624803,791.8508513130957,803.660474342822,800.1899510212519,787.9360738407315
1731654355.4660685,810.200734318572,802.3522421300744,800.1025712096414,800.2290455203344
1731654355.4699583,824.3725946319727,801.5396664522506,798.8762733267872,806.8486971407328
1731654355.4738483,827.5089180081914,801.7433882110248,796.9147061050229,803.7436268128633
1731654355.4742868,820.4342566420324,802.5092295191026,795.0014005763321,793.1053458450648
1731654355.4777386,810.722326640488,802.8360186119786,794.040326035316,782.3591540605029
1731654355.478848,806.5352380686976,801.9165162991358,794.6290108335988,779.2282002058316
1731654355.481629,810.1471701382642,799.6806137972353,796.6667170410514,786.3422353860356
1731654355.4855187,816.4145439815695,796.8490104269607,799.3120470045084,799.376551572292
1731654355.489409,817.4150264965684,794.5449857897302,801.4350976331098,810.1018815265691
1731654355.4898815,809.3510508712577,793.7471070882632,802.3191652060574,812.0330115667339
1731654355.493299,795.9558935879079,794.87930542585,802.1058103253159,804.5336256438627
1731654355.497189,785.6538564765099,797.6751445892077,801.6297404043611,792.6467848427645
1731654355.4973722,784.9984870957081,801.2938590960032,801.7548111384133,783.2461987462173
1731654355.497713,793.901773914712,804.6258616630711,802.7140645474594,780.5959824560781
1731654355.501079,806.3784227687288,806.732769819798,803.9693718211623,784.3383157597123
1731654355.5049694,815.6332279650023,807.2841685489343,804.7261337759534,790.8066294535032
1731654355.5054765,818.7526378261775,806.7263788464714,804.716142701412,796.2376792541835
1731654355.5088594,817.3324341321313,805.9733175624737,804.5813351292377,799.4459588119911
1731654355.5127494,814.6983558215998,805.7427999130464,805.4420117667264,802.179945582784
1731654355.516579,813.0775758100864,806.0244629856619,807.913717037433,807.1035314839135
1731654355.5166397,812.8267352378656,806.1617191535174,811.3996729153474,815.0670808590257
1731654355.5205295,813.2528054210409,805.549242032844,814.3594191663414,823.9092985316307
1731654355.5210714,813.6371820893633,804.3637720878642,815.4387337294738,829.8825326595678
1731654355.5244198,813.696852250102,803.6290267447475,814.5355478547186,830.6139948170637
1731654355.52831,813.512070613553,804.4637908962615,812.8633351982604,827.092348100513
1731654355.5322,813.2688207457037,807.1155646617398,811.9427282027175,822.8932200068489
1731654355.5322642,813.0822277248441,810.6126451798186,812.4171636519332,821.232843501751
1731654355.5354438,812.9649870789553,813.3347562530124,813.7267662610883,822.3742840875982
1731654355.53609,812.8778141508179,814.024601546314,814.8498746471973,823.659253647402
1731654355.5366664,812.7836132447128,812.4614626525913,815.3235385105094,822.196601852364
1731654355.5399802,812.6693949685156,809.3933904933749,815.5283722390544,817.9080298329693
1731654355.5438704,812.5406347019974,805.9516127426258,815.980737350375,814.1862303927879
1731654355.5477605,812.407309668271,803.0888241941262,816.4014149606774,815.3227164225424
1731654355.5516503,812.2750833611775,801.3912807320279,815.6227800922952,822.6462015517907
1731654355.552261,812.1442113448841,801.1792491255736,812.6051938344073,832.6576786149107
1731654355.5543091,812.0124514615104,802.5786229823276,807.6719731864317,839.070748164559
1731654355.5555408,811.8778787257284,805.412574958995,802.7100009641756,837.508165696438
1731654355.5594308,811.7398995169983,809.0792351121389,799.9699208889969,829.2044956532973
1731654355.5633209,811.5988519874817,812.6551067559881,800.4255690369978,820.5212674391306
1731654355.567156,811.4552391176544,815.2238422226618,803.110816061488,818.2613423011386
1731654355.567211,811.3092797486853,816.1963294864859,805.9785725634412,824.2266154852097
1731654355.567856,811.1608923131723,815.4398753084752,807.4806334393538,833.3268316661658
1731654355.5711012,811.0099114917514,813.2567073583541,807.530498738269,836.9520203761895
1731654355.5731745,810.8563024321681,810.3267197319971,807.1924897776737,829.2400753288174
1731654355.5749912,810.7002159688401,807.5834502589306,807.5677711083457,811.5412194555004
1731654355.5788813,810.5418195020055,805.8931237725205,808.8734682857367,791.6869329114954
1731654355.5827715,810.3809656500918,805.586114271771,810.3348979914332,778.6372935719602
1731654355.583451,810.2169597341199,806.1880073669267,810.7786190819706,776.6014480341074
1731654355.5866616,810.0488419046796,806.6970369994016,809.393056171934,782.9927081945758
1731654355.5905516,809.8764159039266,806.3061695271557,806.1855136510638,791.3909476983245
1731654355.5920396,809.7015096503841,804.9837144725402,801.9556376332207,796.6982145883355
1731654355.594442,809.5279522674889,803.3933482339688,797.8742526905401,798.2043182025079
1731654355.598332,809.358610201962,802.2731588837091,794.9264244560727,798.4468418796516
1731654355.599046,809.1898952951249,801.8995925118061,793.5166933155474,799.5194196482789
1731654355.6020482,809.0083742132728,802.059988539929,793.4063307160392,800.5153584656293
1731654355.602222,808.7971929082986,802.380686631566,793.9327337879969,798.4355895342346
1731654355.606112,808.5559954947778,802.6177535253659,794.3297750595855,791.549512460763
1731654355.6100025,808.3232839951224,802.7242054989492,794.0083011236301,781.9394001374513
1731654355.6109047,808.1719592257516,802.7634217213437,792.7592231498967,774.7276453268707
1731654355.6138923,808.1489679654101,802.8054327507504,790.8684242978702,774.4844908298621
1731654355.6146407,808.172702982593,802.8789875634055,789.0865200313372,781.83418634735
1731654355.6177824,807.9814369543373,802.9770049858224,788.3849620996283,793.1098004047803
1731654355.6216726,807.2759862713639,803.0813890661772,789.5210306773163,803.2427571040232
1731654355.625563,806.1085187671467,803.180604977004,792.5899782949994,809.3212746938244
1731654355.6294527,805.2838953587654,803.2731426770462,796.8409997049965,811.8810274953252
1731654355.6297705,806.222368698922,803.3627445566427,800.9466234507988,813.2401090405294
1731654355.6302357,809.8167688376718,803.453072992275,803.6369831838566,814.8390583469991
1731654355.6333427,814.759490406973,803.5454683786027,804.3261881797002,816.1225179689594
1731654355.63694,817.1940582548204,803.6394361530207,803.3175565554716,815.6952884138747
1731654355.637233,813.3085699244505,803.7340024742048,801.4590437204821,813.2634722171375
1731654355.6411233,803.3615834171399,803.8285962996949,799.5328000874176,810.322491858403
1731654355.645013,792.8447866219641,803.9231768794527,797.860413527091,808.9432883217168
1731654355.6458306,788.5338696539199,804.0179572248563,796.3941410472138,809.8398314442264
1731654355.6486354,792.5514753591841,804.1131263471444,795.1186621412983,811.531820733174
1731654355.6489034,800.1094213577057,804.2087439129955,794.3290182112469,811.4515562382695
1731654355.6527934,803.4365425345047,804.3047745280536,794.5233821729165,808.201821288544
1731654355.6566834,798.6858378559933,804.401161467838,796.0462047415782,803.1538081148748
1731654355.6605735,789.7009164615966,804.4978736065456,798.8111603277731,799.9353177169917
1731654355.6614256,785.0665507908044,804.594913854711,802.2708553693228,801.8981624127482
1731654355.6644638,790.6778519557082,804.6923048133123,805.5487134278256,809.3126056711533
1731654355.6675007,804.0788971083101,804.7900663238845,807.6204195844359,818.5156991234048
1731654355.6683538,815.5716296818167,804.8881921954951,807.584482472431,823.9768343635685
1731654355.671832,815.5980252252676,804.9866367634385,805.0855574913329,822.0384639907661
1731654355.6722438,802.6298812716162,805.0853323680412,800.7248747998433,813.6383001147589
1731654355.676134,785.0458674293444,805.1842536100114,796.0783799793489,803.8700458673133
1731654355.6770203,775.0619282574281,805.2835021738437,793.0955803498595,798.5082651613425
1731654355.680024,779.2899808476028,805.383320242143,793.1357674925479,799.9317184780133
1731654355.6839142,793.5896796566345,805.4839193264042,796.2568801844218,805.4465058978525
1731654355.686366,806.5863548591084,805.5851276020821,801.2183955917462,809.3320403548099
1731654355.6878045,808.9752930325656,805.6861264988962,806.1310275699436,807.1787232849896
1731654355.6916945,800.7657828800807,805.7857773190264,809.296643682453,799.2860299833931
1731654355.6926153,790.4880859914176,805.8838458306906,809.8324224995818,790.5023051443416
1731654355.6955843,787.4700297889151,805.982536108336,807.9531133784595,786.6137123609067
1731654355.6994746,794.1158855502171,806.08651421137,804.9175179070561,790.133149693367
1731654355.7033648,804.5613740561715,806.1993836835899,802.588303220208,798.7662181169868
1731654355.7052312,810.1536093744463,806.3170284443162,802.5979444526791,807.5182178457792
1731654355.706724,806.6020688872006,806.4233413569639,805.4138043469219,812.4165616400506
1731654355.707255,796.9705895041366,806.497701569179,809.8888143285766,812.7879456446295
1731654355.7082102,788.6637219033387,806.538882407322,813.7569622060518,810.6359415082978
1731654355.7111447,787.3625316033932,806.5923273528647,814.9203958773664,808.2100064626031
1731654355.7150352,792.8562353051204,806.7452928446188,812.7302884853075,806.106392463447
1731654355.7189252,799.8734233810667,807.053313980446,808.3810464186622,803.4033815936447
1731654355.7228153,802.9703461891855,807.4107749923163,804.1565454792003,799.3894081935048
1731654355.7238052,801.3121772897591,807.4703227476836,802.0781673433975,795.0653330755193
1731654355.7240963,799.2969114886896,806.7645592300443,802.8430868630132,792.8553170121937
1731654355.7267053,802.4648263380068,805.0565844266494,805.635410117825,794.6016171589582
1731654355.7305956,812.1948226974539,802.658947768102,808.8004444162721,799.5780688456658
1731654355.7344856,823.8062127671951,800.3463703181807,810.8995245936618,804.4492925057859
1731654355.7383757,829.8153394204846,798.8451337950653,811.4885449285875,805.5091772843359
1731654355.7394,825.7298594646636,798.3652830625884,811.1475744652313,801.4763291668913
1731654355.7416158,813.674258093464,798.5939756161226,810.7933503847054,794.510575950921
1731654355.742266,800.9734279438403,799.0528789945931,810.8387922588911,788.5953808265227
1731654355.742962,794.842299592378,799.426730854234,810.8829840208272,786.6700638779116
1731654355.746156,797.2535932269217,799.6443379032647,810.1656520903388,788.8451570413414
1731654355.750046,803.8005013796513,799.7764155843663,808.3687950917632,792.9315683857575
1731654355.753936,807.3246656325371,799.9080550423138,806.0717333069733,796.510810023413
1731654355.7549949,803.5034769492743,800.0765645044403,804.4892832700707,798.6701607705071
1731654355.7578263,794.0801109559504,800.275141514403,804.7082033594097,800.089737786948
1731654355.7617164,785.2103248271483,800.4821863620479,806.9641852585733,801.6818521103204
1731654355.761827,782.289837412259,800.6832037408731,810.3963593886475,803.1420759565418
1731654355.7656064,785.5534136648165,800.8757957673263,813.402206342516,802.7615855860198
1731654355.769497,790.1475461443085,801.0642551153974,814.4281093613259,798.7601512402456
1731654355.7705898,790.597848680542,801.2530624058965,812.8136584250834,791.0596778645372
1731654355.7733867,785.8085895522188,801.4439743461784,809.2051320328567,781.9179495961082
1731654355.776508,780.250672607455,801.636474236623,805.2204416537958,774.727838572015
1731654355.7772768,780.2454415747427,801.8293860537606,802.509266854738,771.9011027983228
1731654355.7806923,788.4317937202992,802.0219801152682,801.8057261445518,773.6120479260421
1731654355.781167,801.0945582817118,802.2141694464883,802.6154279026241,778.3830812794843
1731654355.7850573,810.7371327406752,802.4061927484136,803.7289457067676,784.7839698431419
1731654355.7861848,811.9569002927695,802.598274819767,804.1518267998376,792.576050712837
1731654355.788947,805.8242323716145,802.7904892121486,803.756787651885,802.3294473101565
1731654355.7928371,799.0091073097253,802.982793075234,803.2029105220233,814.042766553533
1731654355.7967274,798.1880721631186,803.1751138062991,803.2347459495503,826.097111151267
1731654355.7995574,804.3269239919824,803.3674043006674,803.9505445551481,835.4474785006764
1731654355.8006177,811.7344940749716,803.5596520910309,804.6619886026699,838.9974232951114
1731654355.8017795,812.8606287603048,803.7518654269635,804.5016413107402,835.406005334028
1731654355.8045075,804.9063032507945,803.9440583349885,803.2858067852954,826.2780333664209
1731654355.8083978,792.6537662939867,804.1362391962891,801.8460201943675,815.7839882828681
1731654355.8113997,785.0158114543116,804.3283974516298,801.4359897445561,808.5221781659775
1731654355.8122878,788.050562146069,804.5204906218878,802.6373141004445,806.7635817792395
1731654355.8161778,800.1306981144762,804.7124505983002,804.695231872431,809.0528286159143
1731654355.8173745,813.1581036365549,804.9042316553385,805.9066285669326,811.405855323657
1731654355.8184228,818.790006836057,805.095890742091,804.8093900260328,810.3839119809446
1731654355.820068,814.6830433484815,805.2876275911849,801.2575744719734,805.7764821625774
1731654355.8239582,805.8671712228619,805.4796720475888,796.5603441268936,800.8340815977853
1731654355.8278482,800.323152473938,805.671978329146,792.5952624971945,799.7958641316693
1731654355.8317382,802.4716210486953,805.8639138543374,790.5763843734717,804.4777476538836
1731654355.8329694,809.879780452462,806.0543878262042,790.3820886149626,812.4554221605684
1731654355.8356285,815.7375154422068,806.2428163569487,790.8795477337463,818.3172817934249
1731654355.837288,814.8345355580701,806.4306311366103,790.9133945066436,817.2667277746272
1731654355.8395183,807.9449284081306,806.6218597140813,790.1784925896685,808.5703102636204
1731654355.8434086,801.0167866218703,806.8207025891395,789.3897806968425,796.3225815779884
1731654355.8462918,799.987107047323,807.0256464218508,789.7450081446585,786.8509227530506
1731654355.8472986,805.6445640261929,807.2240791591757,792.1260074053044,784.5378087613261
1731654355.8485644,812.8484610067072,807.3959106842462,796.5263381321263,789.0791059234739
1731654355.851189,814.7847558819767,807.5329120630948,801.9617168325072,796.194433624959
1731654355.8550787,808.7689821302134,807.6666043173606,806.8671912615663,801.1919649065111
1731654355.8561532,798.7569238537933,807.8757822866904,809.7958533720099,802.556568901413
1731654355.858969,792.3590066330129,808.2366013664063,810.0850892331084,802.7321711217257
1731654355.8628592,794.7225953062323,808.7143002682404,808.1231440772815,805.5980322239833
1731654355.864159,804.3599640979259,809.0848670682705,805.0588440260595,812.8736696865401
1731654355.8667493,814.4482928123881,809.0422645748681,802.1694146790552,822.4972761231069
1731654355.870639,818.5107151177523,808.5231214208242,800.3115470709416,830.2453066745035
1731654355.8745296,815.6505185427238,807.9559500601739,799.7225499792387,833.0849147819442
1731654355.8750186,810.9080523186014,808.0209278620166,800.114598985926,831.3725941930767
1731654355.8784196,810.4915064395337,808.9551502626739,800.8854282507377,828.1391014804639
1731654355.879754,815.9820626741505,810.0673475869992,801.3965874056727,826.2529312748522
1731654355.8811836,822.4701573968955,810.1172824847564,801.3289249436539,825.9881164454202
1731654355.8823097,822.3187417331666,808.3987146274931,800.9427911854877,825.0178803825047
1731654355.8861997,811.6079909001315,805.5397820660368,800.9309238393381,820.6910971874504
1731654355.89009,794.0343987153424,803.1379080048248,801.8111981073581,812.5587975627064
1731654355.893884,778.9346726496851,802.412242506283,803.3185148562283,803.0443907336315
1731654355.89398,774.7181956731167,803.0734501765836,804.4315150114287,795.7958376400277
1731654355.895349,782.6953290605296,803.5121382137528,804.1745874896428,793.1410119981434
1731654355.89787,796.1151000898291,802.2098593352288,802.5657049299439,794.6738974325015
1731654355.9017603,805.2363872110715,799.1217645592702,800.8182884415912,797.9630898264876
1731654355.9056504,804.5510317317392,795.7939790202483,800.4969372588862,800.6302917724158
1731654355.9095404,796.5869224886145,794.1377225307833,802.2691323391541,802.0206626513113
1731654355.9109435,789.4174027345463,794.95972281561,805.295284846115,803.1713496853332
1731654355.9127493,789.9404626361473,797.4706351093837,807.7694725369253,805.299167901715
1731654355.9134305,798.2565708132345,800.0596566128663,808.1638525276961,808.2446319550454
1731654355.9160757,807.5831804998262,801.5687938428503,806.2012119584663,810.2459736599766
1731654355.9173207,809.8383624857175,802.0081832816861,802.8795843682149,809.2488679686084
1731654355.9212108,802.5181492100239,802.2380907554174,799.6662353807893,804.7008073888376
1731654355.9251008,791.2166696726816,803.0287639871482,797.5855658333526,798.372639724888
1731654355.9265387,785.3891722859634,804.3722318974236,796.8812149638296,793.4479942742596
1731654355.9289913,790.5421968672625,805.6123901505891,797.3280398283025,792.4280456646705
1731654355.9316144,803.3744712616951,806.1710329602765,798.6841505615645,795.3732770841946
1731654355.932881,814.2372222740081,806.1039141347767,800.7684797644849,799.8596210120356
1731654355.9367712,815.0759089206174,805.9427300225576,803.1953806723546,802.7739746151063
1731654355.9406612,806.1404622718461,806.040978989526,805.2608085823455,802.6362804362906
1731654355.9421337,795.7002608670081,806.158922914698,806.3033881530912,800.6732322434145
1731654355.9445517,793.022331026387,805.754858967812,806.2469866026948,799.8097377110583
1731654355.9484415,800.5924085080997,804.6808003149278,805.7112033684808,802.3651915219585
1731654355.9504795,812.0425741987615,803.5267650668609,805.4736047285078,808.2332255761745
1731654355.9509676,817.3725792442925,803.2023685142573,805.7637220641259,814.8970457357487
1731654355.9523315,811.1247657001771,804.1268705525214,806.0836384621074,819.1841220391301
1731654355.9562218,796.9219088912057,805.8029938812622,805.7400098976121,819.3934128887317
1731654355.9577286,784.7457337278726,807.1721697203682,804.5834794795774,816.2865249131295
1731654355.960112,783.1090817429199,807.4102912905478,803.2801387111386,812.3805762258264
1731654355.964002,792.3662536617429,806.475149903679,802.8934866519127,810.1678474055798
1731654355.9678922,804.5164424592439,805.024230927242,804.1294192063054,810.478288481656
1731654355.9693449,809.5924160610774,803.8769150356017,806.7888380351405,811.971200021087
1731654355.9717822,803.3983985315597,803.483466621784,809.7566116408225,812.0036333427515
1731654355.973323,790.4136375449235,803.7602469910813,811.525675818783,808.3144148876504
1731654355.9756722,779.7855664072149,804.3367498853393,810.9989044759506,800.4614520102766
1731654355.9795623,777.9092043746906,804.9481409511129,808.1408773886072,790.0744408684756
1731654355.9834526,783.5759140050778,805.5953327496724,804.0493346721652,779.7971005562741
1731654355.9858596,789.3603559755854,806.3204862312746,800.3306658842781,771.7870136015994
1731654355.9873426,787.9348230035496,806.8670202007729,798.1741222117878,766.9457000815983
1731654355.9882102,778.2569517069044,806.6814861076842,797.7755798333104,765.2871089529664
1731654355.9889183,766.7424864759802,805.3911621931125,798.466457232113,766.7222475541332
1731654355.9912326,762.3858140748241,803.3252445312713,799.3178665285157,771.220637745782
1731654355.995123,769.5413652936971,801.4580406563473,799.6753722583629,778.1577889482737
1731654355.9990127,784.1620691828934,800.6498994536357,799.2896311558931,785.7319995717147
1731654356.002903,796.7951126483318,800.825122667487,798.1622958666751,791.4197595348553
1731654356.0045133,800.1503967233673,800.9394839032052,796.4542980394868,793.4077008297445
1731654356.006793,795.0368039005067,799.9044417400522,794.616446549317,791.8721806198037
1731654356.0070755,789.6017260998365,797.6601699958429,793.5330310430734,788.9581946063469
1731654356.0106833,792.3991371845383,795.3457229589878,794.320823716812,787.3268362690645
1731654356.014573,805.0415532704532,794.3322549234559,797.6926348471521,788.2727729629282
1731654356.0184634,820.5244591078311,794.9866123945291,803.2666600900747,790.8010403064263
1731654356.0201082,828.585228289959,796.3214159752737,809.4274769590596,792.4680995851646
1731654356.0207517,823.7835290942988,796.879619912624,814.0400566918339,791.5578135399297
1731654356.0223536,809.9387542219969,796.076480588433,815.6689778940341,788.9963711177484
1731654356.025941,797.4776436693535,794.8144159136572,814.4813240609876,788.2555575016764
1731654356.0262437,795.6851833683618,794.826059387505,812.1335580967277,792.8610153462059
1731654356.0301335,805.7692233287883,797.2905544703086,810.6337261027301,803.2297824599542
1731654356.0340238,820.1540466252059,801.8621240362728,810.9492340462051,815.5410521014896
1731654356.0357027,828.6518375410598,806.8666629788233,812.382598366775,823.9493368943706
1731654356.037914,826.5823730288374,810.4364527019673,813.1974869696984,824.6323471775528
1731654356.041804,818.1437645571249,811.6412102247456,812.0208873068891,818.4602346971622
1731654356.044806,812.2457930297786,810.8063518303226,808.945864878634,810.1251394765
1731654356.045694,814.4710345857294,808.9624005381289,805.5129680615192,804.4814751866245
1731654356.0495844,822.1320936382168,807.0212097789688,803.6270297852091,803.0749619656173
1731654356.051298,826.585710635549,805.3231635796043,804.2392076311264,803.5527498339858
1731654356.0534744,820.6506353486672,803.7492722005858,806.7253975438958,802.2106722718177
1731654356.0556436,804.7757455759814,802.1223436879093,809.341825891209,797.4150877905449
1731654356.0573645,786.9488021997638,800.4968610069907,810.3972637283397,791.0541832148533
1731654356.0612547,776.6959812409148,799.1524917039665,809.3351830806789,786.9219539340165
1731654356.0636714,778.2131174634851,798.3999962527155,807.0126872157731,787.527661705488
1731654356.0651448,787.9924492254221,798.4312110824333,805.0297908805927,792.0902089761937
1731654356.0668929,798.337232832312,799.3316354977283,804.6339889353059,797.3490053781328
1731654356.0690348,803.3395971595296,801.1552001177919,805.9965319422223,800.275784624492
1731654356.0729249,802.2838958061699,803.8610366082997,808.2907609471374,800.1468760860713
1731654356.0768151,798.3675779427945,807.071936555808,810.3305218808836,798.3435478867964
1731654356.0807052,795.0627474324021,809.9123636985494,811.1833405440544,796.6410037617395
1731654356.0824878,793.7637813436106,811.2730783173246,810.4236915679874,795.8836922546444
1731654356.0825365,793.9415202327076,810.503211564243,808.1379005790637,795.9103517155389
1731654356.0845952,794.488997761799,807.9958785024332,804.8861547453389,796.1862548783179
1731654356.0884857,794.7160852803104,805.0318537573943,801.5735213454884,796.3367072749837
1731654356.0905354,794.5344991123474,802.9000602913926,799.0867087047081,796.2855930064742
1731654356.0923755,794.1671002692989,802.0890411763847,797.8447854885195,796.1313635680431
1731654356.0962656,793.830426759408,802.2393902860028,797.6467778861453,795.9856347142629
1731654356.0980823,793.6028052244936,802.6949947905033,797.9484125545773,795.8959029745279
1731654356.1001556,793.454221179698,803.0152383367724,798.2751882938455,795.8524939965656
1731654356.1014018,793.3269178615899,803.1056901128934,798.4304510347752,795.827304589978
1731654356.104046,793.1873947154801,803.0726570955236,798.444040705393,795.8019805239297
1731654356.107936,793.0336081153224,803.0400139212037,798.4193660772573,795.7739397583202
1731654356.111826,792.8784130066877,803.0610471189478,798.4251736746917,795.7491071547779
1731654356.1136775,792.7331369724761,803.1251739046097,798.4718129376258,795.7334762118106
1731654356.1157162,792.6014741356447,803.2009017251285,798.5378893540556,795.7294388113727
1731654356.1196065,792.4816298580291,803.2674117562029,798.6016745043507,795.736457518313
1731654356.1202672,792.3706716551395,803.3214823344255,798.6548543480063,795.7531842478443
1731654356.1234963,792.2671097386361,803.3694752206885,798.7000695622127,795.7788767296925
1731654356.1254275,792.1711041471917,803.4179049519959,798.7430177015336,795.813628023732
1731654356.1273863,792.0835222527758,803.4692905170763,798.7871499818206,795.857942376729
1731654356.1292725,792.0050909852994,803.5228691128494,798.8327960628849,795.9122950722908
1731654356.1312766,791.9361194508726,803.5769536140982,798.8787387150144,795.9769603612001
1731654356.1351666,791.876640001183,803.630523430423,798.9238575143397,796.0520620778198
1731654356.1390567,791.8266409615769,803.6834917526107,798.9677750506328,796.1376882775218
1731654356.1391325,791.7861932374186,803.7362368809994,799.0106704311385,796.2339616627606
1731654356.142947,791.7554520600331,803.789110215339,799.0528512887304,796.341046868457
1731654356.1448674,791.7346038718671,803.8422419092669,799.0944896410479,796.4591259336407
1731654356.146837,791.7238228690625,803.8955960864106,799.1355939047854,796.5883753988231
1731654356.150727,791.7232590947124,803.9490985280445,799.1761006587352,796.7289585397506
1731654356.1546173,791.7330477910374,804.0027147368231,799.2159603747597,796.8810291492732
1731654356.1579976,791.7533218677136,804.0564567185096,799.2551649221401,797.0447378678148
1731654356.158507,791.7842168952285,804.1103549829187,799.2937293825911,797.2202350033522
1731654356.160319,791.8258681695411,804.1644359966004,799.3316638915013,797.4076688700465
1731654356.160462,791.8784055018195,804.2187212815656,799.3689636994976,797.6071823706636
1731654356.1623974,791.9419525893519,804.2732393772402,799.4056264302799,797.8189120343148
1731654356.1662874,792.0166345956179,804.3280293293687,799.4416834547837,798.0429926266702
1731654356.1701777,792.1025900140643,804.3831191536971,799.4772118660445,798.2795659903768
1731654356.1740675,792.1999735398705,804.4384862147966,799.512288920102,798.5287857824991
1731654356.176057,792.3089339967474,804.494040331084,799.5468857328627,798.7908056532647
1731654356.176863,792.4295670670623,804.5496863100211,799.5807775729348,799.0657463328408
1731654356.1779578,792.5618785497185,804.6054788770925,799.6136229392719,799.3536616251653
1731654356.181848,792.7058254394813,804.6617652731262,799.6453187222747,799.654551171583
1731654356.185738,792.8614779797085,804.7190908390694,799.676480160169,799.9684631937369
1731654356.189628,793.029227219098,804.7776904881371,799.7085131441295,800.2956569249632
1731654356.191652,793.2097964557908,804.8367564556283,799.7426333011326,800.6366675419486
1731654356.1935182,793.4037796198743,804.8942503808928,799.77786105053,800.9920496769996
1731654356.1952114,793.6107499734308,804.9482550662858,799.8095490315336,801.3617458162684
1731654356.195728,793.8286646553466,804.9999432671653,799.8312889836851,801.7444999549643
1731654356.1974084,794.0548229371027,805.0559929237394,799.8419096630224,802.1382287163455
1731654356.2012985,794.2890460221738,805.1262040471869,799.8541486201789,802.5420803575515
1731654356.2051885,794.5374026768267,805.213418221897,799.8946191972994,802.959427375172
1731654356.207247,794.811788613302,805.3001894383386,799.9835952293862,803.3986807598485
1731654356.2090788,795.1204706864291,805.3472905045788,800.097294536831,803.8678527694267
1731654356.2129688,795.4513559108042,805.3219794291286,800.1444788111818,804.3624805181273
1731654356.2145934,795.7626555894813,805.2545754046869,800.0110093125128,804.8556622909881
1731654356.2168589,796.0043243331494,805.2791543451094,799.6996769545534,805.3075048689087
1731654356.220749,796.1799277218713,805.5796786855822,799.4943993690991,805.7060336401175
1731654356.2228415,796.4126187825369,806.19916347999,799.9608063873656,806.1219421249679
1731654356.2246392,796.9247240392738,806.8221750271123,801.6218997652353,806.7162919895839
1731654356.2285292,797.8458917707425,806.8147707474657,804.4437951845218,807.628608689648
1731654356.2301033,798.9008995951534,805.7030516148501,807.5925246943196,808.7526228441259
1731654356.2324193,799.2701538150529,803.782623701662,809.7965805887414,809.5865703761507
1731654356.2334588,798.0511741916753,802.2114034278048,810.108151775359,809.5051883524502
1731654356.2363095,795.4364249225574,802.3235549992887,808.5199421994724,808.6443301819651
1731654356.2384367,793.8116760951493,804.6614887540903,806.044734008841,808.8525813526255
1731654356.2401996,797.1474046446813,808.5011518648555,804.2052076736559,813.3991768748707
1731654356.2440896,807.9363079479608,812.2110538197554,804.1740429365709,824.7415202234413
1731654356.24798,823.852236621938,814.1431863844057,806.02502344629,841.773818995208
1731654356.25187,837.9822038793432,813.4590488942923,808.5921461324998,859.2578376122556
1731654356.252324,843.6442268616405,810.4636160960164,810.1263856319878,870.6221525220849
1731654356.2540317,839.9059130322165,806.379342635661,809.3919078309679,872.2772646578671
1731654356.25576,832.6690539060153,802.7468487287092,806.4659513948326,866.0505684646611
1731654356.25965,830.1165072070647,800.7353987567243,802.6708931978081,857.7605182380169
1731654356.2635405,836.3480095232841,800.665796640053,799.7102584929283,853.036936934026
1731654356.264995,848.4446371674105,801.9771789016185,798.6786928207255,853.6266786896466
1731654356.2674303,859.1053724976289,803.6337429457569,799.633218179053,856.9013811013094
1731654356.2696266,862.4268298868446,804.6727437699951,801.8511182288529,858.6365397725558
1731654356.2711892,858.1426217229837,804.5265109185159,804.3380982857586,856.5844442632523
1731654356.2713203,851.1807348626701,803.0225016401864,806.1351117287101,851.9585980356308
1731654356.2752106,847.2218928674469,800.2913852823398,806.4163692943511,847.8804185580595
1731654356.279101,848.051979496829,796.809958649704,804.686978105996,846.4064728303476
1731654356.2829907,850.5691489356134,793.4874954694054,801.1901194324676,846.8208045013346
1731654356.285221,850.2339798544922,791.4988591221113,797.1712014383578,846.6009471963496
1731654356.2868807,845.9037065420679,791.7768909860697,794.5103164703786,844.0021564722423
1731654356.2900546,841.6195282539138,794.4751327920903,794.6937022882245,839.7811129565057
1731654356.290771,843.4357518119147,798.8265690312236,797.7704018487145,836.5024810700826
1731654356.294661,853.7978198732294,803.517463166109,802.1409212667041,836.2023281435354
1731654356.298551,868.3882781693358,807.2977338525662,805.4520572320937,838.6312223825935
1731654356.2998872,878.4980176348688,809.4344966897511,805.9939596335441,841.574398289855
1731654356.3008163,877.3711698169623,809.8140499794321,803.6205647328603,842.7811660931836
1731654356.3024414,865.5298235976227,808.7632081813149,799.6549399499869,841.7673746783483
1731654356.3063314,850.6652604856595,806.784306211745,796.016009993021,840.0826077476936
1731654356.3089197,841.8638513317259,804.3659457613063,794.2219398868134,839.9207157727869
1731654356.3102214,842.5211748800969,801.9326422256896,794.7933194006549,842.1187289501084
1731654356.3141117,847.6694450513259,799.8915822787105,797.2141398278876,845.0362670556987
1731654356.3164113,848.2022281093798,798.658650763581,800.3395970729856,845.3531185457715
1731654356.3180015,838.8386919038237,798.5574506056184,803.0136607288848,840.5269714142572
1731654356.3218918,823.2195436036659,799.6103191857948,804.5983746471956,831.1728320387311
1731654356.3257818,811.5569133578616,801.384950707403,805.1443545840599,821.2527514109961
1731654356.327785,812.4603943395205,803.0770970010909,805.1246019006646,815.4903958008136
1731654356.329672,825.6541347283571,803.8671302715958,804.9469963504694,815.8577287991208
1731654356.3320062,841.7193190008317,803.3966309097765,804.6300743191849,820.0679570828804
1731654356.333562,849.1931991295971,802.0922444526891,803.9006163577315,823.4897149640303
1731654356.334779,843.3321100922539,801.0799086309878,802.6248146658894,822.9842305177023
1731654356.3374522,829.5713083086953,801.6191551483987,801.1927139722109,819.4692308909104
1731654356.3413424,819.0215862156225,804.3102252142651,800.4816404000268,817.0599007289032
1731654356.3452325,819.6324904354965,808.578837200398,801.3378854665087,819.5088366759522
1731654356.3466504,829.9827006967319,812.8524438450908,803.906356588972,826.8892057204922
1731654356.3476007,840.5302506786995,815.3879696336694,807.3121314920194,835.2017164655791
1731654356.3491223,841.2894135427625,815.2383772336643,810.0067817485567,839.1642202022781
1731654356.3530126,829.8554146314716,812.7500347993742,810.6335520507045,835.9436409639851
1731654356.3569028,813.4169124528382,809.3263343443269,808.8529651936523,826.9989657417071
1731654356.3607929,803.1745828736265,806.6732148989864,805.5509400991838,816.8270325102945
1731654356.363196,805.665164265508,806.0003354066486,802.2956043637016,809.7956373997288
1731654356.364683,817.912027334503,807.5684171664,800.4570138773416,807.5143527202395
1731654356.3655157,830.094208476294,810.7022686090534,800.5748177983802,808.4957338114403
1731654356.3685732,833.3268251869931,814.1576687648106,802.2664791639828,809.9608640772065
1731654356.369671,826.2437785205148,816.6400853052344,804.5820205246378,810.1275718813122
1731654356.3724632,815.3377402894869,817.2842210701439,806.5466062001393,809.2554745231191
1731654356.3763533,809.128450451537,815.951017312435,807.6219680246193,808.9200429273574
1731654356.3787909,811.0522534812528,813.2613072147533,807.8501096892185,810.3622256903323
1731654356.3802433,816.8203652637889,810.3560001550126,807.6291841913394,813.3007852571887
1731654356.3841336,818.3052256396652,808.439683198338,807.3543761954655,816.0622480051929
1731654356.3843808,810.6839922707128,808.2356564944691,807.2111657081206,816.8014106444796
1731654356.3880236,796.8619241311208,809.5670521259691,807.191518910644,814.7723726888431
1731654356.3919137,785.4150245862135,811.3247380154351,807.2133159012847,810.6462057456295
1731654356.3943858,783.6959008063853,811.9685238972726,807.2152295361354,805.7059723643298
1731654356.395804,791.8030589882007,810.3968818498655,807.1836219925208,800.6918905964022
1731654356.399694,802.362104562327,806.6918995128898,807.1340173675877,795.3298017361316
1731654356.4032462,806.2218967145624,802.205612392381,807.0848222672579,788.961235295683
1731654356.403584,799.4199191116829,798.8370629602751,807.0441982324536,781.7384922108271
1731654356.404563,785.9800250533381,797.9237439254416,807.0108102923232,775.3011403200991
1731654356.407474,774.6037494874219,799.4858503798516,806.980078740124,772.1231729439459
1731654356.4099803,772.0574169586301,802.3359731653334,806.9488922063834,773.7057181308845
1731654356.4113643,778.3927779462155,804.9386180656129,806.9167153657154,778.8895198228752
1731654356.4152544,787.5128485464087,806.3480481020381,806.8844553804328,783.8735273296269
1731654356.4191444,792.3738096744111,806.5508242315279,806.8530735243517,784.4639599838699
1731654356.4221113,790.5099495169383,806.1153089529403,806.8229544035585,779.1768695947262
1731654356.423035,785.4116866698196,805.6174460364869,806.7939937966471,770.7034268701268
1731654356.4255755,782.818364827018,805.3220514160444,806.7659392666,764.241019896471
1731654356.4269247,785.3407362200439,805.2095224397034,806.7386269827182,763.7507172079823
1731654356.4308147,790.1916320298941,805.1550509687236,806.7120295342185,769.0940333387758
1731654356.434705,791.8725149403346,805.0681446896341,806.6861984278006,776.3881343214633
1731654356.4385953,787.1179924112884,804.9301003596919,806.6611997903,781.2325950780348
1731654356.439455,777.5315244792565,804.7649117023074,806.6370785988871,782.079871935309
1731654356.4409766,767.8549952303277,804.5999750058118,806.6138352670752,781.015411428476
1731654356.4411705,762.0288995196762,804.4470371638408,806.5914007978422,781.4739783287637
1731654356.442485,760.7969865906133,804.3037731360936,806.5696386026182,784.9407520124031
1731654356.4463751,762.3468138696372,804.1632527273666,806.5484283968767,789.4368401682607
1731654356.4502654,764.4359533352243,804.0208858152301,806.5278399884768,791.0811665702898
1731654356.4541554,765.8508368629014,803.8759449977453,806.5082706512258,787.493927049411
1731654356.4567652,766.5170898164954,803.7298063956833,806.4902948072362,780.2411211668601
1731654356.4580455,766.8764261673458,803.5838792013067,806.4740572339897,774.1886956450955
1731654356.459842,767.3097733797124,803.4386952205149,806.4584832110519,774.0826601944688
1731654356.4619358,767.9316628934216,803.2940658722201,806.4412108876003,780.9655455889333
1731654356.4658258,768.6697274641473,803.1495997231563,806.4203035228288,791.2806636848446
1731654356.4697158,769.4161150541981,803.0050513464898,806.3976146435082,799.4252443596824
1731654356.47236,770.1148949641134,802.8603796449214,806.3811070787111,801.7527679871682
1731654356.473606,770.7672366361933,802.715645392635,806.3813664308,798.8866171476672
1731654356.4743469,771.3979764076425,802.5709048462244,806.3996746169935,794.6613240698885
1731654356.477496,772.0264674582754,802.4261690666449,806.4137813595327,792.8050837491887
1731654356.4787073,772.6574815841963,802.2814159562195,806.3789928680409,794.231607927893
1731654356.4813862,773.2864141093062,802.136613521464,806.2632803610879,797.087211145041
1731654356.4852762,773.9073844998884,801.9917283147123,806.1103965412228,799.1983233554391
1731654356.487955,774.5175194074704,801.8467217710861,806.0760834041691,800.4623572678274
1731654356.4891665,775.1169166408582,801.701554673967,806.3480622720812,802.8496993874611
1731654356.4930563,775.7067729519989,801.5562140862951,806.9089380050787,807.9467991099826
1731654356.4969466,776.2878928705055,801.4107481883402,807.2690389672769,814.3520768177034
1731654356.4975724,776.8602992464367,801.2652603647875,806.4891835122527,817.5530870418395
1731654356.5008366,777.4235712798873,801.1198124859076,803.7572101221715,812.8344960909315
1731654356.50355,777.9772895461335,800.974257491457,799.266098544934,799.0983445916679
1731654356.504727,778.521234684891,800.8281528226082,794.5667827155933,780.496107702736
1731654356.5086167,779.0553165902303,800.6809893885784,791.7925710685491,764.3213894098059
1731654356.509239,779.5793913207898,800.5328222331514,792.2057194799085,756.5161361326511
1731654356.512507,780.0931598354255,800.3849186323985,795.2550246601153,758.0964929557699
1731654356.5163972,780.5962892577229,800.2395040859097,798.9380002962148,765.1283069703554
1731654356.5164378,781.0887499607211,800.0977783040736,801.1860754282591,772.0378916269956
1731654356.5191448,781.5711131122011,799.9567896532875,801.2199888588774,775.4590934420395
1731654356.5202873,782.0443361508662,799.8081950244863,799.9177674578495,775.7283534246365
1731654356.5241773,782.5087010182833,799.6432015157204,799.0333941886779,775.4205982852258
1731654356.5280676,782.962345358614,799.4646834397175,799.9282224320988,776.7041246753425
1731654356.5319576,783.4009846838078,799.2983071447339,802.7165456763861,779.7576838083057
1731654356.5347395,783.8208026040859,799.1849557422612,806.302596758701,783.1035886214244
1731654356.5353029,784.2245036189572,799.1399838660213,809.129124036409,785.0853821144079
1731654356.5358477,784.6259223507614,799.0924538597375,810.0655077878985,785.1516740422522
1731654356.5397377,785.0445745554663,798.8597356392391,808.9082459450274,784.1002288143303
1731654356.543628,785.4847296188173,798.2216342601126,806.2921104243967,783.2794093115182
1731654356.5441308,785.9088930988048,797.082134930423,803.177698057599,783.4105553331009
1731654356.547518,786.236826719542,795.5960573524671,800.311150316723,783.961215588528
1731654356.5503347,786.4053890352728,794.1408204096496,798.0185123039403,783.6712265241741
1731654356.551408,786.4828339149018,793.1605948856068,796.390320185852,781.9113312615597
1731654356.5541682,786.7434882760554,793.0283042772019,795.5505787161431,779.6516983643517
1731654356.5552983,787.5411888814286,794.0179442810169,795.6317807211086,778.9011360776511
1731654356.5591884,788.8969607241454,796.3203929046482,796.4189730325419,780.8023116761339
1731654356.5630784,790.0164938427894,799.9574835330645,797.0811669624862,784.0501929505476
1731654356.5659297,789.3310788837766,804.5763319247574,796.4824609310618,785.3811116273076
1731654356.5669684,785.6517945983569,809.3330710742562,794.0661655682763,782.1766897596807
1731654356.5708587,780.0971844043236,813.10558429251,790.6299695211678,775.1553651702372
1731654356.5730336,776.8927162146892,814.98039052966,788.1631367879613,768.6696495205226
1731654356.5747488,780.984665238629,814.6436448443433,788.6069551954884,767.9216820247874
1731654356.5786388,793.3560755131011,812.3850742142508,792.3936346092536,775.016983445095
1731654356.579023,808.3897926878692,808.8362832510454,797.9553946220018,786.9343495874277
1731654356.5815244,816.7788762074711,804.7821057509959,802.6675572708615,797.14668497778
1731654356.5825293,812.3376786637511,801.1183509589284,804.5232645428314,799.8484668374914
1731654356.586419,797.0099524424236,798.6857369373841,803.2857312325065,793.7480696928785
1731654356.5903091,779.6069746667833,797.8500929916096,800.373495226559,782.7155293562839
1731654356.591899,769.1873851535826,798.1943774449293,797.771548780974,772.9542434482918
1731654356.5941992,768.6157338197886,798.8024774597227,796.8928379255435,768.9250372057759
1731654356.597119,773.568963341864,799.0314579245835,798.0937354923278,771.0005561079367
1731654356.5980897,777.4068159849309,799.0462335116315,800.8560207077252,776.2582092696254
1731654356.6019795,777.322833691122,799.5597280514064,804.2082096750454,781.322585192282
1731654356.6058695,776.4335779806205,801.0543127198944,807.06614032169,784.7972495941953
1731654356.6097598,780.306233701444,803.2830685767019,808.4972062715788,787.5329136305238
1731654356.610764,791.2245514973491,805.4779464116004,808.0146341655812,790.9479341767683
1731654356.6127143,805.2012318429795,806.9285436308874,805.8470877971534,795.1481683393896
1731654356.6136498,814.3184879098494,807.3246103119793,802.9807962645283,798.5526040561393
1731654356.6139147,812.6684075930619,806.6663120202733,800.828076408162,799.3148614648155
1731654356.61754,801.274585523495,805.0450222589061,800.5942276534689,797.2426209929732
1731654356.6214302,787.9610096758967,802.6319121375133,802.6441348206515,794.4300521584036
1731654356.6253202,781.8866369139006,799.8596827254246,806.2529275706253,793.8647546931311
1731654356.6283092,786.7570142867185,797.5093977388252,809.949561705859,797.0541138066353
1731654356.6292102,798.1047766134152,796.4919910524601,812.2906350202319,802.7082297801654
1731654356.6296291,806.9934233555573,797.4092512651849,812.6046438874143,807.720212190945
1731654356.6331005,807.2734799124314,800.1921483468282,811.2657721168666,809.671386323463
1731654356.6369903,800.5128070206042,804.0807559386371,809.3606658300631,808.6700952004617
1731654356.6408806,794.6003074537476,807.9814997191447,807.972864205273,806.9121882322507
1731654356.643904,797.221326925752,810.9850607367679,807.5295467287591,806.4699124588162
1731654356.6447706,809.5233552803736,812.7200365167447,807.6289338474828,807.4576388889069
1731654356.6484945,824.9949150235155,813.3320293101187,807.4600181486435,808.273975154712
1731654356.648661,834.328437733935,813.1508171558253,806.4820133580221,807.5346939466717
1731654356.6488068,832.3745249328639,812.3437671382467,804.8108519673222,805.6777239038221
1731654356.6525507,821.7943644824555,810.8508983982545,803.0347713614427,804.6353593038929
1731654356.656441,810.6757475966754,808.6382945997469,801.7333640264559,805.9407342571186
1731654356.6594987,806.1136362323607,806.0154052179086,801.2204311215646,809.1593644208958
1731654356.660331,808.9293508340342,803.7067333104012,801.679786988893,812.1599833559173
1731654356.6642213,813.7417699716331,802.5857031968418,803.3315750321841,812.9582782547253
1731654356.6673598,814.1552032929784,803.2422559379344,806.2278405238759,811.462128160323
1731654356.668111,808.5372105736182,805.6435137719016,809.8164301696952,809.6301434022249
1731654356.6720014,801.4166937821346,809.0600746857579,812.8669758836905,809.9570374147727
1731654356.675094,799.3601038944978,812.3045559784025,814.09507679599,813.5051817544393
1731654356.6758916,804.9518127742773,814.2181387166745,813.0607370085985,818.9393073510138
1731654356.6797817,814.0966979315822,814.2095509175533,810.5089005590555,823.2070257247815
1731654356.6836717,819.0117115665026,812.542659395181,807.7775048535822,823.3750036026986
1731654356.683699,814.5134264754452,810.1369127869617,805.7821855762984,818.4532703193757
1731654356.6862247,802.4970435091919,807.9491561958503,804.4815343458129,810.1265789700556
1731654356.687562,790.9119738868942,806.3485939082826,803.2413743818981,801.9605727792498
1731654356.6906888,787.850646094956,804.9576569226709,801.6670216392992,797.4650681080932
1731654356.691452,795.2594430396396,803.0914118966007,800.0896019678719,798.050375141508
1731654356.695342,807.2739854275042,800.442549845074,799.2802143452124,802.1229777930288
1731654356.699232,814.7144004389451,797.4579528552246,799.6899381846122,806.0573926467048
1731654356.7031224,812.3362006602856,795.1238426997214,800.9123185101821,806.592491486903
1731654356.7050903,803.0055820202706,794.3598969192918,801.8520066534404,803.0500094295166
1731654356.7062836,795.3155554287417,795.4797876515476,801.4931075216294,797.703960624316
1731654356.7070124,796.5311649361779,798.0420631580064,799.6706663388024,793.9656705517468
1731654356.7109025,806.6335239619578,801.1038395389919,797.2286535360938,793.803052845938
1731654356.7147927,818.309590726408,803.6780969732346,795.4256976798426,796.4544880657377
1731654356.7185907,822.8194229667816,805.1605753364147,795.0567780672275,799.4126108666535
1731654356.7186828,816.9144844523137,805.5598617579512,795.978392670379,800.759821514148
1731654356.7218783,805.262358641826,805.4570164320896,797.3586289677479,800.8451887093164
1731654356.7225728,796.5929593643647,805.70207978108,798.3624983757226,801.890080378356
1731654356.7239556,796.851843200962,806.9309227039396,798.6749711700884,805.8797321592875
1731654356.7264628,804.9600023001848,809.0983796656386,798.4885383123218,812.5940062958543
1731654356.730353,814.5366883263987,811.3409175230106,798.0897122107328,819.5904855237999
1731654356.7342432,819.9268339692567,812.4193221175534,797.5184480047926,824.2834783094886
1731654356.7374735,821.1732018924866,811.6053086036006,796.6611140412828,826.2833838297497
1731654356.7381332,823.4343207250489,809.3872608534978,795.6651112718404,827.7037442282997
1731654356.7420237,831.2716170598571,807.3053690460454,795.1688474446282,830.8791112936765
1731654356.7428207,842.9747184404185,806.847760632628,795.9567403028078,835.4477423868686
1731654356.7459135,850.325105084636,808.202911893438,798.2336501051986,837.6513452816351
1731654356.7498035,844.5860613322674,809.9403907374005,801.1914240897237,832.9639650560091
1731654356.7530684,824.08743629476,810.0088748529802,803.3724381465664,820.2211852588597
1731654356.7534826,797.1786205608184,807.3305067496958,803.6314885706148,803.852303326983
1731654356.7536936,777.7795854378493,802.7154153953057,801.9346606651362,792.0172708037188
1731654356.757584,776.4260139837759,798.3379497777267,799.3516369250225,791.5446158729623
1731654356.761474,793.218699812392,796.182084619915,797.2708039646491,803.1971797909983
1731654356.761686,817.8268356886383,796.6846635498864,796.4740136908913,820.8643410711828
1731654356.765364,836.5678735082063,798.5946812096879,796.7486936859543,835.5216139905791
1731654356.7686632,841.3967992578414,800.0431771968315,797.2323004468624,841.1770737832666
1731654356.7692542,834.3249353646379,799.8882428236085,797.1406613464336,838.427353325006
1731654356.7731442,824.3754386150426,798.3217498402457,796.3372459919616,833.1021775725129
1731654356.7770343,819.8778534906492,796.4542962992571,795.4001370912825,831.337045291645
1731654356.7805514,822.2645062748371,795.4123658302827,795.2110500875434,835.0710054695998
1731654356.7809246,826.0030176907612,795.7043459180153,796.3799016375483,841.275498789048
1731654356.784258,824.2362035228091,797.1817278799626,798.8804163403379,844.975160928389
1731654356.7848146,815.2052383983888,799.3586396025903,802.081955081928,843.2043672196307
1731654356.7883744,804.1201324909398,801.6880583106158,805.0664574541154,836.7682819235297
1731654356.7887046,799.0118287585226,803.6609047644165,806.9729584129257,828.9064113772762
1731654356.792595,804.0849791966627,804.8825709260335,807.2277124584552,822.5403257619176
1731654356.7964847,816.1570074910056,805.2481368561051,805.7102177484154,818.5899954923268
1731654356.7994163,827.1924402543173,805.08863233252,802.9121042625678,816.4620498840345
1731654356.799853,830.7985238824855,805.0638565688893,799.9705650707161,815.6994208106357
1731654356.800375,827.1632234655526,805.7802946513204,798.3660891150206,816.8627902423109
1731654356.804265,822.2489254477545,807.3822999395745,799.2517367957829,820.7161650530721
1731654356.8081553,822.0404039717653,809.4062016280523,802.7131698319984,826.650681885955
1731654356.812045,826.9630488360611,810.9866041692454,807.4582289496896,832.1655732737031
1731654356.815448,831.4062166099088,811.2815097643286,811.2976965607301,834.2583159727099
1731654356.8159354,828.7590006435732,809.897376643602,812.315880366298,831.6936395492055
1731654356.818282,817.5385063501031,807.1178003381747,810.0843372363711,826.1510261904396
1731654356.8198254,803.2742492171391,803.7993058994088,806.0514434364766,821.1149923711039
1731654356.8232665,794.4418120322212,800.926857542652,802.6641501661086,819.2627140757157
1731654356.8237157,795.7208169245699,799.0569309643314,801.7048597277977,820.3696358681809
1731654356.8276055,804.1177025902373,798.0624238101616,803.056648402155,821.4104728006904
1731654356.8310428,811.2795226961651,797.4521031655607,804.9011925452844,818.9129428809998
1731654356.8314958,810.3283846654851,797.040850495944,805.2177899773831,811.9150217663191
1731654356.835386,801.6946804319246,797.3307777826498,803.3482153487228,803.2769528575831
1731654356.8371472,793.0018644218464,799.1398545283179,800.3712486032277,798.1156547661247
1731654356.839276,792.8796227560699,802.729496315237,798.1205235701777,800.2092346688514
1731654356.843166,803.7308869650466,807.2421893048337,797.8107148859165,808.9133924598332
1731654356.8466375,819.4617479898939,811.0508538621823,799.3778491911404,819.0266693446318
1731654356.8470562,830.0581267080123,812.8072062165307,801.8356935799628,823.9845314047349
1731654356.8509464,829.2379225208591,812.3396460495078,804.1092845488707,820.2346300851186
1731654356.8548365,819.0470322371588,810.6783478226707,805.634409910084,809.6698671269742
1731654356.8560123,807.9603954857739,809.2173383931541,806.4173794178972,798.390029773277
1731654356.8581583,804.2485827374044,808.6897060401152,806.713351450049,792.7042700817544
1731654356.8587265,809.83913488791,808.7089040591953,806.6728245001462,795.1494852089078
1731654356.8622327,819.251999764717,808.1435251253844,806.2254817634484,803.1590549295809
1731654356.8626168,824.2425809387439,805.9878700984818,805.2434776718361,811.1569627707106
1731654356.8665068,820.476727922199,802.1066612343781,803.7914833721321,814.5421333661928
1731654356.8703969,810.9613706716241,797.4030858623562,802.1921493117438,812.7183955767529
1731654356.8742871,803.4106885974179,793.3852559531397,800.8041347039415,808.9782084347564
1731654356.8748777,803.6257513625804,791.4497727678788,799.6980140706625,807.4045776220526
1731654356.8778276,810.4069575381609,792.2646928124683,798.5486716157676,809.3253726883078
1731654356.8781772,816.400789438202,795.4958633543804,796.8958649380762,812.2545576681714
1731654356.8820672,814.3192811405555,799.9705729804026,794.6028393655153,812.2062694379185
1731654356.8859572,803.3663573299061,804.2466668852468,792.157948441955,807.4072372911446
1731654356.8898475,790.4494263392212,807.355790429959,790.567379504177,800.187410339157
1731654356.8930504,785.0423600170566,809.2745200551003,790.8649590335931,795.3137429519655
1731654356.8934224,791.7188918482188,810.7320592085048,793.4947870762003,796.0404043987716
1731654356.8937376,806.2024052981536,812.4311002293582,797.8997698568844,801.1507882808103
1731654356.893743,818.0466104193588,814.3038347367693,802.5986397314113,805.5674627652618
1731654356.8976276,818.051469154178,815.4762554310956,805.8472247487905,804.238562277176
1731654356.901518,804.9300649232248,815.0075464009616,806.6244004729664,796.2676700730702
1731654356.905408,786.1840628182582,812.7402393816911,805.3310468743784,785.9065622968639
1731654356.909017,772.4836319382379,809.477286482623,803.6195375386484,779.5094833133741
1731654356.909298,769.9469003257285,806.3443877030304,803.3379139497381,780.8959383764878
1731654356.912608,776.41072907017,803.9667013154127,805.2818475575741,788.8760885838169
1731654356.913188,784.4327430297832,802.2220882744859,808.6649323526557,798.7142569717618
1731654356.9170785,788.1140139118564,800.7196106405983,811.7118381413536,805.8588122686975
1731654356.9209683,787.7935627992254,799.4310358399003,812.9427663634991,808.6435021718448
1731654356.9246123,788.8168427656038,798.7963130433427,812.2021253661192,808.2261118060928
1731654356.9248583,795.8451914715453,799.2176102386329,810.6794202396492,806.736634557153
1731654356.9279425,807.8890385442159,800.5259002061961,809.9344617258728,805.6328697690453
1731654356.9287486,818.4065012105541,802.0428842643184,810.693902685603,805.260647297906
1731654356.9314735,820.4122009812609,803.2079725752114,812.3380170301272,805.300297284298
1731654356.9326386,812.3317423981106,804.0763042531804,813.4219605666513,805.3551026287655
1731654356.9365287,799.6504728397178,805.0675015338102,812.7506290253258,805.2461047748685
1731654356.9402072,790.7795598187722,806.1607712777379,810.1379274509382,805.0007180267044
1731654356.9404187,790.3927132988015,806.4549076517013,806.3391622320173,804.7182243126587
1731654356.944309,795.8089173462278,804.7860549732294,802.3986632433449,804.4668382995278
1731654356.948199,799.6066690855065,801.0133076073699,799.0919097288449,804.2588045045957
1731654356.9503388,796.3331157473554,796.7232118895199,796.8672528828273,804.0746417947297
1731654356.9520893,787.5354923581441,794.4580215661595,796.0541883184355,803.8933792405754
1731654356.955802,780.7232810569801,795.9205121251863,796.8426643259867,803.7064798798809
1731654356.955979,783.0859714661473,800.6484341944953,798.9423086792498,803.5160547860866
1731654356.9598694,795.2332469625521,806.3196505082856,801.3835823642479,803.3274411948796
1731654356.9628344,810.1546041910967,810.4297841344637,802.9122235364449,803.1439957924853
1731654356.9637594,818.3156109314331,811.9247688257714,802.8172549829011,802.9660935386457
1731654356.9676497,814.9571280149431,811.5227781747352,801.506446717867,802.7925597394548
1731654356.969204,803.9523189248746,810.6847860251147,800.2919219071268,802.622253205802
1731654356.9713967,795.1075132167425,810.2939222317739,800.5155047008285,802.4547251541045
1731654356.9715395,796.6787809091429,810.1399636795284,802.6702380834693,802.2900691525102
1731654356.9754298,808.6656816161071,809.4190235278481,806.1303739532699,802.1285171629747
1731654356.9793198,822.2440559985229,807.5874174754517,809.6162991446326,801.9701789404302
1731654356.98321,826.2166932180348,804.8099407456078,812.0105534092928,801.8150059720905
1731654356.986992,815.721131371759,801.823713360603,812.9412704867784,801.6628744671735
1731654356.9871,796.2994056907435,799.5791880279918,812.779719725903,801.5136674991884
1731654356.9880693,779.9699905025712,798.9885916509537,812.1863072371538,801.3673051738276
1731654356.9909902,776.3716906516783,800.7082646979798,811.6485180250228,801.2237334881207
1731654356.9948804,785.9084991222538,804.7300111678358,811.3198759357028,801.0829028692926
1731654356.9977262,799.9838160089308,809.9215458430479,811.1290447287554,800.9447568854428
1731654356.9987705,807.7243265671891,814.087479087336,810.9573563170823,800.809233556158
1731654357.0025866,803.8140421940401,814.9568005219345,810.7414838854259,800.6762707033737
1731654357.0026605,791.6668500226838,811.6779052560302,810.4819514946909,800.5458059536022
1731654357.0065506,780.0045124681372,805.6784858428712,810.2065564739441,800.4177687579694
