timestamps,eeg_1,eeg_2,eeg_3,eeg_4
1731654704.126047,796.0742026018759,804.0207607017763,796.1752645134625,783.3341356917207
1731654704.141667,795.7067678313927,803.8263391585202,796.2192107863079,783.5696832652562
1731654704.1572866,795.7189853959957,803.78838720993,796.2765458925667,783.906505808499
1731654704.1729066,796.601759002514,804.008947783818,796.4193179372687,784.5825132630226
1731654704.1885266,798.5534966744332,804.4625187331095,796.719479277619,785.8040615882244
1731654704.2041464,800.7369995817721,804.9325645898898,797.09738282343,787.3162157685678
1731654704.2197664,801.0750895399842,805.0367579587346,797.2322087164083,788.1273945357575
1731654704.2353864,797.3153709085241,804.4005039519272,796.6754741778165,786.8269134192357
1731654704.2497027,788.9556802443277,802.9257459596004,795.1252479781509,782.4680137721684
1731654704.251006,778.4262579462371,800.9700879121439,792.6377126662876,775.3971614490004
1731654704.2533782,770.0213982634282,799.2538609749374,789.5754468546216,767.2799785558869
1731654704.253595,766.8602915074986,798.5172372974687,786.3295333335174,760.1504367114707
1731654704.2574875,768.2720188192413,799.1834216986471,783.0812413614782,755.1629017208375
1731654704.26138,770.220416122608,801.2681577486538,779.8387415137418,752.0570098152928
1731654704.2652724,768.9068192267016,804.4890533384036,776.6985937064719,749.7571370891734
1731654704.266626,764.5210056018481,808.3233527877215,774.0324902073238,747.5137534996504
1731654704.2691648,761.499103061555,811.9441710036244,772.3657711883546,745.5212055814952
1731654704.2722435,764.6478877876635,814.3102324524576,772.0372984494404,744.4899660433493
1731654704.2730572,774.4685765510083,814.6524570248696,772.9614525474511,744.691980028174
1731654704.2769496,786.0559923876494,813.0940372226802,774.7010842958425,745.5245810359705
1731654704.280842,792.8431517196849,810.768471123768,776.7384656733929,746.1253400831102
1731654704.282246,792.0056225660235,809.1423634417498,778.667523171601,746.4834563163238
1731654704.2847345,786.7095989221801,809.0317917589633,780.1990876743392,747.8792305959404
1731654704.288627,783.1546035153625,810.1478028770503,781.1364486351515,751.9959397580362
1731654704.2911086,785.0148555992993,811.5122622781005,781.4817804213578,759.2920209051887
1731654704.292519,790.2007426233484,812.2969772965156,781.5647603706095,768.057238552642
1731654704.2964118,792.7951123070509,812.361637888778,781.92404148154,775.1643139855902
1731654704.297866,788.4566227476445,812.1569662511462,782.8964002369744,778.1400908197691
1731654704.3003042,778.5548817776195,812.2129670841935,784.2547954126347,777.0065430960359
1731654704.3010895,769.4191272191403,812.665015663329,785.3106540367498,774.422316100689
1731654704.3041966,767.3207911518377,813.1416522364414,785.503102447402,773.9383935489858
1731654704.308089,773.4738448793731,813.0583331906042,784.9976262357225,777.6089224845463
1731654704.309974,783.2922428972475,812.0972637705611,784.7150326851878,784.6773562932793
1731654704.3119817,790.495386700606,810.5174000837732,785.6651480413349,792.2983947088164
1731654704.313486,792.5544111876188,809.0458325950055,788.103800905771,797.8135039747269
1731654704.315874,792.8676765561598,808.4292579026397,791.265961017585,800.9162930513975
1731654704.3197663,797.8088774017923,809.0039050018311,793.9627458735877,803.9711731104971
1731654704.3236587,811.0701281687382,810.5916771724475,795.5375216023705,810.0374863557652
1731654704.3275514,829.9833871661065,812.7027510995624,796.3187028481871,820.0329707516213
1731654704.3288393,846.9244211389705,814.7843017943759,797.1788805642477,831.4188958019519
1731654704.329106,854.8303652674831,816.3449018150963,798.6708062661596,839.760280206068
1731654704.3314438,852.5847817355657,817.0295677620577,800.5961260179191,842.1367905952194
1731654704.3353362,846.0560516355171,816.7659599094957,802.3860000038084,839.6592272334598
1731654704.336,843.8340058109176,815.8915144914093,803.8319372439432,836.9013233109516
1731654704.3392286,850.7833412323561,815.0295076475423,805.3603322790306,838.5480660460229
1731654704.3431213,864.382221972374,814.6703660355141,807.5340869673819,845.8843681226617
1731654704.3447258,876.8331876761663,814.7516882555299,810.275879096877,855.883778920387
1731654704.3470137,881.3608709432464,814.6112516915575,812.6175147738262,863.5092724046319
1731654704.3477044,877.5593003690179,813.4027177658819,813.2955782627193,865.2995026628405
1731654704.350906,871.3204764167433,810.7095402510113,811.730066473365,861.4978153522367
1731654704.3547983,869.4703889831362,806.9689789788033,808.5765178733072,855.3707946387251
1731654704.3586907,873.8042552142164,803.4330901115367,805.4030026018627,850.601284544011
1731654704.3603456,879.6364483641163,801.6152850755517,803.7455805459799,848.9066834550248
1731654704.3625832,879.92312508866,802.4437427384559,804.2439928002026,849.5327893321662
1731654704.3664756,871.2363539580174,805.5939292333996,806.4344057146853,850.6464130414669
1731654704.3665698,856.5755398100838,809.485353582756,809.2379148838671,851.2533139145592
1731654704.370368,842.985013465793,812.0557611629206,811.6897569463591,852.0792158582072
1731654704.3709102,836.25023247755,811.884846558179,813.3762236225916,854.8280679800249
1731654704.3742604,836.9502665355207,808.972352630439,814.3844989513805,860.5198404822082
1731654704.3759656,840.6611873889415,804.6983319059777,814.9870093757456,868.2822537553383
1731654704.3781528,841.7641734259206,801.0080256757753,815.4131387550428,875.6117817421671
1731654704.3820453,837.7237717155243,799.312159681395,815.8428109383651,879.975990155053
1731654704.385435,830.5580037358512,799.7466563741201,816.4660009417264,880.4919441977246
1731654704.3859377,824.5001195689771,801.233863505972,817.4125062038341,878.2404062969754
1731654704.38983,821.9218158642525,802.3033999049935,818.5832758919911,874.918846644091
1731654704.3915856,821.0858755483335,802.1154330294388,819.6055767288991,871.1211013004688
1731654704.3937223,817.8080938105387,800.9570159439533,820.0368932782811,865.9797028537537
1731654704.397615,809.667895779559,799.8581034950672,819.6668797666455,858.5763597495653
1731654704.4015074,799.0132538836449,799.6593052340143,818.6452304454998,849.6664499240376
1731654704.4043002,791.9292897183038,800.2964773427318,817.3376516207197,841.8348969797825
1731654704.4053998,793.7908225885201,800.8621239530803,816.0756891275433,837.7054784969617
1731654704.4058206,804.8951364047953,800.3445103530897,815.0351730723094,837.7450894543917
1731654704.407205,819.619885406899,798.4237986194087,814.3144321662872,839.6761926625987
1731654704.4092922,829.8806949891025,795.7370860783585,814.0864668095562,840.1616675691031
1731654704.4131846,830.5081973206931,793.4851018614146,814.6479490759076,837.481046375376
1731654704.4170773,822.6638656677694,792.6986907572598,816.2834550496442,832.9773286554562
1731654704.4209695,812.6456132779326,793.6290671094596,819.0024245991087,829.9172743013619
1731654704.422825,806.8358619177054,795.6036494173721,822.3099522464055,830.52559683651
1731654704.4231656,806.7369015244766,797.431743799319,825.2037169263293,833.6579745411083
1731654704.424862,808.2012396150776,798.1359731950578,826.5079390045842,835.2699779878196
1731654704.4287543,805.5184863030198,797.5571531374226,825.4452509852865,831.5271196758077
1731654704.4326468,796.7938299179048,796.4287487515867,822.1155586141512,822.0402291845523
1731654704.4365394,785.9442581525441,795.871566422679,817.5199743525131,810.5322977853699
1731654704.438445,779.7296195591429,796.6536738958226,813.0576979380234,802.4725349615288
1731654704.4404318,782.5552676686909,798.6883939346388,809.8362340469788,801.6875720096917
1731654704.4407308,793.3290039276229,801.0648245286633,808.281304560565,808.3840258775094
1731654704.442031,806.4341217065598,802.5940997568883,808.2477604877165,819.4098561516264
1731654704.4443245,815.4640854646156,802.5647156923876,809.3914882756594,829.9451493663105
1731654704.448217,816.7510238286673,801.2377368208203,811.3958646401621,835.5292687537933
1731654704.452109,810.5632001722215,799.7125532623887,813.8840026339822,833.7897576319895
1731654704.454065,799.7873216865826,799.197193674482,816.212020567507,825.312669493315
1731654704.4560015,787.4885619277449,800.1806047243706,817.4713409301552,813.0132243315636
1731654704.459894,775.2612682740194,802.1243920847528,816.8398206601256,800.1321021387547
1731654704.460896,763.5324643059616,803.9060889490146,814.1020179092628,788.3191400472725
1731654704.4637864,753.2477808817811,804.6467161553476,809.9534255696294,777.4679048042217
1731654704.4676788,746.8948537648924,804.2504206151814,805.7619197646934,767.2824789878669
1731654704.4696853,747.2023612757574,803.2464593465709,802.8031092588072,758.6945709070063
1731654704.4715712,754.2143052088376,802.1384777405519,801.4408736358553,753.4440522786117
1731654704.4754636,763.6080050024485,800.892410453863,800.9119339352392,752.2481142339464
1731654704.4756413,768.6080413996809,799.0410036491896,799.9988129979708,753.6019114917087
1731654704.479356,764.7080182517407,796.2917373534573,798.1334066530934,754.6365142479857
1731654704.4797614,753.5278531854691,793.0560781058423,796.0134342808279,753.4016095452575
1731654704.4832485,742.3565592719353,790.3998000678012,795.1353745910055,750.5581550513755
1731654704.4853053,739.260374658242,789.4296303375562,796.5457030512512,748.9364918208671
1731654704.487141,747.2825916120534,790.5820467004213,799.8177778057689,751.1908182278581
1731654704.4910333,762.176185355565,793.3074804739094,803.1427830385583,757.3959333211985
1731654704.4949255,775.4963563702215,796.3253240907421,804.5536235675402,764.6277023371265
1731654704.4986267,780.7492710133108,798.2829945889576,803.3861134294741,769.0785618313043
1731654704.4988182,777.8942211860528,798.4798172769322,800.8571326062054,769.1274157664938
1731654704.5009248,772.8001425038185,797.2912082210153,799.2808168899257,766.8008324435846
1731654704.5027106,772.3029915758956,796.0203732374897,800.458404251903,766.2705951719441
1731654704.506603,779.0088787325511,796.1704080440527,804.399433060094,770.531942518
1731654704.5104954,789.9673848117321,798.5127656036067,809.292810529388,778.9798028607611
1731654704.5105517,799.7898140871869,802.5384474587426,812.7241106733214,787.8183201787931
1731654704.5143878,804.9537622912862,806.6689328840476,813.2359086901089,792.8671787514685
1731654704.5165448,805.5785685801542,809.1051673959347,811.1346430932281,792.4975551470783
1731654704.5174918,804.0158830023514,808.8001011208506,808.067923126341,788.5573925233582
1731654704.5182805,802.483809257783,806.0013591579366,805.8031692274994,784.8365364235088
1731654704.5221727,801.8715912022801,802.0726339442605,805.1384823804068,784.3883907556605
1731654704.526065,801.9714903361039,798.6987306806581,805.650552553456,787.6450115198768
1731654704.5299575,802.2437426072612,796.9500380167813,806.2836174589554,792.4953267664557
1731654704.5321648,802.3462699437603,796.8134346237415,806.1957059067448,796.0109197013732
1731654704.53385,802.2367158999659,797.5022585765539,805.2367433676305,796.3983531065353
1731654704.5363572,802.028337247827,798.2636930247298,803.8536647811574,793.80834518826
1731654704.5377424,801.8306074384515,798.9916217416838,802.6529379287095,789.6779134272881
1731654704.5416348,801.6829967028352,800.1395777108075,801.9931380566562,785.3988806099452
1731654704.545462,801.5702273510964,802.080323169906,801.8545665949458,781.4709919702842
1731654704.5455272,801.4630330844672,804.5666601023561,801.9878594717071,777.773458412385
1731654704.5477848,801.344417986248,806.8192845866567,802.1481655490882,774.6127846524929
1731654704.5494196,801.2132770798092,808.1313502828439,802.2239896885759,773.4472543715464
1731654704.553312,801.0760245657195,808.3812705874022,802.2238077192626,776.2706606752984
1731654704.5552225,800.9382985823268,807.9990217806906,802.2000843376128,783.7185730001632
1731654704.5572045,800.8018821932645,807.5292664979592,802.1906668045655,793.3512573518565
1731654704.5610971,800.6657905888686,807.2670723613721,802.2032278522562,800.0078730566853
1731654704.5634046,800.5284698433237,807.2150540761908,802.2275951964967,798.8448165256125
1731654704.5649896,800.3890991684812,807.2448404203922,802.2522537890354,789.3492856433994
1731654704.568882,800.2476930039505,807.250786682994,802.272294820558,777.1554905963175
1731654704.5727744,800.1046222796107,807.2026453688362,802.2887099589416,771.4635668884105
1731654704.5740876,799.960185547918,807.1213554258056,802.30440278958,778.9768802881409
1731654704.5766668,799.8144729602934,807.0367377786055,802.3212801984424,798.3195817954769
1731654704.5790246,799.6674465908646,806.9637897712364,802.3396249505055,819.3594215472947
1731654704.5803723,799.51906579078,806.901767262161,802.358840693121,828.8854438351091
1731654704.5805593,799.3693449430515,806.8436288793853,802.3783213245539,819.3769944082951
1731654704.5844517,799.2183246850132,806.7840311284667,802.3978306063382,794.6430526658772
1731654704.588344,799.0660038904757,806.7217043701484,802.417434087913,767.7869569537935
1731654704.5922365,798.9123094937122,806.6579287527337,802.4372811643831,752.659700506095
1731654704.592953,798.7571708467437,806.594286016612,802.4574589133211,755.1814971972263
1731654704.5946443,798.6006940949984,806.5315047609926,802.4779681015706,770.9165559548287
1731654704.5961287,798.4432992310229,806.4694972034406,802.4987666492092,789.9634476385226
1731654704.6000214,798.2855728097891,806.407885092931,802.5198148814545,804.4369500246095
1731654704.6039138,798.1276816913496,806.3464072575257,802.5410933040258,812.5800264965022
1731654704.6078062,797.9686237395587,806.2850216143572,802.5625976458545,817.3028535422229
1731654704.6102643,797.8061895957165,806.223812090263,802.5843275172867,821.765709821295
1731654704.6116986,797.6386326459451,806.1628698176024,802.6062795373224,826.3418314058368
1731654704.6118183,797.4678835916122,806.1022374877283,802.6284462535501,829.1184312570242
1731654704.6152823,797.3016846501864,806.0419156419102,802.650817153736,828.6045931785832
1731654704.615591,797.1501076171335,805.981891720601,802.6733789300679,825.6669524109575
1731654704.6194837,797.0140671607712,805.9221608067181,802.6961158658553,822.9400963379044
1731654704.623376,796.8719070503465,805.8627297867628,802.7190135448922,822.5384093160151
1731654704.6258843,796.6809961246773,805.8036115303439,802.7420668429331,824.3953790730955
1731654704.6272683,796.4119052199557,805.7448180467592,802.765286293147,826.7354970927471
1731654704.6306834,796.1086419481376,805.6863573658414,802.788690613247,827.9978810961394
1731654704.6311607,795.921762666365,805.6282346071556,802.8122772530487,828.2016407510511
1731654704.6350532,796.0296807308915,805.5704556274895,802.8359844540859,828.5458154574355
1731654704.6389456,796.4125094007504,805.5130307098794,802.859688869373,829.9591254568878
1731654704.6415043,796.6062201438252,805.4559748619394,802.883289580066,832.2227566928021
1731654704.642838,795.7518798824499,805.3993015736653,802.9068710906662,834.3780595346274
1731654704.6467304,793.2052238642004,805.3430110520057,802.9308131323035,835.7010876597459
1731654704.6495488,789.4621635442354,805.2870824329331,802.9556170587531,836.1999559617362
1731654704.650193,786.505190550493,805.2314860721987,802.9813252246302,836.3945955970802
1731654704.6506228,786.769865260002,805.1762243940661,803.00683745057,836.843051716664
1731654704.6545153,791.1264890162764,805.1213797731181,803.0299816568764,837.7934236188574
1731654704.657124,797.5628718847457,805.0671092691075,803.0492362182845,838.9838927885029
1731654704.6584077,802.163527890316,805.0135234496377,803.0667906687418,839.6242706941537
1731654704.6623,802.1574189512286,804.960471713468,803.0902687282393,838.7558991556075
1731654704.6661923,798.6417914578932,804.9074221361858,803.1288280347032,835.9575899954137
1731654704.668414,796.2673768329921,804.8537358714281,803.1818272097813,831.8774865814871
1731654704.670085,799.5400106532724,804.7994606233825,803.2266146489991,828.0069826159524
1731654704.672744,808.6088077510503,804.7461784114693,803.2218390860196,825.7051797207798
1731654704.6739774,818.3479855997796,804.6967476526185,803.1414865952573,825.1718227276217
1731654704.6778698,821.9689534671656,804.6528489867376,803.0291617391432,825.1941213497884
1731654704.6817625,816.4614702766316,804.6109928018332,803.0151369419066,823.9623163842881
1731654704.6851034,805.4104172332903,804.5607632288354,803.2184207093285,820.4725563923486
1731654704.6856549,796.7570316797397,804.4908535829339,803.5453643636152,815.5347010161943
1731654704.6872792,797.1103503321066,804.4045645123249,803.5686065188537,811.5329478473127
1731654704.688364,806.919676206664,804.3351242275202,802.6999946493718,810.8789927950313
1731654704.6895473,820.1488854276998,804.3393585271909,800.6221575047745,814.1272436449308
1731654704.6934395,828.6819744538099,804.4533756284482,797.6540080910847,819.2122023268171
1731654704.697332,828.1044448678844,804.6340894051301,794.7318470000479,822.6307318870116
1731654704.7012246,820.4451781627071,804.75974416875,792.9922842226566,821.911470989113
1731654704.7039838,811.8774113371591,804.7227603189154,793.2413751021248,817.5636255965242
1731654704.705117,807.470248964459,804.5096333354631,795.626099694974,812.9460932972697
1731654704.7061446,807.4338062210425,804.1463054233213,799.6209465221477,812.0333423079966
1731654704.7090094,807.8298000215392,803.5976955251269,804.2416839007216,816.6444031725177
1731654704.7129018,804.7614367784233,802.8300856498398,808.3545991649465,825.1031292012625
1731654704.7167945,798.1793612833959,802.0247257693555,811.0043958302671,833.246322011297
1731654704.7196038,792.0688707397287,801.6564273009922,811.7129015277684,837.0098779911795
1731654704.7200136,791.0784537433972,802.2283233687707,810.6716475076655,834.7572337215754
1731654704.720687,796.5923927415178,803.8277627055575,808.7162699158773,827.8427916751592
1731654704.724579,805.5057394961195,805.912215237988,806.9973058561086,819.316796639339
1731654704.7250097,812.6302830145728,807.5698607153078,806.4005406943571,812.011678891712
1731654704.7284715,814.7397502925716,808.0851729356065,806.991448538052,807.4371567962319
1731654704.732364,812.9486382851325,807.3737347376504,807.8874348238725,805.9011817978137
1731654704.7352238,811.4085888462066,805.9667579773079,807.7822205052735,807.097501676601
1731654704.7362564,813.3363554636578,804.59872145888,805.8731464729092,810.2267358987283
1731654704.7401488,817.7930013526595,803.7491556304769,802.5368726802952,813.6576584964413
1731654704.743875,820.2200503084533,803.4757768876494,799.1857612859955,815.043553237066
1731654704.7440412,816.5524829711899,803.5921423827418,797.3409782267057,812.5040260109699
1731654704.7479336,807.4347937431726,803.9544490556535,797.5942165580967,806.1688291575903
1731654704.7508435,798.7053809563048,804.584138431897,799.2348962953026,798.5525019062359
1731654704.751826,797.3778915976014,805.5709816181213,800.7980338518386,793.005767127795
1731654704.754924,806.1911427257405,806.9244381814963,801.0926551970026,791.2621072194971
1731654704.7557185,821.0939669531973,808.5379435913777,799.9616124267667,792.108980866145
1731654704.759611,833.7589487719874,810.2491294941805,798.2881335212196,792.4076196092934
1731654704.7627404,837.3356305683059,811.8654870369381,797.3317395649834,789.7478634836365
1731654704.7635033,831.1972171088803,813.1097877826012,797.9031633333973,784.6308408904943
1731654704.7664635,821.1527771949704,813.5928690074962,799.9066255149083,780.361568129404
1731654704.7673955,814.9228610175562,812.938075524292,802.4529448084227,780.5803634936229
1731654704.7712882,816.261302935134,811.0298138598637,804.3720439397326,786.2610756507354
1731654704.7751806,822.2868881395871,808.2016823739125,804.7895723062792,794.5877837726493
1731654704.779073,826.2129410624287,805.1870399320586,803.5105278969244,800.7923569190785
1731654704.7816055,823.3090216053788,802.8241055888041,801.1086692781106,801.684206448188
1731654704.7820835,815.1200561681169,801.6751245291251,798.7090468525932,798.1284989836719
1731654704.7829654,808.2894230157151,801.748987607217,797.5015289623939,794.4633411054781
1731654704.7868578,808.8793116396082,802.4472414032347,798.1511368687612,795.2574099350876
1731654704.7898345,816.9940868403903,802.7952514691291,800.4416218125865,801.8966252682366
1731654704.7907505,826.353001609024,801.9507780272783,803.4637357548982,811.56421770324
1731654704.7946427,829.2866329956655,799.7946277689828,806.2906065891501,819.2771343630513
1731654704.7977035,822.991169184136,797.19097838471,808.6229118714758,821.3470681927066
1731654704.798535,811.7587369032559,795.5710399150034,810.8308855314374,817.6992501052905
1731654704.8004708,803.3007693534729,795.9746178362282,813.3366785555432,811.4914637664165
1731654704.8024275,802.292873967426,798.2184411276048,815.9170694512405,806.5390105114436
1731654704.8063202,806.6001025021458,800.8910244516262,817.6144569248396,804.6018801893499
1731654704.8102126,809.3263290020466,802.2681735181968,817.3854805808696,804.5501778602979
1731654704.8133233,804.8977525291091,801.4906198526014,814.9363314787074,803.8897506241175
1731654704.814105,794.0491844578419,799.1067684616555,811.0480624122971,801.261191111005
1731654704.8179977,783.5831638640808,796.5828412939425,807.1760114423703,797.765277656112
1731654704.8193362,781.1247256129961,795.2120248496426,804.6970212061862,795.9733967953018
1731654704.82189,789.099981718784,795.3189794151798,804.3374973387803,797.4831304822961
1731654704.8247447,802.6735287310848,796.3592870655765,806.0197074855823,801.1929556492288
1731654704.8257823,813.2275257301228,797.7129525228527,809.0203137323633,803.9265604293442
1731654704.8289433,814.7281359023125,799.3771754874757,812.2623333140084,803.0450876232712
1731654704.8296747,808.144576143994,801.9044706179585,814.6742618127881,798.9085425713786
1731654704.8335671,800.5256759686691,805.6630785356309,815.5748731088862,795.009674848698
1731654704.8374596,799.4047024116845,810.1371994886746,814.9243693941763,795.4266404126167
1731654704.8382013,806.8846829171594,813.9572416910967,813.2450139136225,801.4983019034692
1731654704.841352,818.0875729869166,815.7021987297252,811.2182401402513,810.437741800015
1731654704.8445632,825.1914949403867,814.8454653203005,809.247290256087,817.1744913436653
1731654704.8452444,823.7809681141233,812.1060373711025,807.3227767628181,818.1073202465525
1731654704.8491368,816.4117968435656,808.97632776977,805.2653794790243,813.7981828532875
1731654704.8530293,810.5988311673725,806.8443829204042,803.0990603651085,808.4114539246862
1731654704.8569217,812.885197021182,806.3587275877812,801.2265048662846,806.3587835766729
1731654704.8570666,823.6606654511885,807.3712592982151,800.2736625733903,808.9285736966629
1731654704.8596551,836.741879614307,809.3000293830775,800.7342720439528,813.6533058782908
1731654704.860183,844.0583355245116,811.5255924269953,802.667582899779,816.8095588115775
1731654704.860814,841.8615461665795,813.5764996298536,805.6358993931796,816.7876541230818
1731654704.8647065,833.5817753176987,815.1233633739371,808.8948843075451,815.3794091258326
1731654704.8685987,826.9374512800822,815.9195743066667,811.6851461518224,815.8909740801489
1731654704.8724914,827.5171108830676,815.7712571175225,813.4290159840796,819.7967834883293
1731654704.875803,834.1270299177161,814.5406010814833,813.7590756899027,824.9619746848123
1731654704.875932,839.8775502338701,812.1895387807377,812.4876789927639,827.0971494289831
1731654704.8763838,838.1216431029605,808.8948260865226,809.664360444448,823.267337388738
1731654704.8802762,828.176284090673,805.1948322357465,805.7046497162469,814.4746399171767
1731654704.8841686,816.0016927637007,801.989576859604,801.4131242407003,805.1267531120827
1731654704.888061,809.403706843936,800.2070823640795,797.7788834083304,799.8319840678087
1731654704.891423,811.8802726950961,800.2045747246657,795.6274933292535,800.1190857604892
1731654704.8919537,820.0813332707406,801.3206857156858,795.3251273634764,803.5980484200562
1731654704.894565,826.6346729414163,802.0586735183215,796.6606074584782,806.0123334035925
1731654704.894797,825.8197928365325,800.9761444240298,798.9226326702246,804.4466529282776
1731654704.895846,817.6275740458989,797.7480066983828,801.1588110938822,799.3258919595878
1731654704.8997383,807.2660452619618,793.5905520603018,802.5756533448983,793.9463931947503
1731654704.9036307,800.7521598401297,790.6154811710335,802.9178051080245,792.0434053678838
1731654704.9070427,800.2006350914919,790.4925099259276,802.5553313828627,795.1143712707861
1731654704.9075232,802.5658523750141,793.3706048778159,802.1315651613008,801.3002758578307
1731654704.9114156,802.6891992733919,797.8234005893942,801.9889271786985,806.6309312875856
1731654704.9136624,797.8342717340772,801.7926472077108,801.8578829768494,807.874064091576
1731654704.915308,789.6925254814255,803.7943621286303,801.114902590973,804.9805395394453
1731654704.9192004,782.3723644799866,803.5880212194894,799.3898216285116,801.1721115256711
1731654704.9226627,778.7517596083563,802.026389713901,796.9581425203235,800.3720214550026
1731654704.9230928,778.7309075976439,800.3769293596101,794.5659509201525,803.8798112780639
1731654704.9269853,780.3359490614505,799.6115573453961,792.8824561404398,809.0590669178318
1731654704.9294758,781.7503617608893,800.0105383296831,792.0894697094282,811.3189791923992
1731654704.930878,782.313976909975,801.1846585606183,791.923157227446,807.8953772990388
1731654704.9325278,782.2743312157352,802.4367259798605,792.0480260905946,800.2888040913542
1731654704.9347703,782.1138287390983,803.2269756327495,792.4053247701305,793.2531119823976
1731654704.9382827,782.1141768394092,803.4341254773477,793.2831293573331,791.1315483318104
1731654704.9386628,782.2946994583173,803.2728862727135,795.1098989572806,794.5946129637813
1731654704.9425552,782.5498101871565,803.0281460006197,798.1400948806622,800.4671558336624
1731654704.9464476,782.7861636389266,802.8621619117739,802.2154750002438,804.6645462728102
1731654704.95034,782.9739629604583,802.7912922994994,806.7148481308761,805.6431039713863
1731654704.951393,783.1293080981535,802.7616257314207,810.7136629339419,805.4768760066016
1731654704.9539025,783.2779322010816,802.7235970576103,813.2894359612013,807.8283714031419
1731654704.9542325,783.4335967105736,802.6607591777422,813.8489468644359,814.6588824983336
1731654704.9581249,783.5962867084147,802.5812668741519,812.3436742778907,824.3486358404257
1731654704.9620173,783.7600446678557,802.4987828181726,809.2954022410835,832.5546600555626
1731654704.964386,783.9200520868562,802.4208091987279,805.6480906222498,835.0063949937141
1731654704.9659095,784.0749623362267,802.3475153935407,802.5219970713506,830.2118421717402
1731654704.9695225,784.2257338781029,802.2758140297983,800.9223909621802,820.3572000154209
1731654704.969802,784.373688344546,802.203147535213,801.4107912554557,809.9736248093043
1731654704.9702582,784.51945093609,802.1287847506651,803.7973121425282,803.263231831972
1731654704.9736946,784.6629360652602,802.0532372118456,807.041640397156,801.6974682100349
1731654704.977587,784.8037937277412,801.9772318551599,809.5685972189303,803.3803187392186
1731654704.9814794,784.9417705626788,801.9011348927894,809.9769768088926,804.657801716369
1731654704.9851425,785.0767945983274,801.8249297810905,807.7846320912839,802.915153696012
1731654704.9853718,785.2088723393133,801.748447630578,803.7263803547944,798.4630374230824
1731654704.9891236,785.337972355942,801.6715626807018,799.3773858706618,793.9607856519374
1731654704.9892642,785.4640182819021,801.5942504114695,796.3376634927494,791.8428186199308
1731654704.993157,785.5870061369512,801.5165486829612,795.499532439681,792.0344672332265
1731654704.997049,785.707139564792,801.4384989200456,796.7969357392287,792.0718955142349
1731654704.9992964,785.8247893967534,801.3601144474969,799.4469887287711,789.5627753969479
1731654705.0007622,785.9401299082529,801.281384303657,802.4035331228406,784.7174987464535
1731654705.0009415,786.0525820285142,801.2022998268694,804.7526548647489,780.5444760943999
1731654705.004834,786.1606298333011,801.1228836022511,805.9592702493077,780.4181220623943
1731654705.0079887,786.2627696818528,801.0431954810289,805.9764546631764,785.1790818173081
1731654705.0087264,786.3597070703355,800.9632926421377,805.1990210608543,792.44661414047
1731654705.0126188,786.4562577210106,800.8831478959896,804.2301573102661,798.8310402815392
1731654705.0163822,786.5597961686024,800.802588373816,803.5501505276858,802.963051883663
1731654705.0165112,786.6729287750849,800.7213667203613,803.3060357213565,806.3535609855015
1731654705.0204036,786.7833823809866,800.6394343213805,803.3594547250541,811.1369395272462
1731654705.024296,786.8621142821203,800.5572869014902,803.4926676127243,816.9141135618803
1731654705.026854,786.8832962796247,800.4759768817312,803.5711485041504,820.024019616914
1731654705.0281885,786.8661371240775,800.3963333033327,803.574115696079,816.3344352123778
1731654705.0320022,786.9067115889916,800.3174724434892,803.5406912650267,805.1699140909168
1731654705.032081,787.1402580429536,800.2358232338781,803.5106648188606,790.7426297627719
1731654705.0342069,787.5964801147118,800.1467670122499,803.4990494181058,779.6589184522019
1731654705.0359733,788.016154098274,800.0499761472969,803.5007674779871,776.5522050693933
1731654705.0398655,787.8439659499187,799.9555986737773,803.5052641064393,781.3650206848635
1731654705.0437582,786.6407087181366,799.8834244132189,803.5062256364125,790.131912589189
1731654705.0457194,784.8686777009452,799.8469460645699,803.5031117352418,798.1242969306949
1731654705.0476222,784.3936014190353,799.8254837742284,803.4982082298447,802.6312087115668
1731654705.0476506,787.6705938081067,799.7491707211409,803.4935950902961,803.5320240313512
1731654705.051543,795.4612108186607,799.5360233153046,803.4899721169372,801.9573723663991
1731654705.0554357,804.9475577867765,799.1973351367142,803.4870166845939,798.7426539860342
1731654705.059328,810.8067561845053,798.9520044951977,803.4841762704509,794.1020194691707
1731654705.0632205,809.2895272010828,799.205252100807,803.4811524857685,788.5638714371375
1731654705.063242,801.8940630865272,800.2729281465982,803.4779501250986,783.9869964256231
1731654705.0645845,794.9129389338636,801.9676504062057,803.4747090920631,783.3463886983288
1731654705.0671127,794.6243240452849,803.4503000245074,803.4715487910893,789.0011770706745
1731654705.0691173,801.89759013122,803.6838053997649,803.4685154012012,800.5667640435113
1731654705.071005,810.847067665044,802.2824841278515,803.4656050598124,814.177751247111
1731654705.0748978,813.067527504445,800.0436953816602,803.4628021393506,824.1510099148924
1731654705.0787902,804.3803161123732,798.5912336988105,803.460097296276,826.264916695914
1731654705.078862,788.693686172192,799.3041348382343,803.4574873905534,820.4572350096716
1731654705.0826826,775.6326092712588,802.3588637828761,803.4549776132858,810.9515853645248
1731654705.0834498,773.5433497897249,806.645197075958,803.4525975723365,803.5905102098974
1731654705.086575,783.2798965539678,810.5780282152742,803.4504170191251,802.1230707091485
1731654705.0904677,797.6140737999629,813.0987965490345,803.4485251404533,805.8939465626895
1731654705.09436,806.6310103726087,814.0859517394387,803.446948982467,810.4014045372376
1731654705.094482,804.8301682758297,813.9878105652881,803.4455493196272,810.3248631004418
1731654705.0982523,794.6098341687124,813.1697665892859,803.4440184564723,803.0919677506147
1731654705.1021447,783.9356167969481,811.624115540714,803.4421206033403,790.7138935957087
1731654705.1023152,780.4436761229695,809.2457899870622,803.4401476547544,778.6372949598109
1731654705.1040275,786.5041142710835,806.303952362641,803.4392129644377,772.2466774944071
1731654705.1060371,798.5240799323985,803.5713492704652,803.4407404722233,773.3400295218803
1731654705.1099296,810.3357763517859,801.9161311685425,803.4448241439766,779.145319463997
1731654705.1101017,817.5629637281157,801.6668318375964,803.448344108033,784.7184729242573
1731654705.113822,819.6440320642289,802.2949207954457,803.4452556009561,786.9077331499666
1731654705.1177144,818.7238000032305,802.7423737885789,803.4315135644144,786.6725162629065
1731654705.1211803,817.2714577586039,802.2179885991478,803.4136248707821,787.838455475362
1731654705.1216068,816.5703660569043,800.8731697648609,803.4132125457522,793.4116547905361
1731654705.1254992,816.6664428553058,799.790886014926,803.4556807621134,802.6805357300258
1731654705.1257217,817.069158943332,800.2218009613877,803.5384104861611,811.5903159797962
1731654705.1293917,817.371774362002,802.6158535685041,803.5976990305601,815.98817632033
1731654705.133284,817.4602918211515,806.20682391171,803.5212454890091,814.92345866426
1731654705.1371765,817.4186368694646,809.4953045386131,803.2497068596588,811.2950470174819
1731654705.1389377,817.3636749362548,811.2632512051744,802.9417145425973,809.4730220573401
1731654705.1400456,817.3535341060696,811.3379710820305,803.0585427235276,811.9549883660123
1731654705.1410687,817.384841860921,810.5473143842485,804.1753474121076,817.7068868293234
1731654705.1413417,817.4299455872457,809.9679072541948,806.5057417788968,823.3338565054719
1731654705.1449614,817.4680753434167,810.113461088132,809.4849848699835,825.9629341904287
1731654705.1488538,817.4944352781947,810.7043984930764,811.8887885975664,825.4389365288105
1731654705.1527462,817.5141286013738,811.1234267225401,812.5512616155627,824.0864386370575
1731654705.1566386,817.5333598193735,811.0624893298825,811.1363033688876,824.3713028116138
1731654705.1569614,817.5549645486866,810.7459451146402,808.3153773578751,826.5993672775058
1731654705.158911,817.5785940041854,810.5831997365199,805.2507914308846,828.7152104919036
1731654705.160531,817.6027860991323,810.687312582199,802.8770329215985,828.3232111736062
1731654705.1644237,817.6265522271319,810.7951466191129,801.5371850907313,825.0284556425005
1731654705.168316,817.6497594557404,810.6564999709175,801.1184936892604,820.9810368753509
1731654705.1722083,817.6727494965082,810.444886174548,801.4112756199754,819.2277346696833
1731654705.1725814,817.6958666928385,810.7214920744407,802.3264762228785,821.3967302177111
1731654705.1738482,817.7192553757814,811.9446420290694,803.8273310988297,826.6049412776048
1731654705.176101,817.7429272942377,813.9674816100386,805.725475684463,832.2209351741008
1731654705.177776,817.7669232714838,815.9852716816089,807.622079584947,835.6439231568708
1731654705.1799934,817.7913878999408,817.0075226223065,809.1285020938624,835.7806357489599
1731654705.1838858,817.8164634372863,816.4997586960168,810.1852442359367,833.4045089281148
1731654705.1877782,817.8420526083854,814.7072699131908,811.1148665192728,830.3607056122453
1731654705.1882014,817.8676741887311,812.4242071942987,812.2459143847317,828.1899032885317
1731654705.191671,817.8927288407326,810.408695909777,813.4115836940744,827.0845082141932
1731654705.1955633,817.9172976738528,808.9281758102902,813.8741641905825,825.961062896069
1731654705.1966414,817.9429975915037,807.8043852644266,812.892975677832,823.6397584670049
1731654705.1994555,817.9727229909307,806.8765451745624,810.494019869306,820.1062929877578
1731654705.203348,818.0081794634801,806.390182819949,807.7090484030981,816.6061922464804
1731654705.2038212,818.045872762019,806.8562856464478,805.9950747572177,814.3666542583635
1731654705.2072403,818.0753371772621,808.4478867462133,806.294119330177,813.1702480477601
1731654705.2087586,818.085148455064,810.5361241966583,808.4866145485848,811.3092211861382
1731654705.2111328,818.0783053078169,811.9310981937535,811.5835860217237,807.1648133400905
1731654705.2150252,818.0870475133399,811.729375374604,814.3719131757753,801.0021398811652
1731654705.2155068,818.1648261948577,810.0187669902456,815.979069691001,795.221307699752
1731654705.2189176,818.336803314361,807.7587157898246,816.0683696077851,792.6459699699121
1731654705.2194412,818.52586459196,805.9236194949207,814.7482268250992,794.2132185279428
1731654705.22281,818.5293341748711,804.698237345017,812.4194756810597,798.0502869662262
1731654705.2267025,818.1478550310713,803.4465202309595,809.6685240429828,800.8603960539159
1731654705.2305949,817.4820327383641,801.4347503524995,807.1580419404056,800.6541946994577
1731654705.234372,817.191532982774,798.6190822769654,805.4426953976912,798.6407385830698
1731654705.2344873,818.3005622341655,795.8064924349036,804.7352638578458,798.5644971730629
1731654705.2350612,821.2627096708442,794.0924914362822,804.7598119418124,803.7346727046491
1731654705.2383797,824.7603727607326,794.0933881830402,804.8565506813031,813.9821688971713
1731654705.242272,825.6931137974767,795.608666293565,804.3879306322208,825.098318300044
1731654705.2436688,821.4170006230304,797.9198901808118,803.2527957021141,831.481342932567
1731654705.2461646,812.7604097627722,800.3689315768412,802.1144319457139,830.1162908554256
1731654705.250057,804.4155626114416,802.6690631979345,802.042162470147,822.8319894038025
1731654705.2506807,801.3599803641707,804.7381710442402,803.7056271674427,815.0732721791286
1731654705.2532372,804.3135806108884,806.3487570184647,806.7136683360558,812.1301899263208
1731654705.2539494,808.760810334861,807.0484332414422,809.6912620979671,815.6566849658494
1731654705.2578418,808.8596639141715,806.4685298038336,811.1337053111573,822.9554697421039
1731654705.2617342,802.8536063543571,804.6867373016763,810.4077938529275,829.3271080074262
1731654705.265627,794.99825862091,802.2427646187862,808.0993070101006,831.531253828559
1731654705.266301,792.0716950567185,799.7851951825431,805.435220848942,829.7443462660623
1731654705.269519,797.4200863767693,797.7046670219437,803.2938304945739,826.7031715259899
1731654705.2721026,807.7040021426903,796.0648364847561,801.6500580358598,824.9275680276868
1731654705.2734115,815.1678698186388,794.7878029140477,799.8827801772707,824.3599491138709
1731654705.277304,813.6151704420554,793.8352229942911,797.5940948739255,822.3976852008589
1731654705.2785792,803.3140876322421,793.2453311497012,795.1718748950616,816.3795909030661
1731654705.2811964,790.9851503650742,793.0944692569525,793.6110444820714,806.5094403294362
1731654705.281921,784.8684485705639,793.4733370374108,793.7763413871879,796.6025373031683
1731654705.2850888,788.6359802341146,794.4528134384859,795.7208143845648,791.6209267311895
1731654705.2889812,798.8107154680396,795.9851006480611,798.552175191675,793.6931550322347
1731654705.2909677,807.6810574411345,797.79493035573,800.8771176673091,799.9527897132737
1731654705.2928736,809.4101448314829,799.4010354040438,801.495971007586,804.3945715026771
1731654705.296766,804.46447541927,800.3347211421076,799.9867104035953,802.6339725149871
1731654705.297541,798.8094345369292,800.4425333309124,796.9689817394928,795.7259971967618
1731654705.3006587,798.6123106215442,800.0442720292405,793.9492769143254,789.6680449683129
1731654705.3045511,804.9153362765858,799.788079607499,792.715846263096,790.7603988289299
1731654705.3084435,812.7013433967059,800.2639431688804,794.438915727301,800.5716852420251
1731654705.309833,815.0264104797828,801.627283755707,798.9211366548293,814.6094978979686
1731654705.312336,808.7139267335605,803.4799283059349,804.5295978378124,825.6163420397279
1731654705.313161,796.9848674089184,805.0681756964401,808.9851834082186,828.6165832184373
1731654705.3134894,787.0300121183664,805.6580430695985,810.5825404875719,823.7272939146197
1731654705.3162284,784.5584281058243,804.8805687304101,809.0641526104491,814.9770910884555
1731654705.3201208,789.6304688319174,802.9020885513652,805.5953860930117,806.7182607754262
1731654705.3240132,796.9986080050176,800.3794733399826,801.9268296534253,800.8259030052898
1731654705.3279057,800.5872251052232,798.2452646402113,799.3870588771816,796.6837602187597
1731654705.3286984,798.3696289080286,797.4062796062258,798.3859082846203,793.2708507028743
1731654705.328781,793.5355704592562,798.429502294406,798.616502595613,790.9152689425625
1731654705.331798,791.0220896422251,801.2736439678217,799.5763093956706,790.9553327276088
1731654705.3356905,792.602392039141,805.1574540178209,800.892086446989,793.8728150232816
1731654705.3395827,795.0642200314333,808.7027814867249,802.2903789916977,798.0890495106179
1731654705.343475,793.213331457683,810.4334447539197,803.4638057092533,800.8967156859542
1731654705.3444006,785.0274007814231,809.4994577446552,804.1067782875873,800.7114137182928
1731654705.3473678,774.3147776664632,806.250015309786,804.0848474661561,798.3967931753784
1731654705.3475635,768.3972587583339,802.2181986685197,803.4906789800874,796.354470804804
1731654705.3484,772.5460963305461,799.3609254621454,802.4847886213016,796.3519495982888
1731654705.3512602,785.5467415253441,798.9341250550397,801.1106394651285,798.239252082322
1731654705.3551526,799.9268131708544,800.7774414748101,799.3323188268105,800.5632361804884
1731654705.359045,806.9161817731421,803.5818893562706,797.2904594286798,802.062717886532
1731654705.3600204,802.6666548699599,805.9394560831913,795.4963907304412,802.477601586977
1731654705.3629377,791.1458583995556,807.2974783971279,794.6882634617975,802.2805581453034
1731654705.3664289,781.3859615353316,808.059741465172,795.3627809472836,802.0272712348948
1731654705.36683,780.9644435254871,808.8979537656342,797.3140665281267,801.9824888681353
1731654705.3707223,790.569262817648,810.0251192893795,799.5794787786898,802.1271646586973
1731654705.3746147,803.7583040733172,811.07943991063,800.9264219920314,802.334328655505
1731654705.3756404,811.9901531520273,811.581092020307,800.5980024973625,802.5106448732363
1731654705.3785071,810.9236712379764,811.4072423197475,798.8084543254888,802.6357627058642
1731654705.3823996,803.174256664626,810.8415979985853,796.6485473397009,802.7334722247704
1731654705.3833103,795.675374221447,810.260427774375,795.4812525459937,802.8316750832246
1731654705.3852942,793.9717449989803,809.8450266113568,796.2193858707213,802.9425936292145
1731654705.386292,797.9524577754365,809.5687323403843,798.8750898954769,803.0640559648017
1731654705.3901844,802.2916673830795,809.336846471455,802.5595069747962,803.1890407042401
1731654705.3912604,801.2064283275942,809.0211111920751,805.8974582111229,803.3128094031454
1731654705.3940768,793.6727304235195,808.3693136854074,807.6803021468157,803.4345460028346
1731654705.3979692,784.6512232249421,807.0398199787431,807.4712695626966,803.5556108137611
1731654705.4018617,781.0071535889865,804.9071795560965,805.8266213050217,803.6774298225241
1731654705.4041593,785.4259169139417,802.3890693046902,803.9347147084133,803.8005455579804
1731654705.405754,793.699359243192,800.3651985863505,802.8469130115158,803.9247605249726
1731654705.40688,798.0668009973646,799.5953892778061,802.8366722014,804.0496623552875
1731654705.4096465,793.9377225938015,800.08103665797,803.3888153480759,804.1749875680479
1731654705.4135387,784.1338450463203,800.9656365229328,803.8064589062976,804.3006896669888
1731654705.4174314,776.8166381996659,801.1348698013533,803.8688440183616,804.4268332723523
1731654705.4182203,778.7694158548859,800.0479730676295,803.9405306175165,804.5534692087332
1731654705.4213238,789.7329759879425,798.103007312763,804.4741628332628,804.6805700343841
1731654705.4225,802.5411188503226,796.2399155304039,805.4281664842052,804.8080384383734
1731654705.423025,808.881193173703,795.1594124751693,806.1822361357212,804.9357760125239
1731654705.4252164,805.8968142252035,794.8569926651409,806.0485230275326,805.0637838855241
1731654705.4291089,798.2616334670863,794.8469880386781,804.9120527177031,805.1922259277139
1731654705.4330013,794.1144487816491,794.8096060571501,803.3998577797464,805.3213446719735
1731654705.4368937,798.2921697920218,795.0371026741415,802.3991510389552,805.4511673771457
1731654705.43812,808.5059733459083,796.2651832826568,802.3452486112453,805.5811460515974
1731654705.440786,817.5608173254545,799.0102316161372,802.9097821458591,805.710158487895
1731654705.44189,819.538097927648,802.9388807351066,803.3269783979605,805.8373429364938
1731654705.4446783,814.5604737316788,806.7934306536416,803.0045282461513,805.9636587905542
1731654705.448571,808.1870131411786,809.0040636908737,801.8801711399171,806.092869541685
1731654705.4524634,806.235683234116,808.6067137652955,800.338762567606,806.2297542728643
1731654705.453131,809.6549723977112,805.8364515791098,798.9405624816194,806.374471440248
1731654705.45374,813.7917341674149,801.996761906774,798.254925285353,806.516163148851
1731654705.4563558,812.5436512100755,798.7295279424188,798.7934353529711,806.6340872450672
1731654705.4602482,803.8517114164607,797.1911846002191,800.8415520469448,806.7146106232075
1731654705.460755,792.0067630439019,797.616697472733,804.1632534822061,806.7803809434721
1731654705.464141,784.8565009094339,799.4354288076094,807.8621352811602,806.9053630611432
1731654705.4680333,787.9874070393382,801.7643623952958,810.6919500879716,807.1749397165139
1731654705.46936,800.2866779738843,803.9248026479011,811.730874663149,807.5756154119433
1731654705.4719255,814.3188267906801,805.6616789855595,810.946022025646,807.8794665419886
1731654705.475818,821.4176960458016,806.9689583869917,809.196271004212,807.6787748153357
1731654705.4796205,817.8294182517749,807.725761870735,807.6510078414271,806.7025927943569
1731654705.4797103,807.3033732552112,807.5151606791184,807.046800658884,805.2763537450335
1731654705.4836028,798.1036508971714,805.8637717253455,807.2970908784766,804.3798010303071
1731654705.48498,796.6977942924317,802.7648025712997,807.6828534271019,804.8155450163232
1731654705.4874952,803.0066490212921,799.029784295114,807.439860311055,805.9546740165265
1731654705.4880412,810.8610508805402,796.06394993671,806.3132689974999,805.4701347189766
1731654705.4913876,813.1492576179869,795.0981895434646,804.7142948173512,800.8989067325047
1731654705.49528,807.4419288595084,796.3935267260009,803.419053916843,792.0159619260544
1731654705.4984858,797.6462519026716,799.0288860716533,803.0711324432472,781.8845393563779
1731654705.4991724,790.5882320686507,801.4740955727073,803.8527195657764,775.3894485120958
1731654705.5005996,790.5368661122513,802.5674931554513,805.5080660916242,776.1963581819116
1731654705.5030649,796.1864319037323,802.2305331297056,807.6024219918644,784.415388590619
1731654705.5069573,802.3702258170938,801.4550526490228,809.7418862038776,796.653817008126
1731654705.5108497,804.7849564559591,801.60183027856,811.5926395761045,808.2742327619508
1731654705.514742,803.6201224611148,803.4890200532524,812.7922552224974,816.146727727352
1731654705.5162196,803.0949877025884,806.853970867184,812.9718741685969,820.0674479482834
1731654705.517351,807.4301045667646,810.5003041776541,811.9678226993495,822.132463266446
1731654705.5186346,816.7388159179916,812.9893918277753,810.0442043481082,824.7510708712537
1731654705.522527,826.3568249830078,813.4100317792336,807.8631218199644,828.7731928940797
1731654705.5229516,830.2934728504445,811.7708223451566,806.139230582953,833.0102810172076
1731654705.5264194,826.0702622323707,808.8635606648247,805.2079624962554,835.4011431226819
1731654705.5303118,816.9495771701802,805.7930409062803,804.8363653158689,834.85262531861
1731654705.5318396,809.5697149722967,803.5099351957273,804.4319500166054,832.2510369175193
1731654705.5342042,808.7836416374224,802.5648803788969,803.5240001252328,829.7843061473345
1731654705.5362165,813.9238417844027,803.080744972952,802.2053444922077,829.0946568569026
1731654705.538097,819.6147325893023,804.8186985230528,801.2169239503536,829.7797311636341
1731654705.541989,820.4312061332148,807.253585194764,801.5396299837728,829.5275546294198
1731654705.5458815,815.4126869216879,809.6704305727985,803.6832702121388,825.865790516655
1731654705.5474596,808.5847810098792,811.321546734716,807.1518064221239,818.1776503762546
1731654705.5497742,805.1245785066205,811.6338195730797,810.5389850706508,808.3722874091782
1731654705.5536666,806.5742202490633,810.4047547655402,812.2818855625628,799.6225868028343
1731654705.5550816,809.2885756943973,807.9110839331298,811.5845655362884,794.0855718242042
1731654705.557559,807.5046559454287,804.8545682596423,808.8822380443773,791.3390376274792
1731654705.557862,798.4930988899536,802.1011110385922,805.5707475768976,788.7872192182822
1731654705.5614514,785.451532105334,800.2872027202326,803.2366726246624,783.8265343181042
1731654705.5630794,775.5592917389243,799.5293482814143,802.8793721498462,776.1486343999364
1731654705.565344,774.5480949470353,799.4875885107721,804.5233248682183,768.3095683866667
1731654705.5692365,782.1282688251246,799.7774412944876,807.3509781221517,763.9895323420623
1731654705.5731287,792.1227334855267,800.374940304972,810.2145873016881,765.3063568314064
1731654705.5739467,797.3804585881263,801.5979678416321,812.2031524297839,771.4384460093339
1731654705.5770211,795.494952440795,803.6288621932481,812.9432227318571,779.6896824675295
1731654705.5786994,790.5445500244157,806.0376207701892,812.5381836768262,787.8963618687542
1731654705.5809135,789.3563123833529,807.8442489626285,811.3334394832515,795.8636876584414
1731654705.584806,795.4417708175899,808.1795588803365,809.7626401675326,804.5728978983577
1731654705.5886984,805.7615706617206,807.0157223948517,808.3256030032215,814.1882270378246
1731654705.5925908,813.1042880278264,805.3283206171861,807.5326733163068,823.0733996526778
1731654705.5927722,812.1393877791777,804.5172776673543,807.6933025986049,828.8974647589997
1731654705.592812,804.1158716920918,805.4909706072302,808.6718875713912,830.6997938673512
1731654705.594319,796.2562361095181,808.0206391495753,809.8720681406348,829.8147245589523
1731654705.5964832,796.1983496381266,810.7511130051068,810.5578770110493,828.742685986636
1731654705.6003757,805.8812741554324,811.876026253232,810.3202778065415,829.0502268725515
1731654705.604268,819.8290508908831,810.1610297540948,809.3430324402542,830.1815031547036
1731654705.6081605,829.3441286198595,805.7909351292017,808.2541532083291,830.087781254155
1731654705.609939,829.333008872591,800.5088909899521,807.6572766536901,826.9890085396097
1731654705.6116774,822.2364823839487,796.8241755694538,807.6812289439164,820.8220613040306
1731654705.612053,815.8109053924352,796.6316085042117,807.8831237214476,813.3798302393379
1731654705.615945,816.5591442979356,800.0635156180418,807.5830695611935,807.1568466553144
1731654705.6198378,824.2465304230685,805.3607098434303,806.3766283293807,803.7314170190624
1731654705.6237302,832.046563619806,809.9027553428222,804.4272079016916,802.7629040987987
1731654705.625559,832.1636670533004,811.7149395905888,802.3274945455839,802.2918148375389
1731654705.6276226,822.2731251157155,810.4425927639991,800.693151084312,800.1760280264587
1731654705.6276827,807.5619535901798,807.235696242271,799.8644152269668,795.6884856608532
1731654705.6305425,796.8225996940579,803.8098017335972,799.9267154982831,790.128288386197
1731654705.631515,795.7655530795428,801.4482765831422,800.8951944650316,785.9349820805228
1731654705.6354074,802.7733755645968,800.5646661568592,802.7444964562907,784.848686133592
1731654705.6393,810.3256495994335,800.9056247473999,805.1926725017734,786.4288473216952
1731654705.641179,810.9151318171201,802.023711604021,807.5125223223229,788.1379967808102
1731654705.6431923,802.8079130313857,803.5767578613969,808.7176670045736,787.12826808661
1731654705.6470847,791.1749269957885,805.2841430077757,808.1282455451291,782.505595716819
1731654705.649408,783.8442152740062,806.7288104406955,805.8947701040436,776.2948280076674
1731654705.6509771,785.1863034887116,807.335764285639,803.0032276731505,772.216662866547
1731654705.6548696,792.9779908380868,806.6622825431259,800.6979978186126,773.1335289276597
1731654705.6567988,800.5248766619451,804.7863498863826,799.75885758638,779.1630592328763
1731654705.658762,802.1022521495047,802.4245017898021,800.1691389363964,787.9279611275682
1731654705.662593,797.3019069519725,800.6159402923354,801.3320789315457,796.6077618945518
1731654705.6626544,790.9544002345648,800.1779545495491,802.5368003262547,803.9722779166625
1731654705.6665468,788.9123176021203,801.3081608333622,803.2845800273385,810.7226468520606
1731654705.668273,793.2427635434876,803.5433796735523,803.3608031058253,818.0463483249963
1731654705.6704395,800.7549032360747,805.9953608646642,802.7965736535907,825.84560461316
1731654705.6724188,805.9946955019949,807.6674310776546,801.8358236618043,832.292745803324
1731654705.674332,806.0929444821987,807.7565509236258,800.8557987728782,835.1305092566441
1731654705.6782243,803.2520394366067,805.9443942762931,800.1870448916634,833.598683520641
1731654705.6821167,802.6758431030312,802.6206787644788,799.9428631339885,829.3390832074964
1731654705.6860092,807.7638128833968,798.878425698421,800.0107157845883,825.4991732788824
1731654705.6871383,816.8492964909365,796.1800057220383,800.1928092826973,824.7122754155439
1731654705.6880388,824.3999794761118,795.7995771274553,800.348408751026,827.4596298548079
1731654705.6899016,825.666231989286,798.2887688715156,800.4383108545712,831.9622087106206
1731654705.693794,820.8075730437718,803.1815932445413,800.4878859088161,835.6182645878828
1731654705.697503,815.0257218582825,809.0590686089903,800.533239580353,836.9250139386503
1731654705.6976864,814.5547167938146,814.0257481754904,800.5921426700257,836.4592952611206
1731654705.7015789,821.6725245949467,816.5229082475082,800.6632454491242,836.1039018942453
1731654705.7036586,832.6472165135507,816.1425418615919,800.7377695078295,837.022796396292
1731654705.7054713,840.2732214731029,813.904936210514,800.8092017859636,838.0424422595929
1731654705.7060037,839.1605267190083,811.6542359641205,800.8760547161432,836.0476266450319
1731654705.7093637,829.8081364621062,810.8435616297568,800.9399155446471,828.4611395536833
1731654705.713256,818.3227455624691,811.5493905987952,801.00268780033,815.9207512198667
1731654705.7171483,811.9008958184447,812.486779577141,801.0652085559686,802.6957094552225
1731654705.7192786,813.4774544501292,812.0375543602782,801.1273208078927,794.0503408765596
1731654705.721041,819.6703431574167,809.4861250701624,801.1885259439757,792.4340428283351
1731654705.7248688,823.6102614206407,805.5169880543956,801.2484777525195,795.632810924467
1731654705.7249334,820.3460681588887,801.6732538075067,801.3070996373849,798.5523432805904
1731654705.7288258,810.4181530921842,799.3052608066345,801.3644668500187,797.2930312883711
1731654705.7324138,798.8097795203129,798.847869480041,801.4206617270564,792.2355579760384
1731654705.7327182,790.6372101670422,799.873592911409,801.4757080807746,787.6517742769861
1731654705.7348986,787.6897745759763,801.6943733374446,801.5295802016798,788.1926927890084
1731654705.736611,788.4100329665562,803.9106645054592,801.58223685053,795.1144945175195
1731654705.7405033,790.1948982990366,806.4829793241339,801.6336429753637,805.2582188155711
1731654705.743734,791.3762441189978,809.3886690066137,801.6837726491165,813.5224970546737
1731654705.7443955,791.6514035325604,812.2664160775203,801.7326063641715,816.7350784383108
1731654705.748288,791.4681339569573,814.3895219086686,801.7801354303092,815.7488081314631
1731654705.7505183,791.3086349125755,814.9831331125553,801.8263714425118,814.1458484142082
1731654705.7521803,791.3658931231113,813.6389309352677,801.8713427038417,814.8223563569624
1731654705.7560728,791.5871016543452,810.568183040913,801.9150587625869,817.4819833498847
1731654705.7599652,791.8464954060772,806.5844705456209,801.9574516602696,819.1779249352778
1731654705.7625997,792.0654194904936,802.8356564155032,801.9983507727668,817.3143081211383
1731654705.7638576,792.2345643726754,800.3572632303549,802.037574572276,812.3715282353693
1731654705.7661383,792.3802144202609,799.5862037685924,802.0751617641872,807.9067309173513
1731654705.767324,792.527507355451,800.0862454749957,802.1115903440264,807.7676007878067
1731654705.76775,792.6853612626026,800.7440838823316,802.1476495159304,812.8519863349646
1731654705.7716424,792.8501316937813,800.435843527387,802.1836898439057,820.1502250094788
1731654705.7755349,793.0150340318547,798.757407157856,802.218516887453,824.9127437869038
1731654705.7794273,793.1761561773773,796.2564746278885,802.2490638670768,824.1801249640283
1731654705.7814646,793.3332480513023,793.9592939021212,802.2723528146313,818.8093301975194
1731654705.7817583,793.4877719500039,792.5875358596915,802.2899293620655,812.465039090142
1731654705.7833197,793.6409938581971,792.1205136755799,802.3116065521937,808.5859521288282
1731654705.787212,793.7932870318623,792.0020139530443,802.3521613405384,807.8458714180065
1731654705.7911046,793.9443954162747,791.6939081882947,802.4164457376883,807.9793643043851
1731654705.7949972,794.0939470775953,791.0483181394651,802.479213250322,805.8519983105477
1731654705.7973783,794.2417497098527,790.2771413416881,802.4820539957884,800.0437378909705
1731654705.7988896,794.3877945298472,789.7320327007424,802.3748276857381,792.0551860173696
1731654705.80033,794.5321181671786,789.7884374160827,802.2011254392384,785.3750313203103
1731654705.8022344,794.6746941356091,790.8420318149687,802.1641885264258,783.1330419762567
1731654705.802782,794.8154460583042,793.1934259169043,802.5584790065092,785.9786825043399
1731654705.8066745,794.9543721400665,796.737002982621,803.5095256442548,791.6753574515097
1731654705.810567,795.0916696010039,800.7191977646737,804.6819931957629,796.7374793846449
1731654705.812998,795.2276811051686,803.936233580428,805.3161687495932,798.9327527766344
1731654705.814459,795.3625408308845,805.3911028745003,804.7822442841862,798.7321837232579
1731654705.8183515,795.4956638893167,804.9381858579985,803.2817984670558,798.5693672839742
1731654705.8191953,795.625620346469,803.3538929518736,801.9772925009429,800.5829235286752
1731654705.8222442,795.7510808024838,801.7547245035747,802.2422074331448,804.8050229074794
1731654705.8261366,795.8728723500869,800.8743163830718,804.5792410868876,809.3063993206712
1731654705.828618,795.9956253974087,800.7778597122932,808.145735614108,812.0009115464845
1731654705.830029,796.1260751049974,801.1032657484459,811.3084497663973,812.3430122476842
1731654705.8339214,796.2660508327884,801.4682779653035,812.738918758336,811.3817734068107
1731654705.8371446,796.4032996364589,801.6960013817506,812.150444342939,810.2863667170277
1731654705.837814,796.5106106501462,801.8002752636331,810.2022478919278,808.9248434912374
1731654705.8380604,796.5655241016485,801.8656543939542,807.8547006372538,805.9899818394667
1731654705.8417065,796.5892793926953,801.9534069622943,805.8127084258641,800.6356477625552
1731654705.844238,796.6739032517557,802.0762358816336,804.41203888644,794.0468791861955
1731654705.8455987,796.9423228372876,802.2179456600317,803.7963940777219,789.2631755287367
1731654705.8494911,797.4106280816346,802.3600132075957,804.035140027616,789.0804352249036
1731654705.8533835,797.8228648657885,802.4944827775822,805.0482151838897,793.6679257628563
1731654705.8569255,797.6619437095424,802.6229121653489,806.4953777502362,799.987810722998
1731654705.857276,796.5540091996919,802.7499775085098,807.8197571191959,803.707291969533
1731654705.8598578,794.999087818007,802.8787767511444,808.4443183932335,802.2318147651987
1731654705.8611684,794.794720298636,803.0097973452328,807.9788242669302,796.5385847836969
1731654705.8650608,798.2150564627678,803.1421038032527,806.3451758607912,790.4306004395177
1731654705.8689532,805.8881318724725,803.2747372794092,803.840391463251,787.8383231918217
1731654705.8720553,815.129022194989,803.4073316419175,801.1471292270078,790.2254297517683
1731654705.8728456,820.922470850997,803.5400076895606,799.1947455381237,795.915919195192
1731654705.8754778,819.4171030921032,803.673023210961,798.7728122864621,801.5663517618283
1731654705.8757913,811.0532459137451,803.8065370942587,800.0169227461658,804.442516062093
1731654705.876738,800.4824133632773,803.9405704326067,802.1464560786594,803.8311178319476
1731654705.8806305,793.1814004639828,804.0750768882101,803.8013447999364,800.8622196782358
1731654705.884523,791.4658056005411,804.2100152121102,803.8932811577538,797.283846557186
1731654705.888415,793.1499395186387,804.3453751321103,802.3957470128388,794.3375046539305
1731654705.8910978,793.9630664293322,804.4811647566728,800.4447329558424,792.5272474609573
1731654705.8923078,791.64303082435,804.617390276551,799.620209228664,792.1630855097256
1731654705.8946562,788.0593346340066,804.7540521081476,800.9056877116146,793.8699465047915
1731654705.8962002,787.3629485299548,804.891161485525,804.0594186429228,798.3815392418447
1731654705.9000926,791.7851533650389,805.0287595620621,807.8240662532068,805.7408756192148
1731654705.903985,798.9975713015318,805.1669077704967,810.8004575630658,814.6813603586123
1731654705.9067175,803.6218748301442,805.3056288331675,812.3281641818295,822.8233889069854
1731654705.9069655,801.6918880295241,805.4448244473833,812.7066281746835,827.6333007597436
1731654705.9078774,794.1578397902906,805.5842614625888,812.6233194677047,827.5808964530985
1731654705.91177,786.3464834730506,805.7237375153068,812.3446465546758,822.909488771166
1731654705.9135215,783.8014890045225,805.8634220644708,811.450303673396,815.6495346304926
1731654705.9156623,787.9764293272922,806.0041086505042,809.3818975638369,808.760793161985
1731654705.9195547,795.3007202885699,806.146893590336,806.2678877848923,804.6813468674666
1731654705.9223375,800.2977352480284,806.2919875428513,803.1641426847689,804.0557815238507
1731654705.9234474,800.1301631808373,806.4372375943931,801.3710062586504,805.5387408930808
1731654705.9273398,796.8389562248831,806.5781244883688,801.3861199060528,806.925226077807
1731654705.9312322,795.4596886522504,806.7111960159557,802.455080447491,806.8049956271041
1731654705.9323869,799.5801102719512,806.8405041420153,803.1689007608913,805.4403435707028
1731654705.9351246,808.0265295241101,806.9816745145962,802.6005133872372,804.205691752724
1731654705.9379575,815.4993496495883,807.1545572235162,800.9901613962546,804.1862635359397
1731654705.9390173,816.7797230288438,807.3600117044111,799.432887351004,805.2327151631615
1731654705.9418757,811.1591742928694,807.5535782457606,798.9323051423331,806.2510115167587
1731654705.9429097,803.4255191893144,807.6503378126121,799.6839535344575,806.3101294684166
1731654705.946802,800.4133929192009,807.5957545019712,801.1258585901355,805.4500282681174
1731654705.9506943,805.7114822856735,807.4885427295991,802.5473130445106,804.4853277522362
1731654705.951252,816.6958006794786,807.6505660601755,803.6124864334869,804.1206621176273
1731654705.9535773,826.2861987356898,808.4860599420974,804.369533198861,804.3014566798862
1731654705.9545867,828.1227261398242,810.0989415903854,804.8828789583649,804.4129629225622
1731654705.9584792,821.2242854682935,811.9626138444243,804.9774530951389,804.0961753359076
1731654705.9623716,810.6629279330355,813.0985807444265,804.4014872652328,803.8686487999471
1731654705.966264,803.8546569349749,812.7960301439986,803.2038675155269,804.911099096014
1731654705.9691973,805.2766895074002,811.2462461606912,801.8332898987655,808.1273215260412
1731654705.970117,813.4281540285565,809.4475041940616,800.7547409485104,813.2413359734974
1731654705.9701564,822.1215137759027,808.4492238741971,799.9675938923309,818.6948361932023
1731654705.9740489,825.097441909825,808.6157308948331,799.0149267309127,822.4791063544601
1731654705.976786,820.6106486150197,809.4957937320684,797.5798002290661,823.3354487262077
1731654705.9779413,812.6080984868338,810.2942504061766,796.0685660074934,821.5225102698969
1731654705.9818337,807.5639594811647,810.4650245393391,795.4870517205713,818.6614570459503
1731654705.9848173,809.35407753934,809.9622026239256,796.5995776271353,816.7372309710904
1731654705.985726,816.207215756888,809.0764516176285,799.1256093373128,816.8327537276465
1731654705.988983,822.23774594742,808.1328145505048,801.7595092410522,818.4005815311688
1731654705.9896183,822.3847050875261,807.3472848627409,803.0522375514824,819.6572606304651
1731654705.993511,816.7318825195496,806.892735788662,802.4204309521144,818.9455349194279
1731654705.9974034,810.5965791334329,806.9858708721875,800.479431377527,816.0403179285804
1731654706.000437,810.2087441903944,807.7992182740007,798.5254975654186,812.2546763991037
1731654706.0012958,817.4610871072604,809.2204856427974,797.6684488099653,809.2729756723461
1731654706.0051882,828.0560252926516,810.7043335646107,798.2579390312549,807.8931105032625
1731654706.0078478,834.6715197991635,811.4452355414935,799.8733370658229,807.7824639943243
1731654706.0090806,832.6882966299954,810.8262456130086,801.7174665373811,808.1308799209871
1731654706.0116963,823.8585360642749,808.8254325839971,803.1053925379953,808.3439455656027
1731654706.0129733,814.8443103756293,806.0700398703158,803.8151965792323,808.2637009778639
1731654706.016057,811.698538141718,803.5144013035269,804.1672223255858,808.0094941956897
1731654706.0168655,814.8277156258599,801.9941809768318,804.7888100468547,807.7423844415002
1731654706.020758,818.7650003442227,801.9233991338555,806.1777904923713,807.5397904040277
1731654706.0246503,817.0507149653233,803.2011554800284,808.3330872081968,807.3945147307218
1731654706.0267131,807.9797027540965,805.248358004686,810.6925062495189,807.2674044539658
1731654706.0285428,796.1077016584167,807.1481195289241,812.3939255359019,807.1300205931334
1731654706.031677,788.2210013844903,807.9600939860055,812.679369356502,806.9763062676298
1731654706.0324352,787.4722426370622,807.1793587723106,811.2495034600486,806.8136240209246
1731654706.0363276,790.8835741375551,805.0652694957301,808.4461367188801,806.6505207900307
1731654706.0402205,792.1957065977955,802.5172252336143,805.1571717631039,806.4907297156202
1731654706.0441127,787.3336640597595,800.5044350948565,802.3910924996383,806.3336004331038
1731654706.0455785,777.7942174654684,799.4747160588731,800.6935112089894,806.1770239267573
1731654706.0466068,769.3378531731836,799.2135846196244,799.8249592671368,806.0196020015196
1731654706.0472968,767.2873220636192,799.2225427659207,799.0389714362426,805.8611353867234
1731654706.048005,772.272703900784,799.2286479223433,797.819126910775,805.7020820983548
1731654706.0518975,779.7418545867371,799.3532040933053,796.4615058989169,805.5429103608502
1731654706.05579,783.584029613654,799.8091425813083,795.9341626552497,805.3838129549648
1731654706.0596824,780.989717773699,800.4471727641535,797.0540884340287,805.2247628996606
1731654706.0629168,774.6319341907698,800.6380826738189,799.6620810323496,805.0656894476092
1731654706.0635748,770.3773979082335,799.7031045736044,802.5298593706088,804.9065940986261
1731654706.0644436,772.4345807737676,797.5903995740225,804.1224242480251,804.7475455856311
1731654706.0674672,779.9985800074043,795.1844338338827,803.6162289293374,804.5885873770534
1731654706.0713596,788.1524896445344,793.8592255162795,801.3845164970134,804.4296460356724
1731654706.075252,792.1625618312652,794.5315133155732,798.6333905214045,804.2705507892925
1731654706.0785367,791.5081007706576,796.974240693281,796.5513122288074,804.1112340169716
1731654706.0791445,790.3285036024984,799.98874856703,795.6468732145507,803.9520317683141
1731654706.0815172,793.9834317575312,802.2952516740037,795.6956778305282,803.7937776840444
1731654706.083037,804.5075434246442,803.38376096121,796.1790814762652,803.6372903898995
1731654706.0833087,818.5186194514048,803.6661719388175,796.7454286460281,803.4822046015798
1731654706.086929,829.2241302782064,803.938617994602,797.3185539498915,803.3259777434164
1731654706.0908215,831.1118177013343,804.7130109033498,797.8820148577648,803.1647473836426
1731654706.0941567,823.8906657502159,805.9436612426432,798.2872741010241,802.9972455431009
1731654706.0947142,812.714561649967,807.2287930857294,798.3677675239458,802.8301332065314
1731654706.0986066,804.446781216641,808.1895682408274,798.2625748475267,802.678884012564
1731654706.1021743,802.7694770394515,808.689227028773,798.5632624103855,802.5570283352711
1731654706.102499,805.9091292404424,808.7744736751662,800.0223895140192,802.453951868002
1731654706.1063914,808.7202812624914,808.482954480406,802.9909163888836,802.318334373383
1731654706.1097765,807.3676657431156,807.7730379529133,807.0397779175704,802.0787678902631
1731654706.110284,802.7202659514966,806.6931378316681,811.0816496062323,801.7208478403104
1731654706.1141765,799.6254134395641,805.6103578936543,813.9087727146856,801.3834182411938
1731654706.1164274,802.6431501024142,805.1653166322059,814.7846572610556,801.358960622124
1731654706.1180687,811.7844432191457,805.8420847153104,813.7538923551417,801.8688420109396
1731654706.1210394,821.8705550718796,807.4696554120095,811.5519081944325,802.6366781919451
1731654706.121961,826.2340209024787,809.1464287539626,809.2162003363181,802.5974158474178
1731654706.1253965,821.9139949514131,809.7624734765017,807.6283314199784,800.2995811230704
1731654706.1258535,812.1326628099713,808.7619584391106,807.2275517971759,795.1955054729741
1731654706.129746,803.8954491076803,806.5509380534893,808.0178688439161,788.9223197404735
1731654706.1336384,802.519620594491,804.2315291618544,809.7772137835768,784.9576762247477
1731654706.1375308,807.5204149454855,802.8667562829804,812.2152932434831,786.1983411884723
1731654706.1399047,813.2542037563258,802.8040111081859,814.893695451061,792.3068908634142
1731654706.1410165,813.7887319998719,803.498082200312,817.0231760099359,799.3593653470234
1731654706.1414232,807.9451681452028,803.9120519358383,817.51283458491,802.4400139606133
1731654706.1453156,800.3158571597569,803.2130438110889,815.5193274312034,799.2900744778925
1731654706.149208,797.4112302234839,801.3220153174204,811.2294359929991,792.153286761021
1731654706.151338,802.1449459613011,798.9848599952251,806.1827536495582,786.2598700777462
1731654706.1531005,811.2803005030447,797.3321150124955,802.6275368383585,786.0022266380159
1731654706.1566362,818.0324277381607,797.2017886820184,802.1670595068563,791.7681654296787
1731654706.156993,817.70417332881,798.628575566374,804.6379322045125,799.9328561717817
1731654706.15877,811.6139002598834,800.8004069541619,808.1091863298243,805.9211223629434
1731654706.160885,805.9275912476882,802.5278949914122,810.09270032582,807.748646118625
1731654706.164778,806.3109021269506,802.972969960857,809.1513042082925,807.214621178084
1731654706.1686704,812.949528314896,802.1702181501513,805.7935628693384,808.0345465948499
1731654706.1722562,820.2595749402457,800.933636042416,802.0682364168852,812.6951034829335
1731654706.1725628,821.6221771510767,800.1617595817391,800.2011921151884,820.6086403905451
1731654706.1764553,815.146126256532,800.0799181080016,801.2507425402704,828.8354796010108
1731654706.1776352,805.5348440271769,800.0852061131053,804.6482016792578,834.523349438628
1731654706.1803477,800.3924362486943,799.3620055634794,808.7831439727557,836.9772468773238
1731654706.18424,803.9616242198073,797.7249337531051,812.0729703873262,837.7307273085534
1731654706.186248,813.4510729254869,795.914772137702,813.7494555824971,838.6722130990062
1731654706.1878762,821.022623246735,795.0648606134299,813.9609776613559,839.8910207007405
1731654706.1881323,819.9015748694603,795.8045856339256,813.3475666518169,839.2016504269824
1731654706.1920247,809.7069095455006,797.7795886031066,812.545311201654,833.9544589653831
1731654706.1959174,796.7240929738024,799.982999738066,811.9518919018149,823.7219173936726
1731654706.1965003,788.9514982959644,801.5731034587911,811.7371203966118,811.4750357150378
1731654706.1998098,789.9607771866383,802.4397779751336,811.8697301241153,801.9665675332304
1731654706.203496,796.4802883288199,803.0379904372027,812.0427274904272,798.4303449009058
1731654706.2037022,801.4976849107777,803.6981531847343,811.6480303544799,800.2684334197593
1731654706.2075946,800.188805346123,804.1082584619453,810.0225422265461,803.6317734070406
1731654706.2114873,793.7713887029773,803.4817745992801,806.9277882870247,804.3601249833878
1731654706.215366,788.2244702598994,801.2607239735396,802.9103114203258,800.8629065897176
1731654706.2153797,789.1494312766301,797.7091761250008,799.1967278653826,794.8219983565974
1731654706.219116,797.2027597547543,793.8882737544411,797.125029523571,789.5801925184617
1731654706.219272,807.8337448157413,791.0801043415294,797.4541623477792,787.8012444889406
1731654706.2211585,815.235306244534,790.1514579917207,799.9434095539856,790.0987831857501
1731654706.2231643,816.8999289830906,791.2672684184357,803.4069503027173,795.189183812872
1731654706.2270567,814.9641198686352,793.9787936775992,806.2283463757853,801.002357594654
1731654706.2309492,813.5764717765877,797.4690643853945,807.1346524790567,805.8509404079977
1731654706.234231,814.9794532723491,800.8135826773399,805.8678155440978,809.0532795220773
1731654706.234736,817.8362929153227,803.2688969567207,803.3510378722946,810.8613953042105
1731654706.2348416,819.0026333321073,804.54570732581,801.1804519456168,811.9215458279396
1731654706.238734,816.7056533988826,804.8702284591808,800.713861669149,812.7086398189363
1731654706.2426264,812.0009450713669,804.7405985334678,802.3402521682214,813.313156342461
1731654706.2465189,807.441208262335,804.5818210376468,805.3905603524171,813.6174162857473
1731654706.2503555,804.7866168637894,804.570887154986,808.6667685094387,813.5688544506659
1731654706.2504113,804.05694175606,804.6835207481445,811.1470225044092,813.2713491026516
1731654706.2530963,804.2374260673065,804.8292840731119,812.4110389504567,812.8908428398315
1731654706.2543037,804.381985835598,804.9474967803875,812.6348808160867,812.540411655997
1731654706.2560687,804.1259549733496,805.0287356554171,812.2959984419359,812.2476093284989
1731654706.258196,803.5696705202784,805.0916797481416,811.8369129875864,811.9885733263247
1731654706.2620883,802.9464949517394,805.1554788783196,811.4817573397659,811.7330894897431
1731654706.2659757,802.3998042625361,805.2275439973721,811.2490438811525,811.4673708172426
1731654706.265981,801.9442683941594,805.3056215337022,811.0665224295402,811.1934019208453
1731654706.2698734,801.529924192725,805.3847197711626,810.871048686864,810.9187431867614
1731654706.2719617,801.110196647076,805.4617956698637,810.6438010811232,810.6486448681105
1731654706.2737658,800.6690504741034,805.5365514242344,810.3970669444365,810.3840943712803
1731654706.2776582,800.2135886881978,805.6100613962617,810.1489114432628,810.1236380966536
1731654706.2815506,799.756417263401,805.6833245407906,809.9086098980213,809.8656886904122
1731654706.2815957,799.3046279270854,805.7566895194266,809.6758556380137,809.6095997299348
1731654706.2854433,798.8585087845547,805.8300144378854,809.4463990957742,809.3555392634128
1731654706.2893355,798.4152416300022,805.9030426434615,809.2169326735117,809.1039261295349
1731654706.2908268,797.9724323950885,805.9756360601143,808.9866008244195,808.8550305713201
1731654706.2909791,797.5293639022551,806.0478002552645,808.7561165599682,808.608895020575
1731654706.293228,797.086486798898,806.1196032013901,808.5264013599458,808.365441985605
1731654706.2971206,796.6444712580992,806.1910998703815,808.2978701259802,808.1245949231718
1731654706.2972157,796.2036624516368,806.262310484997,808.0704402068667,807.8863291393849
1731654706.301013,795.7640499871901,806.3332411853339,807.8438460331953,807.6506608144209
1731654706.3049054,795.3254776063897,806.4039114076332,807.6178885440778,807.4176163546604
1731654706.3087978,794.8878251961702,806.4743562332391,807.392500764857,807.1872125489072
1731654706.309692,794.4510647292053,806.5445930143122,807.1676934056411,806.9594538169885
1731654706.3126905,794.0152260757669,806.6145746253959,806.9434828776001,806.734338357155
1731654706.3128357,793.5803446273827,806.6841854869102,806.7198567068355,806.5118638458198
1731654706.316583,793.146434610081,806.7533385213471,806.4967766284377,806.2920289609619
1731654706.320475,792.7134934640269,806.8221599218132,806.2741960168861,806.0748323681357
1731654706.3243675,792.2815212955621,806.891106603281,806.0520727665981,805.8602726221798
1731654706.3258896,791.8505352027552,806.9607564691695,805.8303723632079,805.6483506046455
1731654706.32826,791.4205631035376,807.0311437872285,805.6090647984798,805.4390722286174
1731654706.3284554,790.9916138271891,807.1010034795246,805.3881203065341,805.2324460367913
1731654706.3285575,790.5636422410017,807.1679023246751,805.1675064771221,805.0284718588973
1731654706.3321524,790.136552529985,807.2302426407316,804.9471874063523,804.8271254827946
1731654706.3360448,789.7102817460554,807.2907094391924,804.727125432084,804.6283568311009
1731654706.3399372,789.2849460607467,807.3580650641269,804.5072859695496,804.4321224659636
1731654706.3438296,788.8609197895981,807.4424917610553,804.2876437071108,804.238450697244
1731654706.3440754,788.4386438161996,807.5426981453545,804.0681841090156,804.0474877742838
1731654706.3474226,788.0180836911558,807.6326206532298,803.8488922689507,803.8594328215606
1731654706.347722,787.5981607207589,807.6665555188177,803.6297284441147,803.6743084862563
1731654706.3516145,787.1769471086187,807.6198351612387,803.4106079308068,803.4916827847986
1731654706.355507,786.7533547604867,807.5534549252349,803.1914201804387,803.3106817801818
1731654706.3593993,786.3298439579089,807.6416613659362,802.9721114645384,803.1306604617467
1731654706.3596952,785.9135671400296,808.0769181018737,802.7527953381466,802.9524296913917
1731654706.3607998,785.5122092107207,808.8389767992797,802.5337673084455,802.7789932383796
1731654706.3632915,785.1235361277016,809.4916829127048,802.3152753813863,802.6140735850606
1731654706.366288,784.7254990299841,809.2741605472005,802.0970562449858,802.4576362620649
1731654706.3671842,784.2820174157638,807.5554959688324,801.8780004690045,802.3009374432465
1731654706.3710766,783.7768364909041,804.3455699150043,801.6566045611548,802.1276618142132
1731654706.374969,783.2634921824176,800.4356859932174,801.4325964298705,801.9275760424964
1731654706.3753152,782.880149440192,797.0434468428466,801.2089275060645,801.7194537865521
1731654706.3788614,782.761245545846,795.2305245771707,800.9917206665485,801.5622500435973
1731654706.3827538,782.8377945538873,795.4796845683984,800.7855338198798,801.522707661195
1731654706.3851533,782.6698904375816,797.6201463767485,800.5845976566069,801.5887367906305
1731654706.3866465,781.6004912723562,801.0106081340059,800.3673851208124,801.5826908163978
1731654706.3905387,779.4419816444313,804.7781981507387,800.1067044669621,801.2008958255528
1731654706.3909352,777.4314731074317,808.0270695574945,799.8008605423117,800.2907545506838
1731654706.394431,778.506487145407,810.0823455305317,799.5073771508213,799.2817660469859
1731654706.3957102,785.8567308563654,810.7818155382269,799.3300998262491,799.360415841089
1731654706.3983235,800.0622406715846,810.6004870529666,799.3108871855794,801.8688817461939
1731654706.402216,817.2016918479723,810.341098728788,799.256583432928,807.003442465497
1731654706.4040184,830.4685764399934,810.4818175719817,798.6674831038658,812.9519913979047
1731654706.4061084,834.8467029435222,810.7313165718435,796.9648714995046,816.761652813224
1731654706.4065547,831.0559564474763,810.2920453919879,793.9928985352466,816.6674461290539
1731654706.410001,825.0550257432832,808.6507318122163,790.4253674045607,813.8288708867061
1731654706.4138937,823.1360512918378,806.0963179309728,787.6219998919007,811.6094036100313
1731654706.417786,826.6642731999694,803.3967399089782,786.8621555358875,812.7661329134594
1731654706.4216783,831.0912888023671,800.9996918341981,788.4554941998895,816.9914256391733
1731654706.4221747,830.270472322814,798.7015330614092,791.4340527192396,821.0716239804442
1731654706.4228835,822.3702537284722,796.2085549932319,794.1188107300005,821.6216255303957
1731654706.4255707,812.0846811725663,793.9359366969711,795.1691007672039,818.0713207745877
1731654706.4294631,806.9681892966963,793.0190628790573,794.3599048315288,813.3543832503636
1731654706.430621,810.9052678715659,794.3480790729162,792.5668604907052,811.6733985415285
1731654706.4333556,820.3920366134635,797.5700280176547,791.032942291623,815.0997956908227
1731654706.437248,827.0468344479863,801.136843960797,790.4707565720531,821.7167041918773
1731654706.4377947,824.4600341793922,803.431084441202,790.6144061401667,826.8399839358714
1731654706.4411404,813.6871512983404,803.918695599157,790.5048762189473,826.4634479699824
1731654706.441749,802.6823691442007,803.3033496139302,789.313304196761,820.2928042098422
1731654706.4450328,799.9785687619298,802.6758891105028,787.1362332027117,811.9840113449072
1731654706.4489253,807.7478164959358,802.5465187172447,785.1505112495702,806.3757394431918
1731654706.4528177,819.9557837843049,802.5936054621444,784.9099383252487,805.9139045948783
1731654706.453415,827.1430170891028,802.1898969186163,787.2269426461953,809.1172773897415
1731654706.45671,823.9333738704333,801.1035931118369,791.4898098803329,812.228742969051
1731654706.4606023,813.2388241281101,799.7576200404669,795.978551812184,812.5522678722658
1731654706.4606142,803.959827473146,798.9291715443237,798.9450824147314,810.6340361584951
1731654706.4644947,804.199297779017,799.2464885864447,799.6336364384787,809.4968207806086
1731654706.4655309,815.2916049663193,800.8899118484936,798.5501354864482,811.6280221583642
1731654706.4683874,830.974321879298,803.5948410981827,796.9443745574575,816.3010549667453
1731654706.469035,841.9964746675713,806.7788399440499,796.0137136380237,819.6133826890745
1731654706.4722798,842.5701957326619,809.6411057907286,796.3686657866025,817.4895322794112
1731654706.4761722,834.0059900570692,811.2843460740793,797.9457487885118,809.4106558118084
1731654706.4794796,823.151532816653,810.9782318982728,800.2112969484855,799.7629026192399
1731654706.4800646,817.1150490726682,808.5197846192393,802.4264520015204,795.3331863799004
1731654706.4839573,818.3446910681085,804.4530170190375,803.879678020549,800.5244532836165
1731654706.484655,823.568876862057,799.9310818080002,804.1139843549877,813.8750165406653
1731654706.4878497,826.9584288780585,796.24399448643,803.1401612899225,828.6603165140314
1731654706.491742,824.7120673717444,794.2711606640052,801.5031318994427,837.242133086272
1731654706.4956343,817.4973634224301,794.150962580945,800.0527891337986,835.9217544305434
1731654706.498345,809.1768338746443,795.30545522266,799.4679498322191,826.7569598649027
1731654706.4995267,803.2678111139157,796.7791157448586,799.8434599540902,815.3296380604081
1731654706.5002744,800.2476145716139,797.7452470872427,800.6814513583295,806.619779068997
1731654706.5004413,797.8941401372812,797.9692016486978,801.3187687427468,802.3033543699972
1731654706.5034192,794.137593995717,797.972812914444,801.4363470985596,801.1530915178969
1731654706.5073116,789.6491454904209,798.7206552507643,801.2287912260078,801.4344636710498
1731654706.511204,787.6023880850988,800.9347797702799,801.148301383576,802.7386772495022
1731654706.5150964,790.6628377921026,804.488599029118,801.5263096851343,805.6740766774165
1731654706.5158944,797.9801874282109,808.382427669482,802.4194492807424,810.1210347936536
1731654706.51721,805.1840983059526,811.3833935314137,803.7283319731573,814.1547356931625
1731654706.5189888,807.7487862308645,812.8229543876247,805.3673427644814,815.012242739748
1731654706.5228813,804.9390187477637,812.8930971317169,807.2897629540222,811.4010338323504
1731654706.5267737,800.7937052953453,812.2885766364608,809.3875979824953,805.0255064053835
1731654706.530666,801.0176671732693,811.6394655449714,811.4215118640566,799.7863831479931
1731654706.5315144,808.158507943935,811.2151905622749,813.088385790126,799.1282200045973
1731654706.5345588,819.0102886601755,810.9815924620015,814.1897946537182,803.6186622995479
1731654706.5353515,826.514106444344,810.8017913828849,814.7526109469298,810.658928619847
1731654706.5360754,824.9286840315656,810.5823668366114,814.9657023668493,816.4972055928015
1731654706.5384512,814.4371764627325,810.3076238093598,814.9556802285817,818.9114472955414
1731654706.5423436,801.5581977003316,810.0052971703207,814.6114575714072,818.4434729688178
1731654706.546236,794.7077881956609,809.7045251113942,813.671485614533,817.257482869855
1731654706.5471342,798.0261318087536,809.4168597725492,812.0397022364128,816.6750227837264
1731654706.5501285,808.2409775021138,809.1390776584167,810.0210174728529,815.6180631517425
1731654706.554021,817.206545212318,808.8636147035742,808.1883278436827,811.4621326953436
1731654706.5549407,818.2221771776752,808.5857618861306,806.9505246047937,802.6464650936126
1731654706.5579133,811.0729292908769,808.3049735455231,806.2279488239966,790.7135892900696
1731654706.5618055,801.7881903803747,808.0228281230264,805.5684845985752,779.8611658779319
1731654706.5627542,797.5181950621485,807.7408243491161,804.5989343858549,774.243614917939
1731654706.565698,800.8540891433228,807.4594836632856,803.37170551852,775.1738941470819
1731654706.5695906,808.1149651706929,807.1785747525661,802.2962418871047,780.3870165899802
1731654706.570262,812.6888813702615,806.897679974081,801.77104375954,785.7982450415838
1731654706.573483,810.4599629717445,806.6165549731952,801.8815222491055,788.2972202534901
1731654706.5738058,802.8867998825572,806.3351753266528,802.3825201491411,787.5090804880057
1731654706.5773754,795.3774075198052,806.0536202861073,802.8786325011681,785.3893026600812
1731654706.578374,792.4805782985392,805.771959150257,802.9989370424613,784.1783786600735
1731654706.5812678,794.0299472081639,805.4902079863884,802.4958659329097,784.4354329889356
1731654706.5851605,795.5903211659663,805.2083402850748,801.3488350319508,784.7591853837034
1731654706.589053,792.8458464681873,804.9263120094641,799.9105888096599,783.4136564989267
1731654706.5926712,785.9925031591168,804.6440809767965,798.9522873061991,780.4126705183049
1731654706.592945,780.0332047816968,804.3616237592956,799.3989394397224,778.0918207276666
1731654706.593994,780.5119065427041,804.0789547231242,801.7668630338129,779.4339377397353
1731654706.5968375,788.4178882094097,803.7961317983882,805.6661237566195,785.4558489755219
1731654706.60073,798.8165013321319,803.5132166257395,809.8347579597778,793.9386880402391
1731654706.6046224,804.4732051970007,803.2301773158408,812.8153645976819,800.698085364016
1731654706.6051724,801.4279867197538,802.9467944029213,813.8235226688213,802.415218494757
1731654706.6085148,791.9509303479574,802.6627111463534,813.1338554309768,798.7904620945424
1731654706.609614,782.6147753048266,802.3777487028929,811.6954796106088,792.4688725001012
1731654706.6115365,779.1528298491926,802.0923810219776,810.3519971864126,787.0015484080424
1731654706.6124072,782.171054885971,801.8078913966151,809.3518150800243,784.4533909967444
1731654706.6162996,787.0140933983646,801.5255604209034,808.5029081957351,784.3077520321449
1731654706.620192,787.8550560313919,801.2447804852164,807.6929841642818,784.3098136267345
1731654706.6240845,782.7514298338825,800.9614136274687,807.1836383086621,782.5608836729778
1731654706.625234,775.5168231747227,800.6691030174745,807.3790889448604,779.2829655364732
1731654706.627977,772.7029268243688,800.36555055688,808.3382353105626,776.8466782867998
1731654706.6304016,778.0149950814849,800.0612250500302,809.5542058578469,777.9475923203908
1731654706.6318693,788.7915125490512,799.7810734358719,810.2368662856366,783.3258089252583
1731654706.6357615,797.6811133390152,799.547488075025,809.8455215570293,790.8738585424077
1731654706.6396542,798.4258337842746,799.3444945371458,808.4351700363776,796.9198607877265
1731654706.6400826,791.1501692619083,799.0905192880168,806.6137067630274,798.7726798909619
1731654706.640854,782.7174806977588,798.6713556190958,805.23513600857,796.6557591168537
1731654706.6435466,781.5653818389779,798.0672582215816,805.0531656682975,793.6275166343538
1731654706.647439,790.9620939096427,797.5204203832619,806.4487654527321,793.5380473286017
1731654706.649267,806.1437432385054,797.5718481781396,809.2522546190014,798.434586973234
1731654706.6513314,817.8692895651649,798.7989389988744,812.7115111906453,807.2137659074057
1731654706.6552238,819.7069105567068,801.3427177281052,815.703754230308,816.4755631002236
1731654706.6564736,813.1024496281173,804.6344771013244,817.2071068864428,822.9561208136917
1731654706.6591165,805.9431221579778,807.6574814723069,816.8474114706166,825.6992358495008
1731654706.6630087,805.7865138156761,809.5824075400031,815.1789705548402,826.3149388588046
1731654706.6669014,813.50868142148,810.2661307102072,813.4299861289122,827.2611070078318
1731654706.668132,822.7126820747483,810.253154178691,812.7760549432728,829.734295688379
1731654706.6707938,825.2102349904898,810.3152199085235,813.5857886838171,832.9620700992251
1731654706.6720936,817.8108916679942,810.8590545020755,815.1807892831746,835.3088013865873
1731654706.6746862,804.8786386922383,811.6065872554783,816.3187878678716,836.0032519655074
1731654706.674993,794.8986499745786,811.7929467532527,816.0671934380118,835.9079575845485
1731654706.6785786,794.1003183319518,810.77523340519,814.4266152681112,836.7398317801725
1731654706.682471,802.1670479993624,808.6043258697123,812.2624210551954,839.4887037589316
1731654706.6863637,813.0761465547757,806.0946899406176,810.6482113520611,843.3623813555505
1731654706.6869974,820.0361200752449,804.3211476987211,810.1540141389858,846.0992023777432
1731654706.6877136,820.4805487933635,803.9415210685407,810.5759379857001,845.416175182219
1731654706.690256,817.2910838437697,804.8435105865486,811.1904592307257,840.4997567593615
1731654706.6941483,815.5666031427684,806.2902180382196,811.23335767917,832.4129339139794
1731654706.6980407,817.8329931490903,807.3651409173979,810.2540713632529,823.1552628862597
1731654706.7019331,821.7605660003196,807.418769354191,808.2180013145412,814.2391951093356
1731654706.7033334,822.289094556893,806.3428483805125,805.4443948614332,806.048924588577
1731654706.7058256,816.3412602748763,804.614744378275,802.5024359629487,798.4624311455212
1731654706.7058628,806.108591458796,803.0953505542675,800.0931425857484,791.9357552428027
1731654706.709718,798.0162821122806,802.6294086829812,798.868814433658,787.777319664094
1731654706.7099032,797.974738338623,803.6208349392357,799.17527913121,787.2069349773943
1731654706.7136104,806.5870293820695,805.8229189883654,800.8187046710567,790.0954801390594
1731654706.7175028,818.1824066449631,808.4859357732759,803.0434325742605,794.6581024444793
1731654706.7189534,824.6801849224001,810.7872708371018,804.8417454210546,798.4932317775261
1731654706.7213953,821.4938086129841,812.2856021393268,805.4937639546756,800.1645126416593
1731654706.724728,810.9101282097671,813.1097528523259,805.011088256194,800.1094910061599
1731654706.7252877,800.1789101759659,813.7327151148022,804.1462506871995,800.23083999702
1731654706.72918,795.7163955504361,814.4418404389206,803.9049918536745,802.4707906919789
1731654706.7330723,798.0705612804369,814.8808452920019,804.8768758322523,807.3145926854395
1731654706.7345734,801.7944011694105,814.0983964951703,806.8592917384461,813.223142143759
1731654706.7369647,800.3282453307795,811.2198282554117,809.022280940693,817.4652672761408
1731654706.7408574,791.7603302196087,806.3093405813601,810.4339147854326,817.9132496336956
1731654706.7435932,780.6080125215224,800.7027115046074,810.5309913113039,814.5868522670453
1731654706.7447498,774.1876998175732,796.4368186086829,809.2729074019088,809.7474855143545
1731654706.7448137,776.6922680479123,795.1378363063852,807.0433840953108,806.36163995607
1731654706.7486422,785.8723808808687,797.1628487917062,804.4999074864171,806.0565668110129
1731654706.750193,794.9026330068888,801.5188679095739,802.4297402036293,808.1311207820008
1731654706.7525346,797.7450544100914,806.4359557085663,801.5190750996227,810.3029686559763
1731654706.756427,793.6208900900575,810.1012014333025,802.022596695041,810.4384165296723
1731654706.7603197,787.094757362642,811.2105712478522,803.5373979539403,807.8049859323468
1731654706.7624586,783.8930217284106,809.3131675744295,805.1335659282927,802.9882700244599
1731654706.764212,785.9885072550344,804.9861839141265,805.8544599168915,796.9027923049184
1731654706.765813,790.0098106978039,799.7203083661,805.2847922416486,790.0998292444367
1731654706.7681043,790.3051897643267,795.375866608103,803.7924264827037,783.1348570762183
1731654706.7719967,784.1754978826634,793.3506061834869,802.2651130480809,777.5231148175828
1731654706.7758892,774.9007922172466,793.9165472521589,801.5158025875917,775.9746326589691
1731654706.779724,769.7920356487713,796.1686276457049,801.7629903593962,781.062325773008
1731654706.7797818,774.4798711062797,798.6357089551238,802.5431504181513,792.9669129305946
1731654706.7813237,787.9101732836602,800.1508908388213,803.1092747832025,808.1565897213444
1731654706.781433,802.3131214561604,800.4213423060238,803.0196159603737,820.5717113741895
1731654706.7836742,808.6339248614187,799.9744649623779,802.4774409220984,825.0598688806032
1731654706.787567,803.4088087315826,799.5906183053203,802.1643993755401,820.7915293857101
1731654706.791459,791.5840120142703,799.6579111883963,802.694907226109,811.9686918738956
1731654706.7953515,782.8359721219394,799.8970275190021,804.1106196166342,805.0017993893272
1731654706.7970529,784.2322024383839,799.6140780864226,805.7950246531392,804.1349989437086
1731654706.799244,795.0970851310886,798.2598495036972,806.8601219981518,808.8155883647514
1731654706.800189,808.0651329408075,795.877843717947,806.7220129733261,814.6929178721751
1731654706.8031363,815.1833405023319,793.1412785535773,805.4821374735621,817.2386357822479
1731654706.8070288,813.9725689984531,790.992306612753,803.8798767493354,815.0976049000203
1731654706.8109212,808.7298428575757,790.1465376897113,802.8463022654032,810.7829383562157
1731654706.8126729,806.4130876853695,790.7471748918709,802.9268173954715,808.488522607676
1731654706.8146343,810.6989614247389,792.3012578943494,803.9307195537708,810.8084714904201
1731654706.8148136,818.9782985206439,793.8801077404111,805.0336718420447,816.7374362759908
1731654706.818706,824.5512651298664,794.50633844952,805.2712681829329,822.3403367473567
1731654706.8190544,822.2109193346251,793.6184285613386,804.1196675081644,823.6265963464252
1731654706.8225985,812.7783436882397,791.4264424827692,801.8246308256729,819.5487664881833
1731654706.8264909,802.8855955229654,788.9146417640283,799.3000979426365,812.8104073533827
1731654706.8282928,799.9759411997688,787.363849893983,797.6471060324602,807.7571481666712
1731654706.8303833,806.4249204700627,787.588471329705,797.5432372088395,807.0181212866404
1731654706.8342755,817.6486332452091,789.3869718074128,798.8593509132638,809.7141814093519
1731654706.8379197,825.9312221323092,791.6649515095584,800.7856841511056,812.7304973846033
1731654706.838168,826.8516314269777,793.2185752475001,802.4397925187067,813.8160315855283
1731654706.8420606,822.8205514407538,793.6036247953205,803.5362469085676,813.6425402122063
1731654706.8439128,820.6271462988947,793.3898356206205,804.5682371059208,814.9707966077232
1731654706.845953,825.084795560617,793.5974260876144,806.2964003926736,819.7594881347565
1731654706.8495448,834.2901831558092,794.8126018525167,808.9337012050598,826.9066980495836
1731654706.8498454,840.6557054406273,796.7266741671727,811.7304748995654,832.7004322144921
1731654706.8537378,836.9618340872431,798.4189255939262,813.375483370602,833.6342558344169
1731654706.8567848,822.4371762463359,799.0489208427916,812.9525406300847,829.2100372186973
1731654706.8576305,803.8255548351179,798.3648855680841,810.7056696238149,822.4102722792815
1731654706.8595326,790.492663621841,796.7315226104183,807.9897931463137,817.5036640895731
1731654706.861523,787.4627255651975,794.8305889845716,806.4150936288049,816.9989610260376
1731654706.865415,791.9433082709573,793.3375542153351,806.8078602312402,820.1233078321148
1731654706.8693075,796.0754789001957,792.7112218774503,808.7216176666772,823.8361361060311
1731654706.8732,793.6292954351599,793.0772696581787,810.7863212903372,825.3455536899735
1731654706.8751526,785.2084151999233,794.2242486965432,811.5747637318912,824.0638640672445
1731654706.8756502,777.7708738840543,795.784493325013,810.3750304692015,821.6316814501398
1731654706.8770924,778.8723638347502,797.5299574481813,807.4444886398778,820.2854277729845
1731654706.8809848,790.270912907632,799.5067437125796,803.7381056636093,821.0174930028638
1731654706.884455,806.0469033061514,801.8033893804507,800.3951146048037,822.8911413888598
1731654706.8848772,816.8168312619193,804.1434526749412,798.2916361728734,823.8542739290415
1731654706.8887696,816.7686599492735,805.7926781467398,797.8228905868871,822.3351518467066
1731654706.8907726,807.9545173601417,806.0502715410785,798.91253651746,818.4576655304496
1731654706.892662,798.4257535083057,804.9813567797033,801.1354494099351,814.0262059539616
1731654706.8945153,795.7340137420315,803.6685113364675,803.8314214389736,811.2569857474963
1731654706.8965545,801.064567524229,803.5800180549074,806.1960267998264,811.1095189072558
1731654706.900447,808.7186004509542,805.4501522558262,807.4535661806417,812.4479651698584
1731654706.9043396,811.228604565261,808.6056602289475,807.1644810282125,812.7758474559939
1731654706.9063923,805.741311497775,811.3924882614594,805.493655058263,810.1447621938105
1731654706.908232,796.3409323994988,812.4296499886826,803.1447136837419,804.8583090498538
1731654706.9121244,790.5102705898269,811.6511887152517,800.8934604190008,799.617495476167
1731654706.9133806,792.8810773557391,810.2306855292398,799.0643123866063,797.854983307786
1731654706.9160168,801.5693973951035,809.4631698375694,797.4259876217611,801.3568181694013
1731654706.9193654,810.0273597431514,809.6315849683874,795.6243390428268,808.85068219679
1731654706.9199092,812.6461614531547,809.8960356399649,793.7513913588741,816.6306247306816
1731654706.9220123,809.3044444280173,809.2674467937044,792.5007234172102,820.9003464379197
1731654706.9238017,805.1048371095668,807.6900052281752,792.7340222827527,820.2692602747152
1731654706.927694,805.6847851104451,806.1783208455231,794.8105303555141,816.6099393682595
1731654706.9315865,812.206662380402,805.9132636470258,798.2229184767207,813.573862939364
1731654706.932246,820.3035246049617,807.2213653302503,801.8140292194777,813.8253061594255
1731654706.9354787,823.8041670403815,809.4151129018098,804.4064303015632,817.1550634548696
1731654706.9376323,820.0151167412597,811.5481379850996,805.4200880193241,821.0104068491345
1731654706.939371,812.13563848662,813.2451788518377,805.1101892035847,822.9335720350757
1731654706.9432638,806.8753466751455,814.807503491039,804.324152056506,822.6824290869873
1731654706.9471562,809.2488337028216,816.6189757467317,803.9739944137984,822.1065456400486
1731654706.9510486,818.6239548703177,818.5434956220248,804.5742799911735,823.013024905264
1731654706.9511113,828.9756605035964,819.8799996721233,806.0997908729423,825.2048143101626
1731654706.953252,833.1245588187423,819.8200261890643,808.1433933091369,826.6625544139634
1731654706.9542758,827.9142731263615,817.9557080588032,810.1526002106234,825.6870720352941
1731654706.954941,816.5943454876015,814.5038514197375,811.5734135389009,822.8756530662691
1731654706.9588337,806.5299505762669,810.2302101590238,811.9249770625165,820.9574220008287
1731654706.962726,803.7357760196663,806.1981076366947,810.9104153210955,822.5562675241417
1731654706.9666183,808.3642769374515,803.4205759840194,808.5620452568753,827.874068007725
1731654706.968872,814.8218194438068,802.480171709329,805.3019932811584,834.2879492126908
1731654706.9699764,816.4830441809205,803.2600062134178,801.835717263051,838.0822743566106
1731654706.9705107,811.0139070998981,804.9622537573656,798.9222809125223,836.803809268332
1731654706.9744031,801.7920256846659,806.4707492640403,797.1210434290348,830.5365984013864
1731654706.9782956,794.4521677080752,806.9125760301382,796.5820110453315,821.528163597827
1731654706.982188,791.9040734639028,806.1346571744585,796.9361711201957,812.7662496973177
1731654706.984492,792.29596922179,804.82049877069,797.3781209981436,806.4700839045893
1731654706.9860804,791.4913194672174,804.1342792827578,797.0020199105554,803.1893228109024
1731654706.9888418,787.5392316736752,805.0352689848523,795.2875121519826,801.7996978190367
1731654706.989186,782.9778504331888,807.6285699406403,792.4583424445023,800.3245827808528
1731654706.9899728,782.8269751301774,810.9569588864774,789.446233404531,797.1427538592175
1731654706.9938653,789.9250401808544,813.4224683316619,787.4247171719464,791.8869089308815
1731654706.9977577,801.6748713855305,813.6476866814257,787.1635833868709,785.4921394352734
1731654707.0001118,811.2676520621345,811.2807901989669,788.581313781833,779.4501368813942
1731654707.00165,812.729435429143,807.2490080354883,790.7612033945154,774.9010551164762
1731654707.0055425,805.7132267478888,803.3062897189965,792.4278670287797,772.215135777546
1731654707.0077069,795.9102172223251,801.1659554106084,792.6083022007223,771.186839715776
1731654707.0094347,790.5769570541775,801.7345944384673,791.0820167322355,771.445634591855
1731654707.0133274,792.8944390690325,804.836316113194,788.3629716345222,772.6690812440709
1731654707.0157318,799.8868182306161,809.4774323274984,785.2962274260116,774.5789004917401
1731654707.0172198,805.4916965891365,814.4040725549664,782.6284595264511,776.9964051726209
1731654707.0211122,805.9354871846084,818.6144904366421,780.8565840590142,780.0667075528376
1731654707.0240965,802.7539943534376,821.6058660582804,780.3193005105562,784.3299522260386
1731654707.0250046,801.0385682341813,823.3421413515871,781.2329663947525,790.2215249122346
1731654707.0265722,804.6554862432287,824.0775301393473,783.4742954109194,797.1564731585576
1731654707.0288973,812.7066463304946,824.1840416858055,786.2766574405017,803.1276523628436
1731654707.0313518,820.3701135417587,824.047211926821,788.2548652927039,805.7462939325544
1731654707.0327897,823.4635154842543,824.00727781862,788.017723563464,804.440221663138
1731654707.036682,822.696781133361,824.294841285604,785.1280854111874,801.9748632303504
1731654707.0405746,823.519142791431,824.9366181154056,780.7205386941271,803.2757663806005
1731654707.044467,831.1241645340331,825.6585835143028,777.1463329730468,811.565117953537
1731654707.0454376,844.7052573050287,825.8663525869016,776.6843202531737,824.6840530056909
1731654707.0469716,856.3120517630155,824.7979409109892,780.1466560847313,835.2322724818708
1731654707.0483594,856.0047689319833,821.8711682844273,786.3934940170582,835.3161140676118
1731654707.0522518,839.4003195951758,817.0913767132201,793.1129941994337,822.4425565211602
1731654707.0561442,811.3392378920477,811.2518665637118,798.267880533134,801.6476688971679
1731654707.0590067,782.6557546499856,805.6930561447599,801.1722841192648,782.0512322577456
1731654707.060037,762.9419725022157,801.652755198215,802.5515532072245,770.7620999098759
1731654707.0625916,755.2586157564048,799.6137474969823,803.7348737286421,768.8897504761655
1731654707.063929,756.3182035913328,799.1595384361775,805.6662658609039,772.0454557994962
1731654707.0643027,760.5855276759662,799.4275513414176,808.3776996241058,773.9911099196776
1731654707.0678215,764.1604664268866,799.7100201391107,811.1373870489152,770.4152292197167
1731654707.071714,765.9552744477372,799.7314949580958,813.0467506723054,760.7801333477184
1731654707.0756063,766.664294236292,799.5495921201016,813.6483467333788,747.9834709416381
1731654707.0782115,767.2794299651712,799.3209954121984,813.1655994331282,736.5901298319554
1731654707.0794988,768.2894832080478,799.1444287829621,812.2671085140801,730.543837985201
1731654707.083168,769.6579520496866,799.0311491001106,811.58690733894,731.2464758626166
1731654707.0833912,771.1441820280368,798.9474910018947,811.3856827219873,736.8896391998315
1731654707.0872836,772.5697674859598,798.8614092642628,811.5564535465248,743.5155931278545
1731654707.091176,773.8944228906137,798.7615318577134,811.8551865943305,747.3003707880259
1731654707.0938315,775.1623769808281,798.6524514165015,812.1085366367581,746.6332408622287
1731654707.0939171,776.4265519584428,798.5427321276553,812.2736876883123,742.6339539829055
1731654707.0950685,777.7105509026682,798.4372749210272,812.3880504382812,737.934172003578
1731654707.0989609,779.0106417469848,798.3363250794083,812.4993120852974,734.8866811148764
1731654707.1020334,780.3136914832018,798.2379545680635,812.6295338661021,734.6638235665954
1731654707.1028533,781.6107498052186,798.1404866612397,812.775921328835,737.6928387588949
1731654707.1067455,782.9002745490413,798.0433806413404,812.9267477841671,744.4914001352658
1731654707.1094513,784.1848881856529,797.9469017355208,813.0737997209482,755.5631345633291
1731654707.110638,785.4673792054112,797.8514752838889,813.2155373740587,770.0995726809213
1731654707.1145306,786.7488781804524,797.7573091492515,813.3542851471555,784.8309642001398
1731654707.118423,788.0291125415229,797.664367877325,813.4926099478615,794.7631793419541
1731654707.1208985,789.3074019369226,797.5725142020253,813.6316129203155,796.0329447402943
1731654707.1223154,790.5833516872372,797.4816328911924,813.7711108847295,788.9697454627697
1731654707.1250713,791.8569717343178,797.3916674336517,813.9105166846725,778.7683407615127
1731654707.1262078,793.1284489110043,797.3025950004875,814.0494698410608,772.7694326936646
1731654707.1288276,794.3978915082496,797.2143931220024,814.1879655513227,775.9569070585787
1731654707.1301005,795.6652413633458,797.1270316400329,814.3261869416596,787.7899476892034
1731654707.133993,796.9303988187004,797.0404895334831,814.464314203952,802.6951717106515
1731654707.137885,798.1934758994302,796.9547701169322,814.60244351056,813.9693443709821
1731654707.1397638,799.4549614575203,796.8698817896981,814.7406054799541,818.3287111184718
1731654707.1406913,800.7155063632404,796.7857748014723,814.8788169829319,817.818343138965
1731654707.1417775,801.9751970955662,796.7022778984573,815.0171148313622,817.7994928816154
1731654707.14567,803.2327155021095,796.6191315692802,815.1555555928012,822.7435851548393
1731654707.1495624,804.4854457778962,796.5361971463132,815.2941916804846,833.1082849834804
1731654707.153455,805.7316132765964,796.4537685810832,815.4330464976199,845.4271865834775
1731654707.156311,806.9740320825078,796.3726681168698,815.572115621249,855.0701936624324
1731654707.1573474,808.2221471874124,796.2936997871673,815.7114120942135,859.2949126002558
1731654707.1586292,809.4871438117699,796.216403834369,815.8510399937609,858.5045538053905
1731654707.16124,810.7680394489134,796.1379959955239,815.9912263220732,855.316784533307
1731654707.1637378,812.0370146304599,796.0542792555453,816.1322127959406,852.5196898701669
1731654707.1651323,813.2442932717044,795.9638197186952,816.2739817987463,851.378968498575
1731654707.1690247,814.3614004786349,795.873647713762,816.415995752648,851.2422416451063
1731654707.171931,815.4507924164717,795.8002249571772,816.5573460689618,850.4681634228388
1731654707.1729171,816.6955278387981,795.7580083588874,816.69763767039,847.8481813374566
1731654707.1768095,818.2925548698818,795.7358318618068,816.8382985818521,843.4037097717062
1731654707.1774943,820.1829389806846,795.6794343076593,816.9829746415313,838.0468743312741
1731654707.180702,821.792177099367,795.5141597575441,817.1352218620314,832.6520015278838
1731654707.1845944,822.1631203387523,795.2295804622353,817.2932656607003,827.5903895873821
1731654707.187551,820.7833651291892,794.9896586478492,817.4455521921398,823.1962135768114
1731654707.1884868,818.7464532030315,795.1559949228246,817.5746021483645,820.550765464751
1731654707.1923792,818.9511138902309,796.1175610823525,817.6745555884884,821.5199567976224
1731654707.1962717,824.2024589728986,797.9979483085191,817.774994832881,827.6349607337647
1731654707.1963596,834.1915359156385,800.5237360316543,817.9445276341021,838.5537608206512
1731654707.1986482,844.3484093961367,803.2539786642476,818.2414126323976,851.4277155490535
1731654707.200164,848.4828834328999,805.9704056102917,818.6107203744532,861.9877995856276
1731654707.2031708,843.5626570328704,808.7883040091396,818.8003528120292,866.90976123634
1731654707.2040565,832.6554792923127,811.819061672546,818.4237894154429,865.9125985525792
1731654707.2079487,823.2559387227891,814.7213463028604,817.2138260984822,861.9504244992972
1731654707.211841,821.8766515708176,816.6549539056776,815.2587665041217,859.0492881474813
1731654707.215225,828.9597594688381,816.784079306615,812.9047596646594,859.1455154741764
1731654707.2157338,838.2467216159046,814.927322724835,810.3775577783885,860.325371116442
1731654707.2187908,841.4100536780217,811.7866729000721,807.6105262806632,858.1000939842011
1731654707.2196262,834.493964807115,808.5729810931524,804.5430519193407,849.0910479777178
1731654707.2235186,821.0582451117293,806.3726696509441,801.5128782081175,834.398608645084
1731654707.227411,809.4489698212769,805.7486716199651,799.2018056357279,819.7782235188911
1731654707.2313037,806.3754554976437,806.7576880408407,798.1033022161859,812.0003306559928
1731654707.2335584,811.9707653575841,809.1782878825531,798.0302011617913,813.892587631929
1731654707.23409,820.2152929344638,812.6583510774722,798.196264019125,821.9707443133556
1731654707.2344108,824.1588116850726,816.7053494740205,797.8934471659322,828.7853085502167
1731654707.235196,821.526102617642,820.6685552474656,797.211886799002,828.3532434729398
1731654707.2390883,816.1413635112425,823.867049921354,797.1231750765428,820.4392966822143
1731654707.2429807,814.1890731626384,825.8343153955196,798.7254081746439,810.3428403500102
1731654707.2468731,818.6686727202102,826.4931482112522,802.1741415853909,804.560181239571
1731654707.2500305,826.8669087635081,826.1085227605946,806.1828105359003,806.0099920741238
1731654707.2507656,832.9842211390055,825.0537613991024,808.6191368758606,812.5761793638575
1731654707.2529554,833.5148459719817,823.5808423276382,807.8844907043693,819.6637574925128
1731654707.254658,830.5630654184364,821.7636156422013,804.0869038484387,824.1300727534042
1731654707.2585504,830.0878470214855,819.6123770040883,799.0745434214568,826.1755642513515
1731654707.2624428,836.5033297977901,817.2080808141592,795.2252772236066,827.9350937184408
1731654707.2656505,848.2712897084106,814.720455978801,793.8736530954934,830.4970701097276
1731654707.2663352,858.3496696888775,812.3272534704914,794.5485686922315,832.2887616970348
1731654707.2684689,859.2938716452686,810.1553024500337,795.5036914671549,830.2927266311441
1731654707.2702277,848.9408966798129,808.2956295676324,794.9897202469721,822.8766952793314
1731654707.2718208,832.1884673925273,806.821242796581,792.2879408652195,811.611288956636
1731654707.2741203,817.6282909116808,805.7578016343202,787.9587771525631,800.5138580469635
1731654707.2780128,811.8372582060405,805.0889555047725,783.4531901571941,793.5209287211264
1731654707.2812705,815.6252481188671,804.8640131452534,780.500738995451,792.3447087679768
1731654707.2819052,824.5232269966385,805.2571248051887,780.4862966549564,796.0990328386245
1731654707.2857976,832.3364617491628,806.3399416466019,783.8400758849958,802.303913972544
1731654707.28969,834.7064941682654,807.6547720147312,789.604863659413,808.0508524617201
1731654707.290686,830.510288375103,808.1063128694715,795.572273325423,810.7898161039061
1731654707.2935824,821.1312131415722,806.5848291324814,799.2363601403512,809.0771127037741
1731654707.2968905,808.9497795655732,802.9838751778723,799.2141504781698,803.3804661408727
1731654707.2974749,796.1515200494653,798.6439440555127,796.2125623613797,796.1425876383072
1731654707.3013673,784.1765336315001,795.5769725999496,792.7114268872472,790.3815028476346
1731654707.3033793,773.8023648745959,794.9560917700262,791.4076629775227,787.5815403040646
1731654707.3052597,765.7241330186172,796.1644062461704,793.4773549155279,786.8108406360717
1731654707.309152,761.0798644205262,797.2834339612411,797.9362397824456,786.1019103380104
1731654707.3095512,761.1288455128043,796.6248811021998,802.5293234101476,784.793567494325
1731654707.3125105,766.0198007024253,794.02231857594,805.3806169212738,784.3853607722916
1731654707.3130443,773.8368497042143,790.8986487063676,806.130692362577,786.9683624832925
1731654707.316937,781.300463010917,789.1915380128943,805.8299490544815,792.875872286225
1731654707.3208294,785.9573824491886,790.0216701622969,805.8608345804123,800.0050844602588
1731654707.3247218,787.9146078043465,792.9800557813903,806.8080457896889,805.4895405088848
1731654707.3281302,789.2923271782101,796.3605768532625,808.1048831740408,808.0521186320585
1731654707.3284166,791.7464333603056,798.1115181918258,808.6347658700582,808.8393922419992
1731654707.3286142,794.4408304912685,796.9716200431819,807.738091352303,810.116215654338
1731654707.332507,794.5735226423535,793.1768438106525,805.7755332488466,813.1384081675732
1731654707.3363993,790.1728034141346,788.3034523829676,803.7818806229888,817.0756769475862
1731654707.3382895,782.6415452931203,784.3043868015922,802.5420945628284,819.7940319058703
1731654707.3402915,776.5203057163986,782.3705497652597,801.9492014099344,819.7214153941859
1731654707.3437502,776.2422566774005,782.4144139684809,801.2485816507092,817.1982148417959
1731654707.344184,782.3639765643884,783.4885246690937,799.9379902438219,814.2053032745642
1731654707.3472817,790.5541950051112,784.6956607931581,798.4575374104534,812.7272910587429
1731654707.3480763,794.6125876592699,785.7987592329638,797.9804186873329,813.1650418565216
1731654707.3519688,791.3811908498624,787.0925581584752,799.448402364848,814.1776942210168
1731654707.3558612,783.4675737376738,788.7910019266917,802.7069526967299,814.0512246205359
1731654707.35937,777.2158413000172,790.5709888569542,806.5159496647965,812.2636947207035
1731654707.3597536,777.3686699487777,791.6814446539604,809.4216750424695,809.7394285104986
1731654707.363646,782.8701095440566,791.4564670858127,810.7224853334125,807.6039200392116
1731654707.366147,787.4284827858581,789.7281577765937,810.7336591934211,805.7594324977962
1731654707.3675385,784.456062154313,786.8116763254901,810.2328250032447,802.753638280858
1731654707.3714309,772.3791355887579,783.1952822330235,809.6840164002574,797.097444975972
1731654707.3732,756.1030604680855,779.3243631904093,808.9576788565732,788.7858284870258
1731654707.37499,743.5567025086756,775.6789179869168,807.7285631324017,779.6212708700454
1731654707.3753233,740.0420437216776,772.935021498242,806.0663280957136,772.0432388348443
1731654707.3792157,744.6912908232464,771.8344885684594,804.5704944210115,767.4569210533755
1731654707.383108,751.620724885125,772.6939003628245,803.9176415884461,765.459146468427
1731654707.3850124,754.6708432878986,774.9851936167252,804.3618910786272,764.5604049137004
1731654707.3870006,751.7920558981484,777.5480306174909,805.7864462614907,763.6304244189187
1731654707.39061,745.6375949799514,779.4822233048695,808.2023222514786,762.6468419970183
1731654707.390893,740.4892562122109,781.0273692035228,811.9428263808122,762.1984919262429
1731654707.3947854,738.807106261648,783.5433577540252,817.0948020360557,762.5933832012066
1731654707.398678,740.2552161726131,788.4021501984035,822.7100960184308,763.5862574724871
1731654707.4025705,743.0628975909272,795.6224599070592,826.8266210779304,764.7297275016783
1731654707.4038775,745.734434086297,803.4261149184887,827.5825222712419,765.7448202689749
1731654707.4062295,747.751068306193,809.1730026696126,824.5168284801514,766.5972759070039
1731654707.406463,749.3135385132553,810.996089308292,818.8865395563665,767.3788430944076
1731654707.40811,750.7985082522407,808.9311073554478,812.7739914798012,768.1779797647525
1731654707.410355,752.4204187433426,804.7994958487261,807.8330991035948,769.026482168965
1731654707.4142478,754.1892679897443,801.0629863568087,804.6500357164902,769.9119974633115
1731654707.4181402,756.0207792985015,799.5307466411285,802.9484409879016,770.8110037747005
1731654707.4218495,757.8428473960043,800.7316496217933,802.1603786295333,771.7099700732185
1731654707.4220326,759.6337480356572,804.130993966519,801.8282925820029,772.6082106128621
1731654707.4227428,761.4071024653229,808.7450732980919,801.6955485120166,773.511086567748
1731654707.425925,763.183337208742,813.5949019234952,801.6405312285367,774.4233061020658
1731654707.4298174,764.9731676670274,817.8383160236899,801.6082365234307,775.346452925665
1731654707.43371,766.7765683385921,820.8242569754931,801.5768900008243,776.2798765122093
1731654707.4374695,768.5890424526682,822.2707335917503,801.5420838321287,777.2224709444961
1731654707.4376023,770.4071113480226,822.4129581950808,801.5062060686132,778.1737241758154
1731654707.4414947,772.230038378717,821.857435525131,801.4719584096591,779.1337980241116
1731654707.4416082,774.058857046177,821.1995207172249,801.4401241153884,780.1031415028268
1731654707.4430206,775.8948475689992,820.7381901833302,801.4100511413322,781.0821451085246
1731654707.4453871,777.7387281851384,820.4751895341458,801.3808359008258,782.0710286706575
1731654707.4492795,779.5906588921727,820.2861382683799,801.3520150372486,783.0698996181852
1731654707.4530897,781.4505919383575,820.0710566756684,801.3235961089993,784.0788480228434
1731654707.453172,783.3185521266794,819.8032259595805,801.2957793108823,785.097997948187
1731654707.4570644,785.1947114673112,819.5042206464518,801.268718448404,786.1275077582342
1731654707.4604733,787.0793285027703,819.202938775992,801.2424475495029,787.1675481194827
1731654707.4609568,788.9726674387092,818.9133954829198,801.216924342893,788.2182841173448
1731654707.4648492,790.8749597123237,818.6344705286215,801.1920967481656,789.2798705172289
1731654707.4687097,792.7864085736159,818.3592543454422,801.1679377016466,790.3524559835371
1731654707.4687417,794.7072091412722,818.08268145604,801.1444446191709,791.4361885581307
1731654707.472634,796.6375603230285,817.8036585947073,801.1216240102373,792.5312173958811
1731654707.4765265,798.5776617078918,817.5234969201877,801.0994793387986,793.6376899464275
1731654707.477931,800.5277033284308,817.2437352608704,801.0780078676363,794.75574731265
1731654707.4793386,802.4878631479492,816.965061704489,801.0572033186527,795.8855228584047
1731654707.4804187,804.4583235267282,816.6873810836944,801.037059344212,797.0271488373769
1731654707.484311,806.4393015066871,816.4103327973372,801.0175711808936,798.1807703150222
1731654707.4843297,808.431062988446,816.1336786124434,800.9987355676786,799.3465549401374
1731654707.4882038,810.4338779513008,815.8573922434707,800.980550122032,800.5246787326518
1731654707.4920962,812.4479045031682,815.5815647694019,800.9630129858467,801.7152768506216
1731654707.4959886,814.4730767898926,815.3062900075385,800.946122674925,802.9183844350234
1731654707.4982038,816.5091649385134,815.0316129097878,800.9298776060284,804.1339401369802
1731654707.499881,818.556147599866,814.7575372568666,800.9142751567259,805.3619300089849
1731654707.4999492,820.6147695375877,814.4840539080382,800.8993111234677,806.6026484407859
1731654707.5037737,822.686718644677,814.2111600597129,800.8849811705578,807.8568517868069
1731654707.507666,824.7736598743234,813.9388625489186,800.8712849830367,809.125438751935
1731654707.5115583,826.8750138584417,813.6671725185558,800.8582307039278,810.4084941383034
1731654707.5128412,828.9860439502959,813.396100353506,800.8458335359126,811.7042412728102
1731654707.5154507,831.0994413793176,813.1256544436006,800.8341027528245,813.0093045575411
1731654707.5155692,833.2127442052355,812.8558418652007,800.8230206141945,814.3216381165626
1731654707.517069,835.3385434950459,812.5866672486289,800.8125331060671,815.6453995468013
1731654707.5193431,837.5063367633036,812.3181285858207,800.8025816741062,816.9932636973907
1731654707.5232358,839.7422527581718,812.0502138928973,800.793184207416,818.379416428084
1731654707.5271282,842.0267634078068,811.7829064344727,800.7845128822323,819.8010485301088
1731654707.5310206,844.2626451233334,811.516202852089,800.776851536317,821.2199932126198
1731654707.5311892,846.3133270714967,811.2501346918292,800.7703347281954,822.5713797941636
