timestamps,eeg_1,eeg_2,eeg_3,eeg_4
1731654916.3935995,807.0992423168142,804.5315428646493,805.3008170759916,814.07151290665
1731654916.4040306,808.4733263836615,803.8279838816125,805.6284658102944,814.701216056554
1731654916.407413,806.7574054648807,802.5869368382755,805.0872055639254,813.359533474684
1731654916.407939,801.4880588017628,800.898889850853,803.324514716941,809.6342107752055
1731654916.4092002,795.3821712929126,799.5997095929674,800.7410822989182,805.2516558296084
1731654916.411847,792.2837935872909,799.7628707088173,798.2961965618827,803.248726486447
1731654916.4157555,794.049073660148,801.9221691914267,796.9741409485332,806.1797720630851
1731654916.4196637,798.9453429713766,805.5631637922822,797.2387158607958,814.4724172743862
1731654916.423572,803.0458408781542,809.2179287745837,798.8293690239582,825.9921718335071
1731654916.4248006,803.5403818494034,811.1238934887092,801.0093998006329,837.060027133316
1731654916.4262934,801.0697616600985,810.1307032221491,803.0515097449722,844.2236863547251
1731654916.4274805,798.951789222063,806.4235211970763,804.6031937832898,845.7402567586926
1731654916.4313886,799.987030008072,801.6339055418621,805.7055498486309,842.0965472367833
1731654916.435297,803.8095848703484,798.1145716094888,806.5165252712637,835.5148337796397
1731654916.4392054,807.2550350982765,797.6501527971872,807.0103358890926,828.8488149856973
1731654916.4404013,807.3698335564177,800.3909778354378,806.9403533486555,824.4551218525243
1731654916.4431136,804.2107081192647,804.786589571421,806.1313180274939,823.5167997375689
1731654916.4451735,800.8244305323087,808.5896529521577,804.8467020551961,825.9212470390817
1731654916.447022,800.4407261725394,810.1683354522238,803.8381977137096,830.4226435636341
1731654916.45093,803.4269252029983,809.1916236342262,803.919712112848,834.8456599232549
1731654916.4548385,806.7212329292176,806.3848310381123,805.3619172006236,836.5047031558543
1731654916.456002,806.2867866443471,802.835198456927,807.6365877803411,833.2144393910374
1731654916.458747,800.5638993487175,799.5139081813377,809.7695981141727,824.7318264342435
1731654916.4626553,792.0589953628245,797.2109509843302,811.0083484336859,813.59904236128
1731654916.464054,785.7258340350019,796.5647314483126,811.2159700464965,804.2487992947697
1731654916.4665637,785.4085872408148,797.8611218803823,810.6793193628095,800.4156226642474
1731654916.4704716,791.1851676273272,800.6940087176683,809.6013365354668,802.5013573104567
1731654916.471603,799.6591059811251,803.8924281433809,807.8592031387353,807.0200710554977
1731654916.47438,806.7539326414899,805.9734585740786,805.3215034516254,808.8981461723051
1731654916.4782884,810.5243023026096,805.9206337477929,802.3985966522656,805.160115043348
1731654916.4821966,811.7055012446057,803.756483115265,800.1728292553631,797.2464549747588
1731654916.4829345,811.9232647871913,800.4886903950355,799.7869289305016,790.0944954596013
1731654916.486105,811.5841104847957,797.4784429523557,801.4891353940598,788.5920881090111
1731654916.4872031,809.5486966840185,795.700411296156,804.1676156534171,794.0882376024423
1731654916.4900131,804.8255530550184,795.3781195544589,805.9088766246648,803.5835524770381
1731654916.4933455,798.541351806905,796.1152174672162,805.2905840439645,812.0818734874966
1731654916.4939215,794.1224892407711,797.2704455316558,802.4580101878881,816.144881014978
1731654916.49783,795.1656146499845,798.2590133160627,799.1205489223609,815.913729720328
1731654916.501738,802.5230168952739,798.6736557320752,797.4100811544431,814.2666761604162
1731654916.5018153,812.9813697454308,798.3218352179745,798.4194190488581,814.1039606906476
1731654916.5028038,820.8495796984065,797.2732620670142,801.4684318288237,816.0650723661959
1731654916.5056465,821.5566228680954,795.8795294359468,804.568102334123,818.3356877724349
1731654916.5095549,814.6861923523876,794.679955100054,805.6831582919618,818.3580920408135
1731654916.513463,804.1447650224219,794.2192431974119,803.919668060078,814.8848007198862
1731654916.5173714,795.3249815414331,794.9117042297661,799.9539317817854,808.8892989170915
1731654916.5184045,791.4947169978536,797.0154544780352,795.5945014601871,802.9340734023591
1731654916.5206954,792.1781366618364,800.6047802990231,792.8558225852202,799.611748362983
1731654916.5212796,794.5152524344911,805.4110830677096,793.0609114034951,800.0471357919741
1731654916.525188,796.1038897090269,810.6209719870143,796.3428864052481,803.2953973440943
1731654916.5283363,796.8150793676715,814.9148704377486,801.6727885300447,806.9977010345207
1731654916.5290964,798.2486299148175,816.9191971410479,807.3290813105725,808.932016914147
1731654916.5330043,801.6467589405491,815.8931059197758,811.5813796125241,808.441470228128
1731654916.5340047,806.3209094741898,812.2148801480026,813.3075929782447,806.7169320560631
1731654916.536913,810.0213354589887,807.3089371359113,812.315379882763,805.7275700817095
1731654916.5395758,810.844603657618,802.996087246118,809.2788458994853,806.6122803399177
1731654916.5408213,808.8628656114124,800.6127415129073,805.3730439028141,808.7245568823253
1731654916.5447297,805.9252093264801,800.4048273086465,801.8069969261322,810.0163149844399
1731654916.548638,803.8115363262042,801.5559481422424,799.4481326447951,808.4967005721109
1731654916.5496056,802.5170292024188,802.82117541242,798.6182122320464,803.7534739310935
1731654916.552546,800.3428336702823,803.3425275688397,799.05114578053,797.4310127237596
1731654916.5564544,795.7169862148986,803.0987427685466,800.0206753231809,792.2355716540567
1731654916.5584562,788.999560255386,802.7004987218467,800.672302023073,790.1258133465273
1731654916.5603628,782.584574468846,802.7180479638137,800.4804842676242,791.0533984475815
1731654916.5633273,779.2424736314157,803.0840495230542,799.5650096754418,793.2575555868876
1731654916.564271,780.1655850558725,803.0686856974686,798.5971439089496,794.8333105428136
1731654916.5652063,784.2366414135724,801.8718249638159,798.3127610080977,795.164237339917
1731654916.5681794,788.8830259235708,799.3560915565481,798.9859341963638,794.9582261158697
1731654916.5720875,791.742271756173,796.3103346066488,800.261707047567,795.0226810096394
1731654916.575996,792.0463102137015,794.0320320888989,801.446634522714,795.1981539076095
1731654916.5773363,790.9888202222202,793.5874086722089,802.0006131885849,794.6471497956611
1731654916.5799043,790.9236294496926,795.3139099918048,801.8774615078403,793.1441119999068
1731654916.580807,793.8558812933177,798.8245939680089,801.5454187778022,791.827623644051
1731654916.5838125,800.1651185872271,803.330609268852,801.7461868599847,792.4056948846292
1731654916.5877209,808.4383570226613,807.9525464708188,803.1364423125729,795.4932951601028
1731654916.591629,816.4947593803279,811.8808457866191,805.9407297002457,799.7667489004145
1731654916.5955374,822.7188992255694,814.4668579614253,809.748860434821,802.8712659285349
1731654916.596217,826.6331393232524,815.3460839387533,813.5973196628804,803.3167262960096
1731654916.5964074,828.4618529226465,814.5673312600006,816.3716357489207,801.6532739499471
1731654916.598318,828.40589441542,812.6131032464883,817.3549117010517,799.8856960225687
1731654916.5994458,826.4551499292821,810.2343044358307,816.589806358371,799.6692872842779
1731654916.603354,822.8229287423263,808.1393330976002,814.7889088648028,800.8950999048368
1731654916.6072624,818.3903836857058,806.6930519931187,812.8285457768661,801.9193392960254
1731654916.6111708,814.588278019997,805.8188204185118,811.1861055036668,801.2301625450483
1731654916.612008,812.7157663985744,805.1853640146974,809.7439026336916,799.0285889692924
1731654916.6150787,813.1648408483898,804.5294730389917,808.0890757620341,797.2264273577316
1731654916.6150973,815.0731806015234,803.8248786710126,806.0301873537342,797.8025668924136
1731654916.618987,816.6829719707138,803.1604698334912,803.8910351826072,801.0409044682629
1731654916.6228957,816.2995390814847,802.5219691379464,802.3561325816511,805.3236440779991
1731654916.626804,813.3242227709601,801.7918939507335,802.0179869814311,808.5805511552792
1731654916.6276088,808.6419340580744,801.0065788418133,802.9934958922034,809.8479635935918
1731654916.6307125,803.9933002742351,800.545216992869,804.8840924276684,809.5547027645488
1731654916.6333086,800.7412906461914,800.9323323592711,807.0596276713762,808.7057463944291
1731654916.6339777,798.9961425962117,802.3466634297539,809.0031522118139,808.0301792804859
1731654916.6346204,797.8124236254683,804.2969704331948,810.4541798683225,807.7168666168722
1731654916.6385288,796.2673414493865,805.8290526889851,811.3115517657694,807.6154756240294
1731654916.642437,794.4470524143105,806.1424179390035,811.4922318155193,807.5273739900746
1731654916.6432092,793.4105894718983,805.1063489404548,810.9594458935944,807.3584235520399
1731654916.6463454,794.0870614021634,803.2636504017945,809.893904363718,807.1185768618208
1731654916.6502538,796.0728787385223,801.3839844658362,808.7271884954812,806.8564092085093
1731654916.652858,797.5229180542344,799.9906421716186,807.8237712476238,806.6067635066825
1731654916.654162,796.4589363338675,799.2070311466953,807.0188887921062,806.376800701573
1731654916.6580703,792.5161410447382,798.9121862606501,805.5457290623934,806.1572921961242
1731654916.65881,787.5885224806395,798.9592828032459,802.6301204566884,805.93771196486
1731654916.6619785,784.6474643646299,799.2732268508909,798.3324226943034,805.7135337383048
1731654916.6658869,785.5868697098151,799.8391663033494,793.8274067426912,805.4856188257904
1731654916.6682994,789.8694113500967,800.6859397652656,790.7509459686378,805.2565870166376
1731654916.6697953,795.0948801926519,801.8934769015547,790.1111355262227,805.0281584503688
1731654916.6717386,798.9255461232892,803.5374428635619,791.6600920710257,804.8005738830864
1731654916.6737034,800.6379727719335,805.5055962220265,794.172335925274,804.573270658752
1731654916.6744106,801.0132247619727,807.3121852543071,796.296593619222,804.3456759423448
1731654916.6776118,800.9021743699149,808.184424769133,797.2951312125732,804.1175542625767
1731654916.6815202,800.0563072570645,807.5319048112825,797.247070338284,803.8889457309882
1731654916.6854284,797.475894212277,805.5015697394691,796.7637720602879,803.6599668759029
1731654916.6893368,792.9124155771191,803.1083568026582,796.5195178061701,803.4306781823686
1731654916.6900113,787.88761154402,801.7242195022126,796.8775883516631,803.2010656569611
1731654916.690619,784.990954143418,802.2535210103346,797.757508221084,802.9710847281983
1731654916.6932447,785.937041804814,804.5861894538449,798.7549341267313,802.7407008840838
1731654916.697153,790.1605621714704,807.7016810721695,799.4065346066311,802.5098944078131
1731654916.7010615,795.2530414693114,810.3347488960217,799.4291800473443,802.278635786453
1731654916.7032902,798.7861842269122,811.7251031903703,798.8184339354501,802.0468645981555
1731654916.70497,799.8408608379603,811.9169567007206,797.8219599428205,801.8145098875882
1731654916.7056117,799.0628440126899,811.4697402679476,796.8656817869828,801.5815641760737
1731654916.7088785,797.5976811929328,810.9446647456806,796.4526120885831,801.3481628331172
1731654916.7094994,796.1229180673988,810.6060077310733,797.0021139609715,801.1145567270014
1731654916.7127864,794.6747079798454,810.4425027055702,798.6640518706316,800.8808783696508
1731654916.7166948,792.9722220402866,810.3370802332308,801.2354768600965,800.6467708508518
1731654916.7206032,790.7026017442228,810.2021581559256,804.2571150224027,800.4112387377187
1731654916.7212124,787.747503200667,810.0181399010967,807.2019907038886,800.1732321526654
1731654916.7245114,784.5815303442878,809.8070831342401,809.6035926154814,799.9330867937913
1731654916.7283795,782.5654732457863,809.5952251531165,811.0935056564136,799.6938613339257
1731654916.7284198,783.4403354873693,809.3942215512989,811.4485609495335,799.4604915687947
1731654916.7323282,787.9819224174624,809.2021794417408,810.6980502536137,799.2350943729316
1731654916.7362363,794.9781696936005,809.0125625151968,809.192962776022,799.0101392202807
1731654916.7368133,801.7819659436689,808.8209184408964,807.5172457767179,798.7665801487559
1731654916.738281,806.139981678527,808.6264677381143,806.2643561406366,798.4862286069682
1731654916.7401447,807.5726210988313,808.4304915240233,805.8180529562801,798.1792247477243
1731654916.744053,807.1548077315854,808.2343508320749,806.2353519028942,797.9065560545517
1731654916.74726,806.2976907491463,808.0385851981964,807.2400085675503,797.7578726213991
1731654916.7479613,805.8149817507796,807.843038386569,808.3352624396531,797.7561775043866
1731654916.7518697,805.8006237243819,807.6473470525348,809.0592066877304,797.726723273853
1731654916.7524135,805.9952854621007,807.4512800759853,809.2801648597593,797.2602439930873
1731654916.7557778,806.1546606829141,807.2548016864614,809.2582904012585,795.9092014171105
1731654916.7596862,806.1951443879244,807.0579764285263,809.2939718768545,793.574430236053
1731654916.7635944,806.1549839315761,806.8608655312096,809.2061906379902,790.793789201691
1731654916.7661405,806.1011015226733,806.6634843391018,808.2067031540715,788.6365637289302
1731654916.7675028,806.0710163164443,806.4658125928146,805.4839842797733,788.1812975013311
1731654916.7680142,806.066217164696,806.2678210075038,801.1087137987447,789.8473739371606
1731654916.7714112,806.0718153892412,806.0694882557393,796.425512619232,792.9843842418502
1731654916.7732718,806.075221557668,805.8708032209346,793.4364769489468,796.0479581953733
1731654916.775319,806.0727354502496,805.6717595181823,793.5491057726832,797.3724606728058
1731654916.7792275,806.0668240109594,805.4723501214372,796.6380673765801,796.1318668788866
1731654916.783136,806.0610978358916,805.2725654002764,801.1215489639903,792.8780986012528
1731654916.7836149,806.057437346791,805.072393856762,804.9425408035902,789.2594191060614
1731654916.7850208,806.055838607853,804.871823572132,806.7152191903713,787.0430608234532
1731654916.7870443,806.0555244280595,804.6708430653994,806.3139054405804,787.0615981164668
1731654916.7909527,806.0559050344361,804.469441371585,804.6801521790657,788.819072168052
1731654916.7948608,806.0568737995585,804.2676077388543,803.1213501682209,791.0751217283494
1731654916.7987692,806.0586323509884,804.0653313481528,802.5735640786536,792.9817064424826
1731654916.7992156,806.0614226468623,803.8626012166776,803.2102349776358,794.8362015646607
1731654916.8026776,806.0653864433036,803.6594062576448,804.5265509621923,797.760088196068
1731654916.8039012,806.0705672998438,803.4557354161568,805.7521267886782,802.5277042200561
1731654916.8065858,806.0769725711937,803.2515778122125,806.2932502498294,808.5677327866935
1731654916.8082626,806.0846224217731,803.0469228130399,805.975554917097,814.0660414900956
1731654916.8104942,806.0935626105849,802.8417599331283,805.0591716237651,817.1591808606693
1731654916.8144023,806.1038536899305,802.6360785171574,804.1188520808731,817.2652820245171
1731654916.814816,806.1155567903261,802.4298673796767,803.8374967532906,815.4729008769151
1731654916.8183107,806.1287267957293,802.2231148637708,804.7038786552779,813.6774729380929
1731654916.8222191,806.1434129357366,802.0158097968097,806.6967099400332,813.1576077019206
1731654916.8227818,806.1596621723512,801.8079431628591,809.1869345961113,813.7080218244073
1731654916.8261273,806.177521648873,801.5995090339358,811.2393716873661,813.9832256352078
1731654916.8300357,806.1970391831393,801.3905024435904,812.1782922882063,812.7536294381363
1731654916.830417,806.2182625901252,801.180913254409,811.9875444596285,810.068573538369
1731654916.8339438,806.2412389032901,800.9707196338982,811.19719905085,807.3730355407647
1731654916.8378522,806.266014018112,800.7598901162264,810.3585219803989,806.4222498802338
1731654916.8416622,806.2926327195217,800.5484026547629,809.5999298208986,807.8374932085674
1731654916.8417606,806.3211388374373,800.3362755199715,808.6642197388624,810.5388740519521
1731654916.8432534,806.3515753409374,800.1235808512054,807.3235151110567,812.6127329505791
1731654916.8456688,806.3839843285351,799.9103981621001,805.6990480993821,812.8941316387135
1731654916.8460174,806.4184069617602,799.6966957434998,804.1870295589777,811.8425388734958
1731654916.8495772,806.4548833983553,799.4822167285165,803.1722954264395,810.908771101163
1731654916.8534856,806.4934527500901,799.2665416365412,802.8985317187598,811.0078986166299
1731654916.8573935,806.5341530610536,799.0494705864098,803.5603537051985,811.5802199073931
1731654916.8605423,806.5770212922868,798.8315936138954,805.3318941800125,811.1846955324054
1731654916.861302,806.6220933032112,798.6144695579873,808.1279960684986,809.0980179663342
1731654916.8616178,806.6694038285095,798.3996342324673,811.3028208079793,806.3653563207671
1731654916.8652103,806.7189864538262,798.1863267314716,813.7010671701564,805.1706277183338
1731654916.8691187,806.7708735936583,797.9695387716338,814.2037216238925,806.928734473536
1731654916.873027,806.8250964720266,797.7416515238452,812.4226016546311,810.7446448423733
1731654916.8769352,806.8816851035383,797.5000402706954,808.996181397002,813.6727948177015
1731654916.8772185,806.9406682715731,797.25751123587,805.2311962366236,812.722686378989
1731654916.8782442,807.0020735032762,797.044163815245,802.3493704294715,807.1031514057053
1731654916.879423,807.0659270474438,796.8866218645533,800.8749823994135,798.976237202078
1731654916.8808436,807.1322538666277,796.7648824107875,800.5314740342928,792.1034099410023
1731654916.8847518,807.2010776502453,796.5800584856437,800.6063153706201,789.3166215937767
1731654916.8886602,807.2724208352287,796.1950954652841,800.4524514640995,790.6257313490468
1731654916.8925686,807.3463045934495,795.5883377097425,799.806508102286,793.3624405278998
1731654916.8928192,807.4227487410684,795.0533713591925,798.8270635011543,794.2929299287362
1731654916.8964767,807.5017715806608,795.2374462176297,797.9582772379483,792.1392988252408
1731654916.8983033,807.5833898007827,796.8144062701431,797.7467845993277,788.6043639720461
1731654916.9003851,807.6676186411755,799.9019278888682,798.6361647462763,787.1270562426675
1731654916.9042935,807.7544724235206,803.7326249469783,800.724910076069,790.3207987975647
1731654916.9082017,807.8439651505208,807.0087063113668,803.5858051726943,797.9895942693638
1731654916.9084198,807.9361103842448,808.7345101803015,806.3512758027103,807.1025644910613
1731654916.91211,808.0309196174901,808.8389880484079,808.1541500862559,813.670393393331
1731654916.9132347,808.1283995014632,808.1043456521763,808.69789171209,815.2344369451841
1731654916.9160182,808.2285504394321,807.5200570928878,808.5128761815993,812.3855121680834
1731654916.9171836,808.3313704013458,807.5928631403201,808.6124463482896,808.3676130798026
1731654916.9199266,808.4368653404406,808.0966566286302,809.7295619611258,806.9775265921908
1731654916.923835,808.5450598295337,808.372081397965,811.6932320807788,810.0786131556531
1731654916.9240203,808.6559927510048,807.8943191191033,813.4282029636745,816.4030020152495
1731654916.9277432,808.7696844856546,806.6804348838536,813.5812395808189,822.4657024826677
1731654916.9316516,808.8860854986732,805.275471772837,811.3283819323517,824.8393693245692
1731654916.9355595,809.0050563963051,804.389245942335,806.866239658892,822.0633160868779
1731654916.936064,809.1264502045436,804.4883565200664,801.3724907341563,814.9876192429641
1731654916.939468,809.250312877952,805.6085849403102,796.5119621559485,805.8041091100247
1731654916.939621,809.3770674138905,807.4154554447207,793.7107516013127,796.910583857916
1731654916.9433763,809.5073921980296,809.354699536786,793.5109979816295,790.3565257047383
1731654916.9472847,809.6415648383282,810.7713269854997,795.3670168095862,787.6597554996604
1731654916.9482255,809.7785163267002,811.0459445462685,798.0676806324976,789.4533769253621
1731654916.951193,809.9155862493767,809.848079675716,800.5279461317687,794.9794162140943
1731654916.9549444,810.050264876041,807.4272950039109,802.342683204788,802.0760590306096
1731654916.9551015,810.1840253184032,804.6545881371272,803.6692812687381,808.1270192549247
1731654916.9552217,810.3254474339217,802.6050721738246,804.6316566798761,811.4774082147553
1731654916.9590096,810.4871524079687,801.8733428605525,804.9081221952223,812.1566944825516
1731654916.962918,810.6727927102619,802.1559715733724,803.9677899011717,811.3569990514641
1731654916.9668262,810.8598145805,802.499461276985,801.7304259332952,810.330805821105
1731654916.9707346,810.997432143569,802.0498585787262,798.950894116283,809.6989256870006
1731654916.970822,811.0429027611355,800.6957375621203,796.8665695464672,809.4633907973674
1731654916.9738247,811.0340731222947,799.1121633825287,796.3567301760368,809.3722128773397
1731654916.974643,811.1405270761546,798.2369071329567,797.3376415667046,809.2259727249676
1731654916.9785511,811.58960079445,798.619817410282,798.9078267208084,808.9738554721979
1731654916.9824595,812.405760758881,800.0913554640138,800.0937726707814,808.6611339523156
1731654916.9832163,813.0852055571876,801.925998595286,800.5517485720092,808.3462505484046
1731654916.9863677,812.5638049678561,803.3703202393848,800.6685242568379,808.0568482448871
1731654916.9864228,809.8249292423457,804.182375788189,801.0473246760546,807.7900833548931
1731654916.990276,804.9440197627513,804.7745901766257,801.8804627145275,807.531798054778
1731654916.992705,799.6136212129225,805.7829294748237,802.7771126352196,807.2718268639144
1731654916.9941845,796.2654844351348,807.352502438528,803.1916301698147,807.0080797074505
1731654916.998093,796.179516732876,808.7736295832462,803.0436045979179,806.7432501899275
1731654917.002001,798.1823191191846,808.9139659073854,802.9265547968087,806.4804106505328
1731654917.0020237,799.2317677154884,807.2049527615686,803.6703859369851,806.2208809393603
1731654917.0059092,796.594564697385,804.3490768403608,805.6306269282084,805.964406621833
1731654917.0098176,789.9824359735333,802.0441519492725,808.3399662766112,805.7102198227269
1731654917.0115857,782.0217445756319,801.8453484832952,810.817577613383,805.4578180428688
1731654917.013726,776.658612099329,804.0649813471433,812.2413960836202,805.2071347067592
1731654917.017624,776.5837644292675,807.5989579971631,812.4274516441628,804.9583375494387
1731654917.0176342,781.46691027486,810.7689818117399,811.8198466511975,804.7115862015503
1731654917.0182073,788.2385854357865,812.4296192844988,811.1315988843722,804.4669205837158
1731654917.0215423,793.217051458697,812.4655392349886,810.9523591760102,804.2242852492739
1731654917.0254507,794.5636198905729,811.4476388020453,811.4915296433851,803.9836229062943
1731654917.029359,793.3247931011017,809.9687957626492,812.4478724343948,803.7449645965744
1731654917.030466,792.3650538245598,808.3352921289887,813.0207668545786,803.508449181413
1731654917.0332246,794.0441269961386,806.7690434780834,812.1885486430292,803.274217079644
1731654917.0332675,798.3991445745935,805.6724876331633,809.292768523379,803.0421905774888
1731654917.0371757,803.1793201445125,805.4746951238968,804.6420634517056,802.8119006209761
1731654917.041084,805.6505140436228,806.14295962296,799.616860978429,802.5826556982348
1731654917.0449924,804.7301907595468,806.9602490459624,795.98309616669,802.3542505867556
1731654917.0488253,801.8020828774227,806.9982931182783,794.7553122202103,802.1279000059249
1731654917.0489006,799.6501276202074,805.9746793077184,795.454570220221,801.9063421342865
1731654917.0493464,800.4098729780608,804.6697241852746,796.4422172695388,801.6918637576937
1731654917.052809,804.0870624156283,804.3998980366775,796.1888963199874,801.4823619900133
1731654917.053198,808.6467583549153,805.9185212781123,794.5138348280587,801.2685625919737
1731654917.0567172,811.4943383919191,808.6752179667267,792.7635127746507,801.037972318521
1731654917.0606256,811.2339041955373,811.0765429465204,792.7413492373393,800.7887534953588
1731654917.064426,808.4703760177829,811.5484984039655,795.2625844300572,800.5465176613685
1731654917.064534,805.1372812138196,809.5753357422664,799.5305572571987,800.3635104240699
1731654917.0682268,802.8983815932544,805.9706790740488,803.7938088531021,800.2780525057307
1731654917.068442,801.8675569503768,802.2703635399471,806.629401051027,800.2405942388377
1731654917.0723505,800.6909047302034,799.764256055814,807.7442435776085,800.0699536079399
1731654917.076259,797.9887327517579,798.8553278871611,807.7560438200508,799.5445149894066
1731654917.0800264,793.984637252539,799.0978330535577,807.3684369762841,798.6782928881448
1731654917.0801673,790.8435016252917,799.7299668688869,806.7650998653588,798.0363897433577
1731654917.0840757,791.2256010669581,800.2084071896245,805.6519790494625,798.7161703209422
1731654917.0871072,796.1242700277977,800.3921292335842,803.721313652058,801.6730809730977
1731654917.0879836,803.808554005611,800.4012266128933,801.0456010078944,806.6592972748732
1731654917.088189,810.8755077739858,800.3951924098118,798.1341313904454,811.7605202709811
1731654917.091892,814.6695490693587,800.4515193532001,795.7283992866967,814.3429800795437
1731654917.0956273,815.1419533042617,800.564274077709,794.5493149882835,812.9240813883544
1731654917.0958004,814.6304189208823,800.6954550408543,795.1258510493208,808.3839509222464
1731654917.0997086,815.735316747292,800.8170537199405,797.6928580181759,803.3837259648269
1731654917.103617,819.0696971881509,800.9228730260947,802.0781165708662,800.4596559933956
1731654917.1059875,822.8001514672658,801.0199732940762,807.5577371342243,800.4003436517114
1731654917.107525,824.3780201927158,801.1167101722112,812.807651091817,802.1398828245185
1731654917.1112278,822.9273940837454,801.216783125018,816.1649111166132,803.9830192853536
1731654917.1114335,820.1232212758374,801.3195865159524,816.2666184535576,804.9144881361137
1731654917.115342,818.7150518070688,801.4230504507959,812.7957033153234,804.9681943344287
1731654917.11925,819.9994283886072,801.5257767729754,806.8365275095401,804.7132348745711
1731654917.1231585,822.5349741474726,801.6275374750027,800.5079131097359,804.6130071519075
1731654917.1231797,823.2717022029069,801.7287578202967,796.0095134195645,804.7832690492663
1731654917.124868,820.0775160767249,801.8298860371603,794.5984480562785,805.109525526948
1731654917.1268284,813.4398293495962,801.9311081017147,796.0287247690791,805.4470696359765
1731654917.1270669,805.9534484946454,802.0323890676302,798.7159160258321,805.727699797548
1731654917.130975,800.1991235153697,802.1336289278275,800.5652389384062,805.9583896511664
1731654917.1348834,796.9218529175001,802.234770302013,800.1143321019971,806.1739399299045
1731654917.1387916,794.9635707199038,802.3358181079229,797.4107080819874,806.3993028021875
1731654917.1424289,792.7600847036418,802.4368091034409,794.0452405690033,806.6395615569859
1731654917.1427,789.91519677502,802.5377789561533,792.2075654075417,806.8880442442852
1731654917.1437483,787.4768989202279,802.6387489222008,793.3353916946756,807.1371575237496
1731654917.1466084,786.7963096492978,802.7397293569438,797.2897319049501,807.3836188989426
1731654917.1505165,788.0828949649614,802.8407281924078,802.5888444558957,807.6280114440393
1731654917.154425,789.9916672233333,802.9417559270304,807.4048603661884,807.8721761952687
1731654917.1580296,790.6838805948387,803.0428255608302,810.5368875317047,808.1173043735855
1731654917.1581705,789.5280726315715,803.1439503348065,811.7909696530542,808.3635225835478
1731654917.1583333,787.9761451380665,803.2451428365092,811.7568303808752,808.6103792151634
1731654917.1622417,788.7275399738904,803.3464170788083,811.3074372685621,808.8574145260441
1731654917.162629,793.6884210468423,803.4477918894999,811.1200642916798,809.104410224816
1731654917.16615,802.298024527212,803.5492909873742,811.3796717270131,809.3513443034906
1731654917.170058,811.5825773578142,803.6509351911582,811.7536588246296,809.5982460579419
1731654917.1736302,817.947840524216,803.7527282272986,811.6455452598578,809.8450987206259
1731654917.1739664,819.3820150249218,803.8546487576845,810.5790244728908,810.0918263928273
1731654917.1778746,816.5148805252128,803.956668604297,808.4670526926465,810.3383311719826
1731654917.1815093,811.9414828304652,804.0588053289416,805.6242309158304,810.5845325522391
1731654917.181783,808.4658297534056,804.1611781640082,802.5914425082582,810.8303770105925
1731654917.1856914,807.4956251381977,804.2639903583097,799.934825144876,811.0758081777059
1731654917.189231,808.4967104709162,804.367365986229,798.0991680378055,811.320714482772
1731654917.1895995,809.6472252981824,804.4710854166824,797.3014195426683,811.5649024338371
1731654917.1931612,809.1644684008734,804.5744695756023,797.4704902246525,811.8081588640316
1731654917.193508,806.4813983162776,804.6767786246497,798.2945820431713,812.0504212005646
1731654917.1974163,802.5730708699904,804.7782278652004,799.3923553150396,812.291948826729
1731654917.2003896,799.2327535197145,804.8809627693798,800.5112432209736,812.5332493657814
1731654917.2013245,797.7787208093885,804.9885213803551,801.6219593889908,812.7745443283743
1731654917.2048314,798.1257430817561,805.1025586133173,802.862585865348,813.0149411657505
1731654917.2052329,798.9597776165903,805.2179608627262,804.3827812062478,813.2521258990809
1731654917.209141,798.903140420039,805.3213135510995,806.1733910436569,813.4837132092953
1731654917.2130494,797.674468988571,805.399385091261,807.9720247844037,813.7104896210417
1731654917.2169578,796.181227166394,805.4585442870407,809.3257886110249,813.9393462371015
1731654917.21927,795.4470940382881,805.5412739596602,809.8107123977499,814.1812256287953
1731654917.220432,795.4377050523676,805.7115728721095,809.2716616759775,814.4404524592185
1731654917.220866,795.0246924427167,805.9881189430286,807.9108120853307,814.6995241675911
1731654917.2247744,793.233946046231,806.2497430923393,806.1945436937333,814.9154366875588
1731654917.228152,790.5822838820862,806.2036987089837,804.7027780362021,815.0481500316844
1731654917.2286825,789.0818695781908,805.514787228811,804.0065089607627,815.122330978343
1731654917.232591,790.6932086853678,804.0687216298895,804.5003711241312,815.2764006213814
1731654917.2360325,795.5149313700877,802.1806796432139,806.1206398163168,815.7096369287051
1731654917.2364993,801.3499423520394,800.5653452437259,808.1221753582807,816.4655829296963
1731654917.2381504,805.1368962666961,800.0471448861351,809.2562094443176,817.1389742298625
1731654917.2404077,805.1556237691932,801.1244302504244,808.4546259008844,816.7984732534826
1731654917.244316,802.2902999466859,803.5955116742025,805.6244097822369,814.4372030269936
1731654917.2482245,799.400439117403,806.5268615537361,801.9159060760204,809.8626444254049
1731654917.2516332,799.2852619245937,808.7081799030739,799.1656502977784,804.3397485256808
1731654917.2521324,802.7238091709353,809.3498677213834,798.8511441079893,800.2292765960632
1731654917.2560408,807.9786044240637,808.504053714933,801.2602672605135,799.6462282467623
1731654917.2570307,812.0859585614835,806.8886828514497,805.3914809891744,803.0699487864956
1731654917.259949,812.964673840712,805.3098660156957,809.5753634103361,808.9180705412917
1731654917.2631428,810.7833666549955,804.1945964746786,812.365420185388,814.3556275550069
1731654917.2638574,807.6151656115168,803.5704173564194,813.1550015572983,816.8081307896725
1731654917.2672338,805.7510323796647,803.375857946195,812.2268213313712,815.312437216346
1731654917.2677658,806.0556330899883,803.7078114516535,810.3277467635601,810.9712461996821
1731654917.271674,807.6077448644935,804.7394230095535,808.1337971354195,806.2345850922009
1731654917.2755823,808.7432259013492,806.4024521571,805.9683885964911,803.3953571201612
1731654917.275911,808.4979672651862,808.1657741244961,803.8869490095769,803.2384812488083
1731654917.2794905,807.2340685947421,809.1646015214643,801.9460151498955,804.7513883730725
1731654917.2828343,806.0152374986735,808.6461420169433,800.3630275142308,806.0613280745189
1731654917.2833989,805.3768340077037,806.445506638104,799.414002331332,805.8429200507322
1731654917.2873073,804.6394823498114,803.1688797734554,799.1757045148472,804.1208178888148
1731654917.2912154,802.4553411833252,799.9457584363902,799.3792628770565,801.9616006634091
1731654917.2947917,798.2140734866168,797.878788404615,799.5684219289103,800.4886380093897
1731654917.2951238,793.1211422535046,797.4955471551167,799.4926156994502,800.116057203242
1731654917.2981336,789.8965342798884,798.5148018158553,799.4191274323659,800.5195118141536
1731654917.298435,791.0953201993913,800.0871483914151,800.0478558000941,801.119384536735
1731654917.2990322,797.2167783693833,801.3656826674169,802.0098506893647,801.5225879817518
1731654917.3029404,806.0727331943672,801.9784567820169,805.3077271178679,801.6389764799601
1731654917.3068488,813.9901580682664,802.0640456199486,809.163088846668,801.5667397990048
1731654917.3107567,817.9922382280956,801.9649773234139,812.4225171379584,801.4391786893922
1731654917.313672,817.3418013188347,801.9291201633374,814.1982068254206,801.3352986256923
1731654917.3140357,813.4248369987258,802.0190869470146,814.2446949712286,801.2677616471759
1731654917.3146653,808.3552889084351,802.1820948093512,812.8751067522946,801.2148321250631
1731654917.3185737,803.617490133418,802.349835026196,810.6612486765905,801.1541938655753
1731654917.322482,799.7649238399829,802.4903655480144,808.2557622998157,801.0773915552371
1731654917.3263905,797.0737639783576,802.6074535369371,806.3580764404526,800.9872294494619
1731654917.3296363,796.1836151899939,802.7179026676098,805.5630635273673,800.8895704823042
1731654917.3302984,797.8848685439034,802.83363678948,805.9888886752192,800.7878853945226
1731654917.3325524,802.1561948489923,802.9570397235528,807.0094669231781,800.6824004105308
1731654917.3331244,807.4316705732143,803.0849102301689,807.531125165129,800.5717575222816
1731654917.3342068,811.0506332361045,803.2136505639805,806.7803095815522,800.4547185051525
1731654917.3381152,810.8591745782061,803.3417438414863,804.9684758870129,800.3308234077103
1731654917.3420234,806.8126366292125,803.4695183492965,803.1815596142874,800.2001883728393
1731654917.3452368,801.2065111933529,803.5978931352943,802.5140320889993,800.0630599538608
1731654917.3459318,797.1531347612831,803.7274696613185,803.1678470113534,799.9195433128772
1731654917.34984,796.352577791973,803.8583397740057,804.2648193944889,799.7695749995604
1731654917.3514328,797.8534674249041,803.9903212856432,804.4878020066628,799.6130177995542
1731654917.3537483,798.7921542541595,804.1232296442422,803.002643045896,799.449748694711
1731654917.3576567,796.6136655396994,804.2569950347199,799.9774762550105,799.2796889326314
1731654917.3608377,791.171860224794,804.3916404340494,796.4232546616447,799.1027907442004
1731654917.3615649,785.1572811619319,804.5272154330175,793.610639272282,798.9190142996026
1731654917.3654733,782.4372877817896,804.6637544987229,792.535131575705,798.7283152416561
1731654917.3681152,785.3596848489003,804.8012715224071,793.6913955029852,798.5306439661532
1731654917.3693817,792.9008819705433,804.9397679150151,797.0529531141135,798.3259484680207
1731654917.3703132,801.0909273424058,805.0792319430947,802.0281476756828,798.1141747314346
1731654917.3732898,805.5742488385807,805.2196295660269,807.3933351867097,797.8952662160883
1731654917.376438,804.5103701667597,805.3609098596661,811.4863281296597,797.6691691956933
1731654917.3771982,799.62029432,805.5030487336769,812.8605805580229,797.4358474773798
1731654917.3811064,794.5670589360402,805.6461189987338,811.1157660256937,797.1952973217708
1731654917.3850148,792.0314264102296,805.7903152696069,807.2261823876435,796.9475394738256
1731654917.3889232,791.9337706009618,805.9358335290251,802.9399789628872,796.6925683109008
1731654917.3891935,792.2158086085403,806.0825863433338,799.6382144181388,796.4302749116736
1731654917.3920388,791.3269796426123,806.2299504129055,797.6173081076809,796.1604216445351
1731654917.392831,790.1057344152355,806.3769574564052,796.3941300870766,795.8827739713894
1731654917.3967395,791.3510134738781,806.5232396338869,795.6239009144115,795.5974066140428
1731654917.400648,797.4095625445311,806.6703560585743,795.6314252009134,795.3049703051797
1731654917.403106,807.7892111338089,806.8220772732045,797.0270677862549,795.0064789769264
1731654917.4045565,818.827833065966,806.9818314827219,799.8816153758183,794.7022904906402
1731654917.4076393,825.8683571483136,807.1472593453752,803.3835464910576,794.3906926332602
1731654917.408074,826.420391405934,807.3059558609468,806.3671271406785,794.0676257145474
1731654917.408465,821.8844868146109,807.440159282252,808.197050673544,793.7294509471319
1731654917.4123728,816.3689652132023,807.5454244520361,809.1467717586225,793.3787748982811
1731654917.4162812,813.426668133076,807.6546401671701,809.911320388601,793.0288995382633
1731654917.4201896,813.3888068590306,807.8394244617967,810.7326646620168,792.6985518626545
1731654917.42324,813.586787732837,808.1564259768489,810.9992775744132,792.3914945500454
1731654917.4240978,811.2199376772717,808.5421719697299,809.7549034202223,792.0700923366755
1731654917.4269545,806.2316480799262,808.7369545572217,806.6919535129008,791.6516756549061
1731654917.4280062,801.5980556181264,808.3742700820709,802.7070968729773,791.0584088282963
1731654917.4319143,800.8178331657112,807.2864865059818,799.4544426642358,790.3043169583301
1731654917.4358227,804.8195254858,805.8146414934128,798.2373358294669,789.5263322658593
1731654917.4380968,810.888424811693,804.7486823913739,799.1761829276977,788.8867465321357
1731654917.4388406,814.4922832489322,804.8109623351008,801.3087709646273,788.4528226412291
1731654917.4397311,812.624513765128,806.0911128724376,803.4207250450728,788.2499769032827
1731654917.4436393,806.1536066311824,807.9211856698627,804.8154067283559,788.4485372156104
1731654917.4458346,799.3636338006168,809.2801784001061,805.4352108514585,789.3493502525017
1731654917.4475477,796.9064377663116,809.4253283261152,805.4489477483853,790.9664283350268
1731654917.4514558,800.3873065863015,808.3488643681605,804.8920895013072,792.5512276555162
1731654917.4544413,807.2392413830523,806.7903800173364,803.7689659475936,792.7501965464395
1731654917.4553642,812.8417234165935,805.7912878375495,802.4481851446494,790.663808482464
1731654917.4592726,814.1775913717564,806.0634401500002,801.8151926461212,787.0920241327264
1731654917.4631808,811.951827109262,807.5839258289657,802.8533159253916,784.7019589332132
1731654917.464715,809.3957689356768,809.6702953621567,805.8957101584884,786.5216838501094
1731654917.4670892,808.9266734628725,811.426356338526,810.1684829628896,793.6338110218384
1731654917.4700418,809.7415491723303,812.1988073307351,814.0682373350899,803.86553164874
1731654917.4709976,808.5170037254833,811.7711601029173,816.0391837272067,812.7047536734419
1731654917.4730875,802.5539877756058,810.311134025101,815.4329711836939,816.0130804783305
1731654917.4749055,792.5760795416032,808.2515913592333,812.7471956810406,812.6949436243846
1731654917.478814,782.7689281048225,806.1853552826217,809.133707546522,805.425685186117
1731654917.4827223,777.9967518436584,804.6903386047824,805.638004415613,798.8891182717142
1731654917.4835956,780.3499288175936,804.0391475466841,802.7899677580135,796.7425756944481
1731654917.4856424,787.5865216401763,803.9652319337467,800.7693668389142,799.4106803389056
1731654917.486631,794.5714128875951,803.7536009179761,799.7902023951827,804.1437436389709
1731654917.4905393,796.697350540472,802.6972906286894,800.1603965552465,807.0961226904415
1731654917.4944472,792.9084944703268,800.6054382436804,801.8775752091725,805.824973057131
1731654917.4983556,786.2086865265113,797.9639467091076,804.208381542438,800.5900614268147
1731654917.501243,781.3329797559021,795.6565131839056,805.8450428123325,793.9518209759993
1731654917.5022638,781.3786619512335,794.5220952413329,805.7357142836129,789.2981125483234
1731654917.502476,785.948159104912,795.0645024759115,803.9854650655576,789.2324631613042
1731654917.5061722,792.0522153856286,797.3652135892429,802.0062610159345,794.4211612950207
1731654917.5080783,796.7589526337874,801.0567893774399,801.6357969413257,803.220930169094
1731654917.5100806,799.3014468673829,805.3093350284878,803.8179793122786,812.3448440555682
1731654917.5139887,801.0572629780287,808.9662710485693,807.8550382535315,818.4952986941622
1731654917.5168436,803.7143875340148,810.929748305972,811.7961682737969,820.1506392455987
1731654917.5178971,807.3742100162037,810.6470597685528,813.6219679365414,818.2466461017049
1731654917.5213563,810.2348519044793,808.383155481843,812.3424252985377,815.1269793226941
1731654917.5218053,810.0895609854933,805.076193092454,808.3586995903006,812.5595702620723
1731654917.5257137,806.3480442887758,801.8493702555896,803.0849801638806,810.5121084807035
1731654917.529622,800.8323905918239,799.458023518286,798.2494877595645,807.7420009804273
1731654917.5324442,796.585641117067,797.976285343741,795.258904114679,803.5592251694126
1731654917.5335302,795.6100869941755,796.8968569209679,794.7759752152632,798.981160475348
1731654917.5374386,797.4275330485602,795.5927818118796,796.5404309820549,796.0830752992505
1731654917.5402367,799.7048196185998,793.867348754928,799.4853032031967,796.1400643238444
1731654917.541347,800.3830763907156,792.2337824129033,802.1767438280244,798.3948199174025
1731654917.5430691,799.3817864830826,791.701710914193,803.4331817584281,800.706301509259
1731654917.5452552,798.3347026851055,793.1420675025904,802.800713343316,801.4786851694713
1731654917.5480447,798.6750892249732,796.5916261919493,800.6106314333441,800.9917308366847
1731654917.5491636,799.972479148937,800.9672001090569,797.6511488056032,800.8550147577589
1731654917.5530715,800.1698418383645,804.4745242763101,794.7749620322603,802.1867646037717
1731654917.55698,797.5205157087656,805.5596263468326,792.7306423156135,804.3628729015807
1731654917.5591173,792.4107025460195,803.8252532777967,792.1809582754922,805.5553084666518
1731654917.5608883,787.3986982305162,800.2780057852185,793.6362937833985,804.4857794426833
1731654917.5636454,785.4307032242074,796.7073474457219,797.1786865992005,801.6930094618754
1731654917.5647967,787.7088096398824,794.6251199174768,802.2032968167308,799.1727280225145
1731654917.568705,792.8477938224812,794.5028415794891,807.5038261743787,798.7969873851039
1731654917.5726132,797.8610602184413,795.7711718733434,811.7211695076043,800.9366800326347
1731654917.5765216,800.1796414199032,797.4330928063764,813.8271418426054,804.3765991794487
1731654917.5779974,799.2776811376661,798.7251704876445,813.3558141803961,807.4065816426267
1731654917.57806,796.8461695489955,799.3696213200514,810.4429695557568,809.056943073933
1731654917.579246,795.4777390085329,799.4136391601331,805.8891071819905,809.5508023587024
1731654917.58043,796.8247289144698,798.9780259707745,801.1867286606499,809.8725772838397
1731654917.5843382,800.5356151282646,798.1732745577949,798.1572988401961,811.014697228573
1731654917.5882466,804.7075256010335,797.1653355385664,798.0789393206198,813.4470822996326
1731654917.592155,807.4609406229423,796.2264777014022,800.8377689188123,816.9342212419899
1731654917.5948467,808.37308998725,795.6932500056384,804.9129584762078,820.5873008917443
1731654917.5960631,808.625289155292,795.8879179408534,808.3944955482099,823.1507120048514
1731654917.5968778,809.7807630275726,797.0582989178305,810.2504041457505,823.6089992687724
1731654917.5999715,812.2443530242532,799.30283782282,810.7627920359859,821.9169821125874
1731654917.6038797,814.721681347456,802.4505139399374,810.8212950692289,819.258053401081
1731654917.607788,815.1942664673504,805.9891677123321,810.838056949299,817.3703922183912
1731654917.6104474,812.7050803542413,809.1919525243525,810.3483158428423,817.2967833661869
1731654917.6116965,808.5342290317753,811.4292361505976,808.618152533015,818.6284324968195
1731654917.6130507,805.6935665202617,812.4273286867083,805.5735612932781,820.0155261461091
1731654917.6156046,806.9053939095479,812.2627370676809,802.086096208071,820.536306276101
1731654917.6157582,812.4955421845881,811.1884842809911,799.3320299137064,820.6259164246856
1731654917.619513,819.9010482655303,809.5870779376338,797.8741114295193,821.6301012012273
1731654917.6234212,825.3734028735917,808.1156834001039,797.3712170298262,824.3696976786881
1731654917.6260478,826.6884158324524,807.7089757084743,797.1635778646003,828.1075739338607
1731654917.6273296,824.7214700610924,809.1121218953333,797.0852596073764,830.9965683431459
1731654917.631238,822.5699385356778,812.1568888011186,797.6372329270974,831.6850255585094
1731654917.6346383,822.9251301543198,815.4763977566988,799.3403667561948,830.5624925665483
1731654917.635146,825.8666632935931,817.1401052203419,801.9643757228176,829.3431550923709
1731654917.6390543,828.8595350081733,815.8901457875036,804.4732608184199,829.2352581172196
1731654917.6416483,828.8556750748813,812.0541729682337,805.7884321112703,829.4070536808318
1731654917.6429627,824.7130411173995,807.4066577231057,805.6338212256235,827.3476628534343
1731654917.646871,818.036730200615,804.072953423947,804.6638078927715,821.0170189813149
1731654917.6480412,811.9511332180115,803.2882890033368,803.8098249178275,810.9755327107991
1731654917.6507795,808.9413683872665,804.8666411925402,803.5170071037257,800.6225789745743
1731654917.6535192,809.4615115306585,807.6392174223039,803.5555918939957,794.2872170868974
1731654917.6546876,812.2115276054401,810.4068129702312,803.4631474292609,794.6644089506717
1731654917.6572492,815.6096418035546,812.6547316351932,803.092270154486,801.4559987619809
1731654917.658596,819.1275835344786,814.57614000222,802.7326373287625,811.9399241745612
1731654917.6625044,823.4041068126611,816.5541895855137,802.750650339068,822.7085600062475
1731654917.6664126,829.1345968249594,818.6515039743259,803.1431473610867,831.1976935834872
1731654917.670321,835.7668570198385,820.5250557049546,803.447720487102,836.1485755929746
1731654917.6723995,841.2068214234472,821.7005706462143,803.1088560547201,837.1600512943324
1731654917.6728497,842.9450051146014,821.8304793839262,801.9905122965092,834.1360183720067
1731654917.6742291,839.8797390631638,820.7340518297693,800.5894778069905,827.2970710688415
1731654917.6781375,833.4674549489356,818.3913585008629,799.7438777967102,817.7114099668394
1731654917.682046,827.1611368648058,815.1009228239253,800.0503711214736,807.6337289841755
1731654917.683032,824.2845447177839,811.6505719456505,801.4483326675374,799.9403532526582
1731654917.685954,825.7772062035293,809.1202158039454,803.2785247572103,796.7235487032657
1731654917.6884503,829.5800819260129,808.2492159030948,804.7130899366791,798.0215031620534
1731654917.6898625,832.2815170810533,808.8530817865674,805.178209367415,801.7804675591614
1731654917.69128,831.7411041116047,809.8750444841504,804.5006619152144,805.188715305711
1731654917.6937706,828.4393860692896,810.1087632167397,802.8300870992218,806.3273741341353
1731654917.697679,824.3816269741651,808.9994830148773,800.5421726314877,804.8660343372677
1731654917.7015874,820.7078126726776,806.8955275151983,798.2009589790651,801.5365550621189
1731654917.704051,816.4776221646155,804.679971309233,796.4953014396723,797.2484165229329
1731654917.7054956,809.9466757783957,803.2289124281069,796.0838049863398,792.7490737806975
1731654917.709404,801.0654618747244,803.106665828119,797.3968080408497,788.7952593433422
1731654917.7101605,792.5426499022459,804.4846588236652,800.4643351606026,786.1385736351006
1731654917.7133124,788.1021944634048,807.0346480040319,804.7864079783299,785.0216938479522
1731654917.7172203,789.2991200915651,809.7739746662481,809.2914580028149,784.7188527632113
1731654917.7180228,793.7853308112831,811.196691168435,812.5268901828471,783.8283149559963
1731654917.7196517,796.7701639608285,809.9662379829082,813.187853265369,781.300332079163
1731654917.7211287,794.6100506099984,805.8721064167362,810.821365505246,777.3444807289742
1731654917.725037,787.4888612492302,800.2282879358652,806.2606373580801,773.3181946908257
1731654917.7289455,778.8992962465693,795.1494467692793,801.3853753584871,770.6395691920859
1731654917.7290406,772.6094040279768,792.1774559126611,798.2327619090318,769.7695062234903
1731654917.732854,770.0578901824293,791.4497335572373,797.9653750534131,770.1541125604533
1731654917.735252,770.2146554666002,792.031844657257,800.3276965026025,770.9191033256333
1731654917.736762,771.2101012060921,792.8573205515812,803.9134139202761,771.5019963139216
1731654917.7406704,771.8050668798812,793.3651491986857,807.0601099855613,771.794403959648
1731654917.7445786,771.748183279209,793.5282558254368,808.7768713105363,771.9407151212728
1731654917.747921,771.3510992818061,793.5549748739121,809.084501756591,772.1005300238062
1731654917.748487,770.9667355423666,793.6210726316659,808.6406547960482,772.3392906480246
1731654917.7508528,770.743341272218,793.7773286629479,808.1101676140264,772.6408344336417
1731654917.7523954,770.6480016679403,793.9886930141487,807.80462279052,772.9640168459462
1731654917.7530136,770.590373283681,794.2050014197567,807.7082817285365,773.2827360183115
1731654917.7563035,770.5118933312169,794.400897578967,807.6807930870585,773.5937624491373
1731654917.760212,770.4043129070415,794.5775192161225,807.6179711865274,773.9058213515593
1731654917.7641203,770.2862408872178,794.7466776113763,807.4969355763288,774.2274331183787
1731654917.7664535,770.1762858868689,794.9173916341667,807.3442658321339,774.5618158484068
1731654917.7668014,770.081514493582,795.0918458550348,807.1912647896664,774.9080077713156
1731654917.7680285,769.9997034157418,795.2679242606781,807.0517312967294,775.2639615861119
1731654917.771937,769.9261130294633,795.4429870284854,806.9233281270973,775.6285528324904
1731654917.7758453,769.8579718715259,795.6158217350771,806.7982472463242,776.0018665198021
1731654917.7797534,769.7951751000012,795.7865906784641,806.6712106419598,776.3845645421711
1731654917.782054,769.7389191251175,795.9559496539002,806.5413278318924,776.7772531845548
1731654917.7836618,769.6903022423912,796.1243610113781,806.4101525754211,777.1802458289138
1731654917.7856815,769.6497850839853,796.2919193892698,806.2793202917941,777.593643795798
1731654917.78757,769.6173579338843,796.4585070805508,806.149481511428,778.0175034281823
1731654917.7880044,769.5929074457629,796.6239948602105,806.0204587276205,778.4519357785514
1731654917.7914784,769.5764397164266,796.7883375818226,805.8918309139831,778.8971147913919
1731654917.7953866,769.5681014925619,796.9515641611721,805.7633365101143,779.3532406314281
1731654917.7976546,769.5681004053182,797.1137255513677,805.6349467523911,779.8205063483742
1731654917.7992947,769.5766315081182,797.2748533041083,805.5067521042522,780.2990870912978
1731654917.803203,769.5938543086806,797.4349480176347,805.3788400613349,780.7891468672867
1731654917.804562,769.6199096121404,797.5939957965631,805.2512455709269,781.2908499134332
1731654917.8071115,769.6549455092378,797.752002641415,805.1239618446593,781.8043666564001
1731654917.81102,769.699127004368,797.9090268525487,804.9969670723825,782.3298699334729
1731654917.8132553,769.752618945535,798.0651747879808,804.8702392756514,782.8675230184393
1731654917.814928,769.815551891223,798.2205269548956,804.7437607077436,783.417468115378
1731654917.8188365,769.8880031633431,798.3750105563805,804.6175270212567,783.9798303791526
1731654917.8227448,769.9700361824861,798.5283295619273,804.4915661147884,784.554749307373
1731654917.8229952,770.0618121191808,798.6801272207724,804.3659464376929,785.1424266667914
1731654917.8234427,770.1637044024569,798.8304520192642,804.2407390143809,785.7431430905361
1731654917.826653,770.2762534028751,798.98025266205,804.1159216393903,786.357178043981
1731654917.828856,770.3998163068081,799.1312218148088,803.9912876459506,786.9846215159231
1731654917.8305614,770.534017585038,799.2843523161201,803.8665001150155,787.6252073699086
1731654917.8344698,770.6775343343462,799.4375967572894,803.7414074719275,788.2784389418342
1731654917.838378,770.8289722069228,799.5848431568046,803.6165089570387,788.9442115524093
1731654917.8422863,770.9890046882085,799.7194417436642,803.4930917752988,789.6236858169134
1731654917.8423233,771.1623413038274,799.8431940453326,803.3724045136197,790.3194746398391
1731654917.8444564,771.3564363823157,799.9749857224361,803.2537897612774,791.0339613934103
1731654917.8461945,771.5744915022038,800.1460499863593,803.1331099613487,791.765714859032
1731654917.850103,771.8053542731928,800.3710395361497,803.0041441515083,792.5066876698003
1731654917.8540113,772.0208808929391,800.6049529840784,802.8648669438728,793.2453104292697
1731654917.8579197,772.1944996542828,800.7300263343844,802.7259606822416,793.9788057936959
1731654917.857986,772.3421210622889,800.6321927702779,802.6121557555037,794.7290571131148
1731654917.860057,772.555591296611,800.37723156295,802.5449574942969,795.5436944806848
1731654917.8612034,772.9702409533727,800.3703314771557,802.507241335948,796.46125889467
1731654917.861828,773.6265084187614,801.268339982037,802.4173262093741,797.4435852641246
1731654917.865736,774.28698991932,803.5156493119114,802.1633871547035,798.3306807183603
1731654917.8696444,774.4179217272015,806.7884537339424,801.730064971743,798.9149707156153
1731654917.8735528,773.586847095175,809.9460286811702,801.3611877108682,799.18975366826
1731654917.8756578,772.2711038589447,811.7115729277715,801.5873843810854,799.6553982807525
1731654917.877461,772.5102985328588,811.5410661102385,802.9528252948492,801.3566565226785
1731654917.8800838,777.442631869526,809.9570042316125,805.5350493561008,805.3690405484401
1731654917.8813694,789.3354851459256,808.1694492217445,808.6753953558768,811.9737989038922
1731654917.8852775,807.2814405394492,807.3394923984109,811.259376313,820.2838980781765
1731654917.889186,826.7201052154444,807.9538802763938,812.3672942127951,828.7429726525683
1731654917.8912582,841.7924173814433,809.6370204468601,811.7666204628521,835.980109603003
1731654917.8929768,849.0538855319604,811.4874721074382,809.9367228248024,841.2728691196244
1731654917.8930943,849.7540184749713,812.7206955370925,807.7540546756621,844.5868605504132
1731654917.8970025,848.9266532683873,813.1672541084944,806.1163079784034,846.6334971630982
1731654917.8989642,851.8662577728501,813.2501418340113,805.6251370446809,848.9400453505459
1731654917.9009109,860.3961659824183,813.4716204691255,806.3209319678393,853.3397914312721
1731654917.9048193,871.5507740902189,813.8575484766459,807.5587093479818,860.6592563160004
1731654917.9068587,879.7469898942621,813.8511078010333,808.2307135730808,869.5412470187939
1731654917.9087274,881.0356966762561,812.7647922695105,807.3842877729204,876.8367667557842
1731654917.9126358,876.283970226171,810.4243244292933,804.9063527599559,879.8215708829348
1731654917.916544,870.7096246784583,807.4754875193297,801.7548123896421,878.5832570998012
1731654917.9178443,869.9713331868521,805.0982634317984,799.4891361933068,876.3511154729961
1731654917.9204524,875.853667586634,804.3401368965311,799.3709111512612,877.1636583693916
1731654917.9224596,884.9961642461506,805.5497752051164,801.6049142821105,882.6467321951092
1731654917.9243608,891.6386569940123,808.2579780349058,805.1718952767708,890.541298235782
1731654917.9279675,892.0757324122442,811.4749791418442,808.3401108542329,896.1949094823459
1731654917.928269,887.2105827212637,814.1134565626236,809.5772847474935,895.8493532602806
1731654917.9321773,881.3204435375267,815.301211361332,808.3559781390665,889.2351288710104
1731654917.9360857,878.3529737927922,814.5671783873487,805.3725605940215,879.6536594263736
1731654917.936725,878.9990284601073,811.9802276565234,802.048937530132,871.683244571525
1731654917.9380603,880.8392612944268,808.2073486554422,799.668425798855,868.2986849705346
1731654917.939994,881.014537891022,804.3394880619992,798.732441283332,869.3638107561504
1731654917.9439025,878.7618011484578,801.4383300843439,798.9150993461044,872.2211360026658
1731654917.9478104,875.6283193692029,800.0342539370023,799.520710201816,873.6072211239432
1731654917.9517188,873.5669071157625,799.9381428757586,800.0082828139991,871.5005187736225
1731654917.9536607,873.0143309854877,800.5060099178395,800.2115994530785,865.9596563645644
1731654917.9556053,872.7536213194481,801.1136729047946,800.2317997171835,858.8566312736876
1731654917.9556272,871.4290273869739,801.465096867008,800.2252049129632,852.9198932943951
1731654917.9595354,869.0454855318849,801.5830205413287,800.275304480092,850.5457541024821
1731654917.9629583,867.0006871743806,801.6187719919827,800.3824809815034,852.7579248694863
1731654917.9634438,866.7180018683131,801.6876225249807,800.5112746400308,858.7074652436478
1731654917.967352,868.2307406707325,801.81837957109,800.6330139627557,866.0109952880711
1731654917.9692614,870.0117405970343,801.985040971319,800.7398717847788,871.8108899075128
1731654917.9712603,870.1617102261216,802.1544181011028,800.8378742232646,873.9573246664451
1731654917.974486,867.9070101003432,802.3110208967915,800.9352370462962,871.6655567617051
1731654917.9751687,864.1715676936062,802.4566707868273,801.0359833150773,865.4757062288263
1731654917.9790769,860.7972861801763,802.599509254772,801.1398195289942,856.8231588464107
1731654917.9829853,859.0448669807649,802.74532149303,801.244779397198,847.5552752427906
1731654917.984862,858.521226920191,802.8952781103793,801.3494053842279,839.4628289340019
1731654917.9868934,857.3581727402423,803.0478470851025,801.4533685942812,833.7956513972038
1731654917.9908018,853.5812642990492,803.201303747272,801.5570302051062,830.8931072214363
1731654917.9933662,846.7448548780496,803.3549296004699,801.660821971361,830.1576010853246
1731654917.9947102,838.630016029522,803.5088985663857,801.764935768994,830.4308944678615
1731654917.9979491,832.3357483443601,803.6636700811447,801.86933948325,830.5661100346284
1731654917.9986184,830.1819922368774,803.8195492541714,801.9739229910967,829.8698304636492
1731654918.0004623,831.8197761882205,803.9765934414866,802.0786094814337,828.1831997912788
1731654918.0025268,834.0604379296736,804.1347261083832,802.1833840875171,825.6126731374867
1731654918.0064352,832.8665249517309,804.2938691855319,802.2882709211814,822.1799193810652
1731654918.0103433,826.2525851286051,804.4540016462184,802.3933016001606,817.7301376514455
1731654918.0122466,815.8653479194913,804.6151503321018,802.4984942467346,812.1997959990214
1731654918.0142517,805.8375267888248,804.7773561763039,802.6038413160422,805.9898927987056
1731654918.0160632,799.720652549018,804.9406473747484,802.7093052369959,800.073935396116
1731654918.01816,797.9984063251477,805.105028420861,802.814833871451,795.6930747114533
1731654918.0220685,798.1995932007063,805.2704838622946,802.9204089032696,793.8059778123072
1731654918.025977,797.3232615745874,805.4369970488339,803.0261099942927,794.6037995328268
1731654918.0298848,794.3156557319052,805.6045817811424,803.132126006117,797.344953778762
1731654918.031127,790.5161675547467,805.7733081437525,803.2386256053132,800.6149585272889
1731654918.031664,787.9918844012059,805.9432831776293,803.3454863222436,802.9275485030594
1731654918.03294,787.5067992337353,806.1145549743735,803.4520866420418,803.3805453245442
1731654918.0337932,787.9384445802266,806.2869757953587,803.5575468215789,801.9745730991241
1731654918.0377014,787.4798667496112,806.4601668789699,803.6616641276468,799.3546456301374
1731654918.0416098,785.421046668828,806.6337703646337,803.7661045876877,796.1429120882515
1731654918.0455182,782.928875052408,806.8080033241738,803.874459194408,792.3997326034942
1731654918.0472646,782.1638504761207,806.9841097994091,803.9895762792123,787.7022029963422
1731654918.0494263,784.4564149047234,807.1639186833112,804.1084340905564,781.8215287154774
1731654918.050007,789.0421709223543,807.3479639206084,804.2187427207813,775.4227324218128
1731654918.0533347,793.441072207895,807.5329921065106,804.3045046458473,770.1014176647465
1731654918.057243,795.2702951027692,807.7116669514368,804.3643205815082,767.5572027635212
1731654918.0611513,794.0997292469448,807.8778113898139,804.432693896703,768.4412390526697
1731654918.062865,791.8413585565262,808.0369034749529,804.5772096042971,771.8002292540999
1731654918.0650597,791.258191214645,808.2135088703175,804.8432808007968,775.6571526560047
1731654918.0679307,793.6692491587778,808.4406932661235,805.1559854015843,778.3336382548345
1731654918.0688877,797.6427308994004,808.7226295637164,805.2609403262001,779.4294300644759
1731654918.0689678,799.8017004656042,808.9883626320607,804.8301633394475,779.6302987720535
1731654918.0728762,797.2643912560837,809.0896393745688,803.761639068647,779.5819384037899
1731654918.0767846,789.9100840440946,808.89649318075,802.4474439640402,778.9827218748569
1731654918.0784657,780.6876879499367,808.4569440178235,801.665183113467,776.8826822924898
1731654918.0806928,773.6552490730038,808.043965473267,802.0722251677319,772.9838046750428
1731654918.0846012,771.2362414416942,807.933130014371,803.739300308753,768.6362944169157
1731654918.087768,772.8006021595291,808.0743437226349,806.1283265258458,766.3609093683152
1731654918.088509,775.560165209314,808.0657304468651,808.463565062746,768.0641249531961
1731654918.0924177,776.8668746772421,807.5474791488576,810.1574912314595,773.3954668983966
1731654918.0940664,775.9639705200217,806.6104238612891,811.0331818836642,779.6914879660834
1731654918.096326,773.9007870869948,805.7682017865526,811.2822750217405,783.6489747691791
1731654918.1002345,771.9926466135814,805.53239094002,811.2300660300732,783.4390462821482
1731654918.1029215,770.3821290072076,806.0339118125286,811.0641636983936,779.6492085042555
1731654918.104143,767.9886975244285,807.0120870170492,810.7212992806359,774.4572471899453
1731654918.1066484,763.7876213626412,808.0668850281513,810.0301535540558,769.8802103845662
1731654918.1080513,758.168468141338,808.8582219906654,808.9786693809832,766.5602313654213
1731654918.1096668,753.0765078438076,809.1207624425454,807.8201942773037,763.8878791584818
1731654918.1119592,750.7170561037807,808.639797714139,806.8667081486434,761.0347000287115
1731654918.1158676,751.8718331808948,807.3518045658063,806.1544781928401,757.8177917429318
1731654918.1197758,755.2625805613476,805.5186546586076,805.3492088653425,754.7222363355156
1731654918.1236842,758.5481642274327,803.7785105617727,804.0488312896493,752.3051043350256
1731654918.1252675,760.157701179137,802.9553481803973,802.2341954183778,750.695713282302
1731654918.1255288,760.4417876360902,803.6836212610233,800.4383704153925,749.6428773095766
1731654918.1275926,761.2031525597797,806.01525414504,799.4427530998505,748.9501850301352
1731654918.1315007,764.028837270687,809.2175408642871,799.7219180344761,748.805056313754
1731654918.135409,768.8015946827963,811.9572885197193,801.0629911407741,749.6752283390896
1731654918.1379125,773.5621344584328,812.9134960065513,802.6369866536419,751.872695929463
1731654918.1393173,775.8117326228091,811.5497463708602,803.4771411588158,755.1875802356
1731654918.1408682,774.2998900799722,808.530793671234,803.0797954036207,758.9518389874701
1731654918.1432257,770.0260455511983,805.383184797208,801.7884334392745,762.5318910750502
1731654918.1444094,765.6971790233373,803.5054923710688,800.7135440011966,765.8347371394005
1731654918.147134,763.9113067503076,803.1822194902123,801.1503783224022,769.3216822294698
1731654918.1510422,765.3136233914516,803.3756350735795,803.7585144415181,773.4204346716022
1731654918.1549506,768.1693681152955,802.5584522906536,808.0049214464793,777.8055924752067
1731654918.1564689,769.8240986907241,800.0142662860324,812.3010264647983,781.2337533215652
1731654918.1588588,768.9694628056473,796.5564835103954,814.833588684361,782.225305360899
1731654918.1627672,766.8457922046662,794.0136554953972,814.5908661890456,780.178268181294
1731654918.1632898,766.3263080059917,793.8668768674366,811.9179774921222,776.0606616083818
1731654918.1666756,769.5992434962111,796.1830787156791,808.2436986469256,772.0552358216341
1731654918.1705835,776.3184585752041,799.7080095546596,805.1855601670569,770.3062628076677
1731654918.1720693,783.6540894132538,802.9030037493332,803.6525357006134,771.6293138880974
1731654918.1729033,788.1350324005525,804.8987507290777,803.5209163717818,775.0768735617922
1731654918.174492,787.8770266604203,805.5901015563206,803.9997066154716,778.5950269037435
1731654918.1784005,783.6545135487279,805.0762289613763,804.3075344079433,780.2657471555
1731654918.1821702,778.1956215240788,803.280718176388,804.1505256277751,779.3692681035211
1731654918.182309,774.2914756968484,800.2300173615871,803.7657789990694,776.7321921768697
1731654918.1862173,773.0430493184031,796.5989261360148,803.660448151513,774.2255148875074
1731654918.18767,773.4247186555563,793.7522406863118,804.3062934900662,773.6567204840179
1731654918.1901252,773.4196451089463,793.0279681874392,805.9256026425469,775.6319767302452
1731654918.1940336,771.8524668732487,794.8251673113058,808.3621268879691,779.0946789704641
1731654918.197942,769.5040632817584,798.302676256155,811.0423802285067,781.9417577748737
1731654918.2010503,768.607319620949,801.9551015831717,813.1097369823758,782.4314195675568
1731654918.2018502,771.0716252259937,804.5910122763714,813.7589999214489,780.475787505326
1731654918.203271,776.8136242800236,805.9708504902457,812.6104085988528,777.8646828592844
1731654918.2057586,783.5451810241428,806.7066389304244,809.8706877634801,777.1287589103766
1731654918.2078938,788.2674141076338,807.6053358969393,806.1893010834987,779.7405307036685
1731654918.2096667,789.3805837651721,808.9943635440472,802.3725499212975,784.962617660866
1731654918.2135751,787.7964418211353,810.4955959954544,799.1824671540899,790.3088580577739
1731654918.2174835,786.1737415199318,811.3284958519588,797.2708048796768,793.3704885288945
1731654918.218871,786.8430500601438,810.8475833515155,797.1113188357585,793.5729837999435
1731654918.219931,790.0187282929388,808.9389558867414,798.8160976341899,792.3792662942731
1731654918.2213917,793.7003940933974,806.1079334492351,801.923426080633,791.7875332844425
1731654918.2253,795.3714285561931,803.3096115783459,805.39652558949,792.5562303099143
1731654918.2292085,794.173643744591,801.6105704732005,807.98344945714,793.834757082167
1731654918.2331166,791.7843645955627,801.7403111853914,808.8028608761553,794.4408068403953
1731654918.2344718,791.1759597583101,803.6855307140711,807.797657025569,794.3635099109821
1731654918.237025,794.133146349192,806.6011430793604,805.7555750536035,794.9341356817483
1731654918.2388113,799.4987426496353,809.1861661488845,803.8774576449962,797.5660904899506
1731654918.2409332,803.6730104532367,810.315022206074,803.1367186707254,802.3913002194802
1731654918.2428846,803.18330641459,809.5083998810908,803.7631744943984,808.0847035251293
1731654918.2448416,797.4746873204687,807.0259905653209,805.1209986540723,812.9271538660483
1731654918.24875,789.7667061335503,803.7140052333632,806.0819579013627,816.0797697046776
1731654918.2500725,785.1842885326915,800.8041167237243,805.7296149683889,818.0250295140726
1731654918.252658,787.4064695862078,799.6150273770647,803.9639132558228,819.9130587959249
1731654918.2565663,796.2072538933012,800.9979075454802,801.5514880686665,822.3629217022674
1731654918.2576916,807.5969638793881,804.6830146168567,799.5495238365784,824.6245343486588
1731654918.2604747,816.3603252892616,809.0837646558284,798.5764804560613,824.807304275665
1731654918.2643833,819.1254338025495,811.9844845315612,798.537281333595,821.1871645647325
1731654918.2656732,815.8768471385079,811.8165970093054,798.9256054049303,813.7292125494355
1731654918.2682917,809.0973066832436,808.6089993660698,799.2910019590012,804.5896176850234
1731654918.2721996,801.503831989427,803.8789261398355,799.463396983019,797.0173019368988
1731654918.276108,794.3206737937749,799.5877686352844,799.4931466157068,793.3812110482085
1731654918.276572,787.4236971063323,797.0003988935874,799.4918236928652,793.83961833413
1731654918.2778754,780.9343146279122,796.2302993968672,799.5269267463017,796.6527188021333
1731654918.2800164,776.4535271666953,796.5945380926868,799.6046153019693,799.7672376598939
1731654918.2812736,776.4567552266991,797.3071371324594,799.7007629533507,802.3049325663158
1731654918.2839246,782.2117021827904,797.9557399560728,799.7932762862152,804.7858898066967
1731654918.287833,792.1854931117211,798.54042964169,799.8747317083049,808.0661647163636
1731654918.2917411,802.631461250017,799.2183235244611,799.9486460511711,812.0749607182754
1731654918.2954524,810.0610339136833,800.0277419843508,800.0210394142696,815.5690670253989
1731654918.2956495,813.525662316025,800.7744781424806,800.0952452112047,817.1450951398006
1731654918.2968743,814.7972803298638,801.1064084075539,800.1713584543996,816.5231735836607
1731654918.299558,816.4365509270941,800.6953900064624,800.2480223008926,814.8270047473751
1731654918.303466,819.519024764573,799.4133013420675,800.324103302168,813.5727809921557
1731654918.3073745,822.890238299776,797.4231810350616,800.3992719915377,813.3648818690389
1731654918.3112826,824.3820089989576,795.1772221903307,800.473750089337,813.5604798560163
1731654918.312475,822.847213141284,793.3546382295972,800.5478574212974,813.1756813834197
1731654918.3128662,819.3753934450929,792.7367681557694,800.6217560143134,812.11334056505
1731654918.314333,816.7801963552249,793.9635134291918,800.695439227683,811.5306660929173
1731654918.315191,817.711425143249,797.1685260215362,800.7688333362955,812.9598502702703
1731654918.3190994,822.7122155623738,801.6671340624308,800.8418837096538,816.8731366487541
1731654918.3230076,829.6555420026431,805.9978620142331,800.9145792342708,821.8844924183265
1731654918.326916,835.1049579257649,808.488886886612,800.986933136498,825.3498238587745
1731654918.3280754,836.7152180972896,808.1402969199091,801.0589566794827,825.064505823755
1731654918.330824,834.8638033061054,805.2648501269307,801.1306497154147,820.8411494865144
1731654918.333213,832.1793667361208,801.3667967912006,801.2020117614991,814.7479177228477
1731654918.3347323,831.3001892358812,798.2468898116207,801.2730606813716,809.7937695358673
1731654918.3386407,832.704095723031,796.9448270881163,801.3438364806715,808.0662565142835
1731654918.342549,834.4496442019829,797.3021370250208,801.4143709144735,809.7023927303857
1731654918.343676,834.0709905298907,798.42641222653,801.4846288592256,813.2935812405298
1731654918.3464575,831.0097513393164,799.5871322504123,801.5544723843982,817.1598076263209
1731654918.347857,827.456006290936,800.7636182687886,801.6237293408298,820.4238743516115
1731654918.350366,826.7688730811902,802.4488669494808,801.6924036138794,823.2395662635302
1731654918.3520937,830.6713817881143,804.9847735009051,801.7609080953987,826.2686652226766
1731654918.354274,837.4923742829166,808.0617987831591,801.8300116159567,829.9196504894797
1731654918.3581824,842.9773974183329,810.8116158797894,801.9001978783059,833.867430072085
1731654918.3592768,843.178829691148,812.3886542273931,801.9705886773654,837.1597314201538
1731654918.3620906,837.2377793923442,812.5313888690328,802.0384189099472,838.8512403389349
1731654918.365999,827.8826787019302,811.6391035895391,802.1005586240668,838.6895580268261
1731654918.3699074,819.2686418228793,810.3433405512308,802.157585380809,837.2641691372543
1731654918.370974,813.9386605015895,808.9947114962814,802.2178715442502,835.4725788661012
1731654918.3738155,811.3749444442877,807.5174244160474,802.2957694861624,833.7995918730546
1731654918.3748777,809.1944480121794,805.6952603145531,802.3987185520482,832.0659775804777
1731654918.377724,805.7406067043432,803.5533853299025,802.507366818516,829.8183377767298
1731654918.381632,801.6787253933713,801.4760335582756,802.5684804384082,826.9538607312752
1731654918.3828478,799.2298632429388,800.002043488047,802.5283483930003,824.0418011740406
1731654918.3855405,799.888310845404,799.5038890980699,802.4131853690457,822.0836241963939
1731654918.389449,802.7993385442992,799.9648060172726,802.4061322456173,821.824407122153
1731654918.3898544,805.2693631737695,800.9455472987968,802.8171293585353,823.0355067323172
1731654918.390478,804.9195396519531,801.762821060651,803.8864915743529,824.3459054832063
1731654918.393357,801.596963346737,801.855372437964,805.5499029836253,823.971060570724
1731654918.3972654,797.4457599428654,801.1731347262863,807.4229938555405,821.0039240324232
1731654918.4011738,795.1106789133719,800.2815642306632,809.0659851149176,816.2932610867103
1731654918.405082,795.5572624287393,799.986500770929,810.251527673038,812.0567536777613
1731654918.4060786,797.2925811065625,800.6929756583141,810.9717922804272,810.3444866835626
1731654918.4087348,797.657459831626,802.043343598457,811.2626325262098,811.4893688590969
1731654918.4089904,795.1804030843913,803.2171915520552,811.0940515536947,813.8140220383658
1731654918.4128983,791.0628777210027,803.680213681501,810.4076499816078,814.9120942742676
1731654918.4168067,788.5171251640659,803.7091416913773,809.1891101500117,813.5257203899936
1731654918.4178386,790.4370513814607,804.1870668136264,807.4928775786659,810.4871101884555
1731654918.420715,797.2738822411425,805.8274946674966,805.4638382557296,807.9254764810211
1731654918.4216793,806.7895984570298,808.5060085833372,803.4014928001168,807.4198783432062
1731654918.4246235,815.7519284432476,811.2646722921936,801.7934568331498,808.7209638500019
1731654918.4276152,822.0573880426767,812.9487419086666,801.1959149922399,810.1627281207154
1731654918.428532,825.5909095650078,812.9248318775153,801.9492935254409,810.3257665413355
1731654918.43244,827.3936334778948,811.3436378646004,803.886429941265,809.3243282993976
1731654918.4363484,828.16745112199,808.8532580810325,806.2650197344092,808.4415056910759
1731654918.4372797,827.5132960820122,806.0968032479566,808.060429343724,808.4737742399858
1731654918.4402568,824.4405283163695,803.402472315952,808.5197086625606,808.5054196931499
1731654918.444165,818.5434184275427,800.8298859762955,807.646405325105,806.5087547295556
1731654918.4464955,810.7923902798557,798.446927186638,806.2599910650181,801.3810331055745
1731654918.4480734,803.3128253933903,796.5781475388283,805.5315224154767,794.5258236743726
1731654918.4519818,798.3170537278229,795.8011638448813,806.2637810230766,789.3782477952157
1731654918.4528294,796.9221507804864,796.6247112266379,808.3704234764244,789.0918309172974
1731654918.4528804,798.6305458818557,799.0289013724823,810.8832536537176,794.2291743532234
1731654918.45589,801.7998946289491,802.2508617526281,812.4898454192247,802.3024138890453
1731654918.4597983,804.7552951989894,805.1105969684065,812.2878530278526,809.4998823002335
1731654918.4637065,806.731928332846,806.7288934895607,810.3129339757023,813.2364366139757
1731654918.465376,807.9578016994832,807.0546329295636,807.5338154609586,813.6047444984702
1731654918.467615,808.8864892750123,806.6990891421455,805.3372064992654,812.750523470119
1731654918.4684813,809.341348272405,806.2051959544737,804.8227580869983,812.8569342192106
1731654918.4715233,808.451206594993,805.4591131273689,806.2918634379832,814.4517124574862
1731654918.4754314,805.543719146734,803.8505290763082,809.1516878581205,816.3146884765614
1731654918.4793398,801.1982036956856,801.0673556819935,812.2325741310015,816.8086311715654
1731654918.483248,797.3628662658316,797.7802742763237,814.3491100425424,815.3201526168679
1731654918.4840815,796.193514721481,795.5369133717294,814.8381267356971,812.6279892760285
1731654918.4842565,798.4536662123978,795.848709942422,813.807043681463,810.104289590401
1731654918.4871564,802.8275164219611,799.1076984153235,811.9725898313454,808.5905131308824
1731654918.48782,806.8130902922655,804.120554280087,810.2121001981234,807.8422726540751
1731654918.4910648,808.5485198130873,808.6464283025276,809.1178686274386,806.8180161084147
1731654918.4949727,808.1028968822102,810.6567573934153,808.8095266644518,804.4636785353216
1731654918.498881,807.1386787889393,809.5093978187622,809.0562213806072,800.4229829258609
1731654918.4996822,807.1678888351415,806.2314243822631,809.5480176412715,795.2559638833625
1731654918.5027895,807.8680758542785,802.7248369876341,810.0853886027994,790.0911954302447
1731654918.5031369,807.0506444250808,800.5147043145472,810.5682765748213,785.9890383671318
1731654918.506698,802.6014205405379,799.9660175097274,810.8628490208469,783.4566530424609
1731654918.5106063,794.9127102822829,800.4374150184896,810.7325795634832,782.3979406073527
1731654918.5145144,787.5555712040067,801.0643882540891,809.9421287067896,782.4200730929911
1731654918.5152829,785.1478321826338,801.4571047187093,808.4535289939023,783.1763947262582
1731654918.5184228,789.780363434657,801.8103251543262,806.5208527234214,784.4998034107292
1731654918.5220172,798.8828620234804,802.4563843367314,804.5686061830006,786.3293654890931
1731654918.5223312,806.5278392826863,803.304256930479,802.9398936482464,788.5777524427847
1731654918.5228107,807.469362464888,803.6629959477134,801.7277517880025,791.0484304559968
1731654918.5262394,800.92750490428,802.6532849080322,800.8242959627947,793.4347469765328
1731654918.5301478,791.2033854808867,799.9463793411275,800.1084895796274,795.4263041065991
1731654918.5308836,784.6400999823003,796.2495758381062,799.5686087947507,796.9293098801937
1731654918.534056,785.2694868088718,793.0750015685846,799.2587659286279,798.271969101032
1731654918.5379643,792.399239897617,791.8665130795137,799.1867401781296,800.1302464447042
1731654918.5408976,801.7091464519531,793.0947728969566,799.2762569080054,803.0426776222479
1731654918.5418727,808.6432359378654,795.9788440162766,799.4212906965494,806.8114014138739
1731654918.545781,811.3264840243844,798.998044280305,799.5508290982948,810.3831827394623
1731654918.546484,811.0031197924428,800.7707188486019,799.6468885125486,812.4978156334294
1731654918.5496893,810.180142876243,800.6994854533749,799.7234354474895,812.6314424817524
1731654918.5535977,810.350129044854,799.0847098324255,799.7987644806786,811.3606846310153
1731654918.5575058,811.1275178774633,796.8283010068841,799.881376902582,809.8133826223868
1731654918.5578015,811.1751800203024,795.0203887694695,799.9701782572106,808.8063233902603
1731654918.559778,809.7845922929321,794.5877883385573,800.0606071112101,808.4699033205152
1731654918.5614142,807.5953686738915,796.0216168311101,800.149451275525,808.4902952247703
1731654918.562085,805.8526527717163,799.186855895436,800.2360799838493,808.5266747764211
1731654918.5653224,804.9589517954371,803.3069128980725,800.3213622383171,808.4291250109112
1731654918.5692308,803.7527686896156,807.2275812750141,800.4062653630401,808.2200659856123
1731654918.5731392,800.3605984325939,809.911404537337,800.4911914209398,807.9808837698273
1731654918.577047,794.05726916916,810.9159660941486,800.5760453030887,807.7671019094872
1731654918.5776854,786.5352740229694,810.566060128727,800.6605747361513,807.5883216028151
1731654918.5786583,781.3191550514848,809.7051082020339,800.7446147166249,807.4283714839692
1731654918.5809555,781.5696686644139,809.1746867855842,800.8281381403775,807.2700970252563
1731654918.584864,787.8913118243366,809.3305706196857,800.9111915028182,807.1066376076255
1731654918.5887723,797.779202786984,809.8732366655647,800.9938213841154,806.9398437603628
1731654918.5926807,807.0632550281312,810.0957122490596,801.0760429156123,806.7741541756849
1731654918.5927925,812.2882484304232,809.4204586492295,801.1578460011488,806.6123467029266
1731654918.593286,812.4916072448395,807.9002808389656,801.239213885789,806.4547497442587
1731654918.5965889,809.4218822618981,806.320232489834,801.3201354356688,806.3004335317039
1731654918.5975387,806.2435504222727,805.7640101790124,801.4006070476681,806.1485072737873
1731654918.6004972,805.5768432114426,806.9129395679852,801.4806289138287,805.9986502649349
1731654918.6044054,808.0482799343687,809.5978142537122,801.5602011982929,805.8509817165326
1731654918.6083138,812.2469287971003,812.9315686509912,801.6393225698511,805.7057298080377
1731654918.6088865,816.0821573937114,815.8435161864195,801.7179906679148,805.5630255798017
1731654918.6122222,818.4764679648337,817.5256719339998,801.7962031119763,805.4228825004224
1731654918.6161304,819.9941659415612,817.5238135617939,801.8739581171384,805.2852645415069
1731654918.6164193,821.8931155880787,815.678041644235,801.9512545585476,805.1501346340126
1731654918.6200387,824.5271842587366,812.2429826316844,802.0280917611456,805.017445560117
1731654918.6239471,826.6697718784167,808.1279297376788,802.10446930482,804.8871116835604
1731654918.6244872,826.4987066163447,804.799548529433,802.1803869596663,804.7590337805088
1731654918.6277833,823.4165887618199,803.5708843640001,802.2558447190357,804.6332132398347
1731654918.6278553,819.0245614149983,804.6820702392835,802.3308428550488,804.50988541365
1731654918.6317637,816.2146502774775,807.0147586136826,802.4053819498507,804.3894845357466
1731654918.6352997,816.9549135698859,808.859490150291,802.4794628973818,804.2722621668361
1731654918.635672,820.549179675983,809.1592158471683,802.553086891549,804.1576579453136
1731654918.6395802,823.9140114428844,808.1267387408366,802.6262554158507,804.0440142247875
1731654918.6400878,823.8420755843922,806.7597490233824,802.698970239757,803.9295083803261
1731654918.6434886,819.5377360643275,805.8908903820336,802.7712334196549,803.8145626855685
1731654918.6473968,813.3434595156069,805.6986613698224,802.8430473003168,803.7041873128842
1731654918.6513052,808.9654947403357,805.8909704272744,802.9144145145813,803.6067606941191
1731654918.65418,808.5855203261268,806.1199498296547,802.9853379811237,803.5262937603828
1731654918.6552134,811.220297689866,806.2194122309872,803.0558209012474,803.4507790058012
1731654918.6556883,813.6576399872522,806.201297048747,803.1258667555637,803.348365281723
1731654918.6591218,813.1366559202543,806.1454119170189,803.1954793009243,803.1872920249422
1731654918.662774,809.53230606183,806.1104691837163,803.2646625675086,802.982097069184
1731654918.66303,805.3081031823654,806.1092992158509,803.3334208556614,802.8337009691237
1731654918.6669383,803.3921985487377,806.1269527627612,803.4017587319373,802.8967350044443
1731654918.6708467,804.7794129843282,806.1458675774506,803.469681024019,803.2243574717513
1731654918.671289,807.7663673554102,806.1583271546901,803.5371928149472,803.5513654408406
1731654918.6730604,809.3355182495935,806.1656664017108,803.6042994382462,803.2420656656467
1731654918.6747549,807.5186967859676,806.1722750978741,803.6710064759629,801.6757945549311
1731654918.6786633,802.8797626219157,806.1811114926018,803.7373197598042,799.0242337550529
1731654918.6825716,797.9852487699483,806.1926680528908,803.8032453710803,796.7311494058953
1731654918.6864798,795.2825658485535,806.2060672255691,803.8687896310041,796.7978645434043
1731654918.6868896,795.0566809450585,806.2203880548072,803.9339590755164,799.9948522486613
1731654918.6903882,795.1607395307431,806.2352630593831,803.9987604233919,804.5634414224985
1731654918.6919408,792.8826564430811,806.2507883861127,804.0632005676073,806.9515082578793
1731654918.6942966,787.5127302374252,806.2671948349386,804.1272866257884,804.3356209205966
1731654918.6977649,781.3819257569885,806.2846217468293,804.191026047075,796.9586278379444
1731654918.6982048,778.2442917046776,806.3030767916796,804.2544266871355,788.3411873152016
1731654918.7021132,780.1820626489829,806.3225013400239,804.3174966922196,783.0909356694343
1731654918.7024903,785.7011841758616,806.342840475341,804.380244099646,783.8737632118617
1731654918.7060213,790.803966450478,806.3640701728131,804.4426763514977,789.7050427872629
1731654918.7099297,792.1907245081405,806.3861868260077,804.5048003055126,796.7232063210273
1731654918.7108212,789.7991535397564,806.4091854324441,804.5666233791152,800.857353894428
1731654918.713838,786.5424430870053,806.4330486161554,804.628155658968,800.5572306867355
1731654918.7177465,785.7133180525406,806.4577550363406,804.6894111825926,797.7897343974523
1731654918.7180908,788.5095816452595,806.4833007830458,804.7504054232074,796.6791454838096
1731654918.721655,793.6759717434363,806.5097132493923,804.8111475901471,800.6748346198772
1731654918.7255628,799.0733656249374,806.5370305571348,804.8716320531994,810.0645256451976
1731654918.7294712,803.3810039493947,806.5652362112353,804.9318401880885,821.4607209977827
1731654918.7297015,806.4790257046408,806.5941876121574,804.9917637775594,829.6454186413333
1731654918.7327557,808.6034704110025,806.6236343043944,805.0514445377485,830.6113606431619
1731654918.7333796,809.4271240192286,806.6534172723374,805.1109936950654,823.8248200020237
1731654918.7336917,807.997266855495,806.6837987410601,805.1705366851071,812.2595063651382
1731654918.7372878,803.5201024281442,806.7156159077308,805.2300640304969,800.2969276192207
1731654918.7411962,796.2958419551576,806.7498018001011,805.2892807132137,791.0813221313982
1731654918.7451046,788.0863384166698,806.7861305957884,805.3476710054791,785.2302802103765
1731654918.748582,781.6157028420915,806.8219827728487,805.4049703228633,781.6282059693566
1731654918.7490127,779.3986604630325,806.8529516736718,805.4618980927677,779.3031827188101
1731654918.749292,782.4590477592822,806.8768528698213,805.5204325089157,778.6155520520297
1731654918.752921,789.6446369993381,806.8998233389392,805.58262003929,780.8252748010615
1731654918.7568293,798.0552680337624,806.9384209144386,805.6477065442514,786.6644339565826
1731654918.7607377,804.5309183862684,807.0093803617254,805.7095338781843,795.3163135633499
1731654918.764646,807.4161641868396,807.1055869253605,805.7583382054206,804.6268501105195
1731654918.7648926,807.4503954050044,807.1750443072796,805.7901733687207,812.2407483986341
1731654918.7674625,807.0771813491968,807.1377920255983,805.8203709477837,816.764517463113
1731654918.7677464,808.5729985744247,806.9677776351134,805.8868109689546,818.2788512192229
1731654918.7685542,812.3536953198665,806.810698354804,806.024688916815,818.0389094468359
1731654918.7724626,816.7640009539729,807.026116561749,806.2115159777929,817.5941141113842
1731654918.7763708,819.4934857968558,808.0238109550114,806.3224096080919,817.8475926755316
1731654918.7802792,819.4083361485709,809.9079492131917,806.173060332926,818.6890736555695
1731654918.7804933,817.2535040390228,812.1821215489315,805.7003486486968,819.4334037192698
1731654918.7841876,814.7039015929685,813.8317909014162,805.188739331063,819.563393227708
1731654918.7863426,812.6947544617889,813.8219421362462,805.2724987881053,819.0747414609126
1731654918.7880957,810.5391321096646,811.6694510820333,806.5073598700909,818.2870831536678
1731654918.792004,806.6044961501843,807.6862830045868,808.7531820459375,817.5037535583127
1731654918.7959125,799.9744398216683,802.8062362521314,810.9844719165727,816.8458937947044
1731654918.796094,791.6892509789473,798.2352932329012,811.8498897722478,816.2852869585429
1731654918.799821,784.4773681371489,795.1565237998469,810.566215846859,815.7486428261692
1731654918.8027372,781.0887941234228,794.4641588242292,807.4024799216274,815.1895604452532
1731654918.8037293,782.4776369379557,796.3962077277594,803.4180789577385,814.6023250952113
1731654918.8052232,787.2491185370294,800.173378533475,799.7689719562962,814.0023083219354
1731654918.8076372,792.8145815578339,804.0433336387397,797.1585414967543,813.4043329388163
1731654918.8115456,797.3183640567812,806.0179970708556,795.7482346757083,812.8137053325905
1731654918.8116944,800.7426484530438,805.0235356146426,795.4024944019588,812.2283035549556
1731654918.815454,804.2880886281611,801.6603101122889,795.9314013489334,811.6441153220694
1731654918.8193622,808.6573549438561,797.8819638688968,797.1318529024429,811.0587993631042
1731654918.8232706,812.8885263987326,795.6921724529469,798.7043411912996,810.4721720281923
1731654918.8241036,814.9017289122123,795.7908473051903,800.2426606484372,809.8850680572464
1731654918.8271787,813.3058713645573,797.2148848131211,801.370274245091,809.2982142037566
1731654918.8272953,808.7607163991254,798.2442937657812,801.9071469063638,808.71181251207
1731654918.831087,803.5742787931172,797.8153054180655,801.9151723730732,808.1256900254529
1731654918.8349955,799.956802610263,796.2903349484275,801.6105550898528,807.5395995825957
1731654918.837728,798.6279144752987,795.0252503340195,801.2671076900128,806.9533974227965
1731654918.8389037,798.8722405092384,795.2094012715087,801.1963517358868,806.3670538182848
1731654918.842812,799.553768166697,796.9946004126745,801.7231565244227,805.7805800250493
1731654918.8428955,799.9610312070679,799.5306696286299,803.0115168526994,805.1939621438027
1731654918.842984,799.975623754342,801.664158897159,804.7823962059408,804.6071463678776
1731654918.8467202,799.7969870653542,802.604668384885,806.2278445858633,804.020075260431
1731654918.8506286,799.6329655674618,802.1514876048058,806.3955681174226,803.4327437529261
1731654918.854537,799.5639720711748,800.614591907261,804.8930859997478,802.8452210617675
1731654918.8584452,799.5650138206242,798.7147669995695,802.337791801619,802.257582509558
1731654918.8584964,799.5812770159548,797.4604975984196,800.0738042000652,801.6697471913546
1731654918.8618643,799.5793316984386,797.7785562979751,799.293379504937,801.0813366876321
1731654918.8623536,799.5558070771693,799.8899786301517,800.2499188470763,800.4917844332031
1731654918.866262,799.5223477536402,802.8544604884014,802.1770623063063,799.9008645221011
1731654918.87017,799.4897688165789,804.8155247980843,803.9185362352695,799.3094254148682
1731654918.8727188,799.4617650991808,804.0284193073064,804.72066587906,798.7195340438761
1731654918.8740785,799.4366571153918,800.0846895752759,804.604182596754,798.1330398942989
1731654918.8740969,799.4115002353943,794.4564978471967,804.1439264199882,797.5485513774917
1731654918.877987,799.3846419356623,789.861618155288,803.9321648283135,796.95911409873
1731654918.8807447,799.3560139388684,788.7454142183318,804.1582300559932,796.354897430165
1731654918.8818953,799.3262680762127,791.8170491510067,804.5718296326121,795.7336287603937
1731654918.8858037,799.295955259992,797.5918674952776,804.785041750015,795.1138889177972
1731654918.8896976,799.2652366071436,803.2383659453994,804.6309284604463,794.5357498059759
1731654918.8897116,799.2340045528082,806.159258806619,804.2910082386841,794.0310764993227
1731654918.89362,799.202104489148,805.2952928469956,804.125289405833,793.5665477026287
1731654918.8975282,799.1694593059551,801.43441527371,804.3930589314365,793.0064147900257
1731654918.8996253,799.1360710139168,796.5383677716512,805.106868508928,792.1764875832408
1731654918.9014366,799.1019664395601,792.6636895168854,806.0863635528932,791.0742030126221
1731654918.9052982,799.0671567316007,791.1090081799508,807.0872249278693,790.1242326408382
1731654918.905345,799.0316402743317,792.0931852944656,807.8774991810883,790.2024483798366
1731654918.9077096,798.9954360959592,794.9117519865525,808.2680208896651,792.1906764939333
1731654918.9092531,798.9586067625355,798.3570408880785,808.159427595994,796.2671179102331
1731654918.9131615,798.9212255106911,801.2006817884593,807.5758963557988,801.5853241227697
1731654918.91707,798.8832771467044,802.5950555211216,806.5950306724363,806.7188461206855
1731654918.9185054,798.844560695809,802.2922475368392,805.2070041035872,810.4418282317428
1731654918.920899,798.8047403515611,800.6412208906886,803.295040007698,812.1440774701166
1731654918.920978,798.7636644825542,798.4147995497386,800.8480951798946,811.712329297674
1731654918.9248865,798.7218410230772,796.5581375442387,798.2250853262098,809.2439679479857
1731654918.9287946,798.6805840146742,795.9010482804346,796.1543313889174,804.9597524223699
1731654918.932703,798.6411822398794,796.8469616789813,795.3842078837497,799.3631200806956
1731654918.9364994,798.603002104059,799.1422267220815,796.2453132962146,793.4332007298361
1731654918.9366114,798.5618694159208,801.9189657264449,798.454269267362,788.582115720109
1731654918.9373858,798.5114525703095,804.0800910876077,801.2575753253061,786.2329819608407
1731654918.9405196,798.4496178889486,804.81152634464,803.7745333376271,787.1288093061531
1731654918.9427004,798.387114618818,803.89230547451,805.3481294973649,790.7569556853019
1731654918.944428,798.3490566870481,801.68626856143,805.7807765030153,795.3635990939454
1731654918.948336,798.3574985025475,798.9755946921633,805.3842210870755,798.7557197790533
1731654918.9521,798.3953754147915,796.7957745569811,804.80643838334,799.5212951460828
1731654918.9522443,798.3795711705718,796.2082486806613,804.6837139354487,797.8552995883755
1731654918.956153,798.1945658912642,797.882332395807,805.2931040438666,795.3223374227831
1731654918.9562662,797.8187115842921,801.6293213903647,806.4298843543013,793.6489998320458
1731654918.9600613,797.4842849168817,806.3182079507293,807.6086467140102,793.45578063998
1731654918.9639697,797.6891230155584,810.4440208782838,808.4448489360573,793.9758331796737
1731654918.9677007,798.867326359813,813.0289724336998,808.9138473911216,794.0385774063195
1731654918.9678776,800.796649553314,814.1090602319996,809.2703085945092,793.4839574714235
1731654918.971786,802.2710657085848,814.3529859805037,809.7033401929805,793.680406515312
1731654918.9751468,801.665578828892,814.1912377037962,810.0587754077986,796.5000933370825
1731654918.9756944,798.3270931963923,813.3522205030732,809.9274523951184,802.5022614320799
1731654918.9776912,793.7023999375442,811.3032509489586,809.0635503580684,809.9536242073378
1731654918.9796026,790.9155091204024,808.1461741423312,807.7499393605951,815.7439015303631
1731654918.9833012,792.6708547665141,805.011422374097,806.7202294961579,817.6087213752045
1731654918.983511,798.9888626877208,803.4612722962554,806.6331718356843,815.8255424047547
1731654918.9874194,806.777527362037,804.3618468393587,807.525839624881,812.9083042971724
1731654918.9913275,811.8984659315121,807.1741432589537,808.7202819419006,811.5325299065336
1731654918.9940271,812.2291454164641,810.2433256079465,809.2675182687418,812.4489727984619
1731654918.995236,809.2154699677965,811.8632626548492,808.5683172658197,814.1256734191497
1731654918.9989018,806.6030229699691,811.3584859432839,806.7200837787462,814.3367699924368
1731654918.999144,807.4470023977697,809.4761692810274,804.4131832427137,812.2490565182188
1731654919.0030525,811.930293323875,807.8620124060423,802.5231253003008,809.1815357684684
1731654919.0069609,817.6621934940607,807.9679857168121,801.6749396309929,807.4230017726032
1731654919.010869,821.8732631215001,810.092031885624,802.0003293183976,808.2139352399688
1731654919.012682,823.4263794009171,813.1706584555878,803.1710995365055,810.7093667488429
1731654919.0129075,823.092182228993,815.456951376177,804.642832471694,812.8030336785226
1731654919.0145023,822.3207341127019,815.6321339232201,805.9436501382702,812.9610759417359
1731654919.0147774,821.9502114794119,813.6222960064817,806.8500751911457,811.3237822100441
1731654919.0186856,821.9182293488907,810.6041663172216,807.3823848130669,809.2005839363107
1731654919.022594,821.8006612162021,808.2224762946727,807.6480343816752,807.760856355222
1731654919.0265024,821.3575899954108,807.5409622085821,807.6346740718025,807.2846273958944
1731654919.030103,820.6451594576824,808.3963547301164,807.1114471894073,807.3732684930691
1731654919.0304103,819.8414001691096,809.5571051205643,805.7808287135057,807.5290881706629
1731654919.031788,819.075154384112,809.5910946306511,803.648987263314,807.5044509974566
1731654919.0343187,818.3767600862847,807.8923110043772,801.3260876725456,807.3079788091388
1731654919.038227,817.7162836062009,805.159059670033,799.8958045028187,807.0511244099199
1731654919.0421357,817.0569238208278,802.9285431137504,800.2867212757228,806.8192821600254
1731654919.0457036,816.3820336607964,802.4522137865517,802.5475044362787,806.6330961367009
1731654919.046044,815.6940688952875,803.7459849618274,805.6222547483181,806.4724261726064
1731654919.0476727,815.0021765188523,805.5482956295417,807.890790127411,806.3121776378209
1731654919.049952,814.3126712832571,806.2131421982479,808.1345992833601,806.1408125265373
1731654919.0506682,813.6267093719782,804.8757011834865,806.2500647054989,805.959840289892
1731654919.0538604,812.9425108537898,802.0942525040065,803.2449900080079,805.7754482746913
1731654919.0577688,812.258149255351,799.5717847045021,800.5939267877155,805.5919823397682
1731654919.0613043,811.5728420961591,799.1236945861448,799.4164708411749,805.4102962727535
1731654919.061677,810.8867907205505,801.4948225455937,799.9398881091541,805.229225299111
1731654919.0655854,810.2004964538296,805.7865509144169,801.4611302273387,805.0474810650987
1731654919.0694935,809.5142787015997,809.9751576892379,802.782082999412,804.8645422643355
1731654919.0695486,808.8281809909516,812.277089167725,802.914735963702,804.680555741589
1731654919.073402,808.1421031386542,812.3861924466343,801.6962805451358,804.4958749639546
1731654919.076905,807.4559492136393,811.5681052736966,799.9142489349706,804.3107357696701
1731654919.0773103,806.7696904923889,811.4669010857815,798.7915580842237,804.1252005662581
1731654919.0812185,806.0833510220343,812.5888894459197,799.1480280886078,803.939254496937
1731654919.0826635,805.3969645768826,813.7635262396807,800.8513029424074,803.7528941299098
1731654919.0851269,804.7105415824112,813.0803659491221,802.9738585965789,803.566129720505
1731654919.088429,804.0240624727427,809.5447731484734,804.5132950246469,803.3789264144873
1731654919.0890353,803.3375001209499,804.0808647845389,805.0969621809825,803.1911784788393
1731654919.0925057,802.650862708139,799.0495647843999,805.1460191297969,803.0028083677803
1731654919.0929434,801.9642281756668,796.6527231848409,805.435825747317,802.813982169864
1731654919.0968518,801.2777204069027,797.4581636753742,806.4522540693033,802.6252539099204
1731654919.10076,800.5913909187702,800.1454630482696,808.0521556383368,802.4373243497125
1731654919.1046684,799.9050530106151,802.5975053657174,809.6454322721158,802.2502576554539
1731654919.107309,799.2182438843367,803.4372462125067,810.684547663251,802.0625831960741
1731654919.108106,798.5305374123602,802.825935634577,811.0315417712325,801.8714402199266
1731654919.1085768,797.8422173936606,801.9927078914757,810.9403564802353,801.6749387372197
1731654919.1124847,797.1548112095367,802.0027464831968,810.7597140337369,801.476242727344
1731654919.116393,796.4705235456166,802.8388152996395,810.6645884709167,801.2857230402468
1731654919.1176543,795.7899346113898,803.5239190845758,810.6037727542628,801.1154888348347
1731654919.1203015,795.1090067715071,803.0867711098359,810.4077510099454,800.9641360221037
1731654919.1237068,794.4188335799367,801.4812718224222,809.9135399428405,800.8009028253084
1731654919.12421,793.7121341381303,799.6888054190126,809.0490951048452,800.5714671599312
1731654919.12619,792.9960007967208,798.9921552459558,807.8859874292805,800.2456299814119
1731654919.1281185,792.3006671639527,800.0919466933473,806.6296587125172,799.8930173847878
1731654919.1320264,791.666280214676,802.7513007370414,805.4995548728095,799.7135729899603
1731654919.1359348,791.0977550485479,806.0801402477728,804.5602500824208,799.9174694463052
1731654919.1393073,790.5110849291412,809.0334169775674,803.6776771528492,800.4259613958714
1731654919.139843,789.7380812187138,810.7097931984871,802.6981130924813,800.5803724710418
1731654919.1437514,788.6609642232859,810.4638655949229,801.7129306101274,799.2618310759772
1731654919.1450703,787.4558706084073,808.0929873060335,801.140427931803,795.6965289922371
1731654919.1476598,786.7433656111644,804.1142048217482,801.49861497446,790.5287639213889
1731654919.151568,787.3271547949172,799.7748805913265,803.0238307212408,786.0498334052018
1731654919.152645,789.4264070835803,796.5216793117702,805.4310858562355,784.879601682086
1731654919.154908,791.9507021091059,795.2013177366265,807.999423956695,787.9048635708587
1731654919.1554763,792.7999516359667,795.6555436095762,809.9242975559025,793.2809165871679
1731654919.1593847,790.4795019195085,797.0831115414348,810.7019020956047,797.5679959249492
1731654919.163293,785.8352850943443,798.813894096041,810.3036296695223,798.2323262282566
1731654919.1639507,782.1264014586055,800.7410274874602,809.0567429639593,795.4833205150024
1731654919.1672013,782.8889400633976,803.0343783292957,807.3665496716183,791.8974641343422
1731654919.1705086,789.0613360700304,805.5324919824345,805.5220086872756,790.1439440675973
1731654919.1711094,797.7918970176012,807.5517414049835,803.7079780891248,790.7619531037682
1731654919.1750178,804.2476011487705,808.3747250028763,802.1141749556618,791.881026280946
1731654919.1789262,805.2791430082809,807.8993135633327,800.9481719441925,791.0777847869272
1731654919.182831,801.9940022739678,806.7261035618848,800.3219446769726,787.7444454475807
1731654919.1828344,798.9208762727469,805.5831478605019,800.1631986949973,783.9713385492424
1731654919.1861093,800.257075135258,804.7280098124035,800.2668762385392,783.2379805679245
1731654919.1867428,806.2912814777521,803.9677420913022,800.4305381467693,787.9656147036291
1731654919.187636,813.0721354799724,803.1918713813154,800.547189762051,797.7701182224802
1731654919.1906507,815.6412769372639,802.6950802973506,800.6058379365841,809.5989951461819
1731654919.194559,812.0726067337959,802.8193435117603,800.6396676708331,819.5211905945264
1731654919.1984675,804.9086599712756,803.3086863106176,800.6788266093523,824.8558770946842
1731654919.2017095,798.9306092494551,803.238973235876,800.7328943637472,825.2612134068211
1731654919.2017114,797.3759965924421,801.8414211069165,800.79648051813,822.2868317164575
1731654919.202376,799.8562489384698,799.4976941892176,800.8610761563658,818.0277336756409
1731654919.2062843,803.4639306487502,797.7995184032841,800.9221263577257,814.0419205573095
1731654919.210193,805.7242161910153,798.370851200447,800.9796093694187,811.2165655474305
1731654919.2141008,806.6961429869064,801.4069916678455,801.0354563947993,810.249157878322
1731654919.2173104,808.5775950271361,805.2955524840984,801.0912234914971,811.8345975707251
1731654919.2180092,813.3867400347922,807.760028060792,801.147325825807,816.0922629642849
1731654919.2205918,820.7562633958851,807.5715407097935,801.2034217130185,821.7643705702724
1731654919.2219174,827.6124731048214,805.353360573323,801.2590508386911,826.2020674817302
1731654919.2226267,829.9781274779792,802.842578496468,801.3139829367005,826.5731756435176
1731654919.2258258,825.5663890678553,801.3633629864445,801.36822414982,821.6069572580894
1731654919.2297342,815.2969245004895,800.9064557594254,801.4218722848819,812.5956652068237
1731654919.232911,802.6845985904678,800.5358198811545,801.4749975667878,802.8483210468547
1731654919.2336423,791.6317698021708,799.5553213412178,801.5276088677138,795.9169847507424
1731654919.2375507,784.3189181948147,798.2450131624489,801.5796777828785,793.7577028864739
1731654919.2394722,780.7028406630329,797.5696465276221,801.6311725326706,795.9387119447101
1731654919.241459,779.7205303609453,798.3308415816344,801.6820749106771,800.2187098955413
1731654919.2453673,780.8509430786559,800.6260091406124,801.7323793597967,803.9567077949728
1731654919.2485116,784.4922075379405,803.9380387355995,801.7820849484807,805.4678550171606
1731654919.2492757,790.858366939405,807.5027258649975,801.8311893130211,804.6828641264789
1731654919.2531838,798.6148780179948,810.5340237263596,801.8796872337975,802.9417117533112
1731654919.2570922,804.8018752679134,812.2971803056228,801.92757209639,802.1100280636028
1731654919.2576177,806.4370689905263,812.2669550650373,801.9748376828287,803.4245163351582
1731654919.2583525,802.6513853058731,810.4188732777093,802.0214789882518,806.6456433889392
1731654919.2610006,795.6485281498323,807.3952645208875,802.067492110768,810.0839805480482
1731654919.2641122,789.5998654894884,804.2790605833234,802.1128738138093,811.6229376768734
1731654919.2649088,788.1052236776638,802.0331451008203,802.1576212228592,810.1208247280907
1731654919.2688172,791.955344603589,800.9959571103436,802.2017317707872,806.1701281949153
1731654919.272725,798.800583814167,800.8282374546624,802.245203285223,801.6399821295007
1731654919.2766335,804.9713923125777,800.9513314862784,802.2880340830965,798.442383251196
1731654919.277233,808.0876634183737,801.1100604033568,802.3302230095759,797.5866521277425
1731654919.279713,808.5228344561483,801.5912802056524,802.3717694288645,799.1811950476988
1731654919.280542,808.7225490147896,802.9177869043256,802.4126731998375,803.0379351222335
1731654919.2844503,811.0232463890009,805.2713392757602,802.4529346598767,808.9946627936864
1731654919.2883587,815.6711674790304,808.1261983223458,802.4925546215298,816.526534056696
1731654919.2922668,820.4995328286984,810.4124969461017,802.5315343756878,824.1368928126124
1731654919.2926085,822.4794120440991,811.108388810396,802.5698756942244,829.423053581099
1731654919.2953136,820.0290967534798,809.835712914214,802.6075808291383,830.1797065493801
1731654919.2961135,814.4099131771054,807.0673876414711,802.6446525088511,825.9049556269889
1731654919.2961752,809.0979885871491,803.8640986070448,802.6810939334637,818.5034124263376
1731654919.3000836,807.4010351166198,801.3429758103283,802.7169087701307,811.4039692948623
1731654919.3039918,809.9636094026984,800.1653753976757,802.75210114871,807.5099173311671
1731654919.3079002,814.1457056392368,800.2710269765146,802.7866756573359,807.4372152672834
1731654919.310914,816.0025376309228,800.9771173193387,802.8206373376134,809.3915540278489
1731654919.3118083,813.4331379637879,801.4021213572161,802.8539916794065,810.7311872172947
1731654919.314994,807.8510959464253,800.9772335149695,802.886744615323,809.8925164934095
1731654919.3157167,802.856078837774,799.7151278239852,802.918902514868,807.1942571398334
1731654919.3196251,801.0751472824786,798.0660976355897,802.9504721779562,804.1539530491443
1731654919.3235333,802.0630939245008,796.5292096967161,802.9814608274157,802.1778951871117
1731654919.3265147,803.1408493430735,795.3919227497847,803.0118761006296,801.7380537730902
1731654919.3274417,802.2546459922183,794.8099490470323,803.0417260414808,802.4736129830438
1731654919.327599,800.0741007354588,795.0437959055096,803.0710190944487,803.868283870193
1731654919.33135,799.3435896175735,796.456584881653,803.0997641015801,805.840202510186
1731654919.3338742,802.0993116132513,799.1211211568722,803.1279702993895,808.7459898088828
1731654919.3352582,807.3287049645561,802.38090545916,803.1556473084997,812.7528371148387
1731654919.3391666,811.2664576756032,804.9315592598457,803.1828051094359,817.0785921684412
1731654919.3421154,810.20466692805,805.6086661034814,803.2094540089688,819.872313648837
1731654919.3430748,803.49796508153,804.3593901707775,803.2356046205894,819.1150032465749
1731654919.3469832,794.2595247856958,802.5301885717051,803.2612678930489,814.0241191024362
1731654919.3508916,787.1724898656237,802.05618927286,803.2864551956797,805.8609845261711
1731654919.3527546,785.1675088589697,804.0644106131565,803.3111783978608,797.4188467605435
1731654919.3547995,787.5239237060271,807.9689010709759,803.3354498050724,791.5144412352255
1731654919.3577158,790.758995757589,811.799795036725,803.3592818396432,789.5591863165149
1731654919.358708,791.5565679545497,813.5452301028192,803.3826865766727,791.1266779307831
1731654919.3625898,789.4988107387237,812.5074708699836,803.4056756023784,794.6097847859468
1731654919.3626163,787.4846381065064,809.6924516284693,803.4282608129282,798.3163338468153
1731654919.3665247,789.404125860707,807.0005966053717,803.4504562242162,801.2223752643143
1731654919.370433,796.7724996368025,805.8574954300923,803.4722794866207,803.0599582793859
1731654919.371635,806.9875162985655,806.2770116900458,803.4937504949596,804.0062007296497
1731654919.3733163,814.763783697749,806.9800932309872,803.5148852443145,804.4625610549685
1731654919.3743412,815.8479174815226,806.419284099837,803.5356875399864,805.1082739539171
1731654919.3782496,810.227981687499,803.942100389321,803.5561477489724,806.9200357397194
1731654919.382158,802.2833010063956,800.2712289837581,803.5762597312882,810.7453915311381
1731654919.3860662,797.6282062223638,796.9974261243505,803.5960554366749,816.5111255515386
1731654919.3889172,799.038648395135,795.4956107046544,803.6156302895014,822.7504633978688
1731654919.3899746,804.6438327827036,796.0624121931432,803.6351102220883,827.1070393205545
1731654919.390515,809.7605235265567,797.8502171890066,803.6545308561649,827.6930663832479
1731654919.3938828,810.80076379472,799.5433922418943,803.6736879084642,824.3511303890615
1731654919.3975806,808.0593212757286,800.2111232904816,803.6921380937894,818.8081546466426
1731654919.3977911,805.2024845768602,799.7554163762939,803.7095488334627,813.5417936521452
1731654919.4016995,806.0254356949062,798.7788062578569,803.7263510822452,810.2417685792736
1731654919.404518,811.2381008435749,798.1267875495772,803.7441483375426,809.0692055239888
1731654919.4056077,817.9175202354556,798.4748207214137,803.7649637931908,809.1104012209463
1731654919.4093957,821.9827883562432,800.1248589165953,803.7888787482538,809.345088692167
1731654919.409516,821.5308539053998,802.9386102817261,803.8113611125199,809.2563843316191
1731654919.4134245,818.2248995875318,806.32228087819,803.823756078575,808.8380035851667
1731654919.4173326,815.6603845474029,809.3370469953438,803.8204193102447,808.2976895270521
1731654919.4201183,816.21161555323,811.0544705673921,803.810931407073,807.8023029293403
1731654919.421241,819.0621901445732,811.0610936382897,803.8263679451533,807.3958464702225
1731654919.4251492,821.0031112984261,809.7574062497304,803.9025938635593,807.0416601322505
1731654919.428276,819.2201518624122,808.1415464402631,804.0342936139901,806.6911743667774
1731654919.4290576,813.7007169756099,807.1698227980144,804.1274495928191,806.3209733260994
1731654919.4325714,807.2879297083281,807.179485023759,804.0163892776959,805.9330312952011
1731654919.432966,803.3735795653861,807.8222516768942,803.6034946363573,805.5389569397403
1731654919.435719,803.1690804601466,808.4866761594808,803.072649813592,805.1472033935245
1731654919.4368742,804.8850783226892,808.7513292141623,802.9633891822858,804.7595430199218
1731654919.4407823,805.5990356609608,808.4644872176734,803.8873889110663,804.3737265279033
1731654919.4446907,804.2402195775925,807.5204690174166,805.988265532343,803.98713875012
1731654919.4471564,802.9367147098964,805.7600702498678,808.6158729807034,803.5985987664218
1731654919.448599,805.1863437651147,803.2486350776944,810.6122524505662,803.2082377936285
1731654919.4513197,812.1672550621694,800.6622151748268,811.0734336071206,802.8166268796228
1731654919.4525075,820.5296194793627,799.238816077815,809.9827700854394,802.424126338724
1731654919.4564157,824.0999041078486,800.0937574384028,808.1706539854538,802.0307360486129
1731654919.460324,818.5282204333447,803.3573988935701,806.6435040884494,801.636254812679
1731654919.4642322,805.0418755230336,807.8822880858047,805.9068665279689,801.2404756682575
1731654919.466037,789.994311433737,811.8411790268591,805.8346193226208,800.8432790858267
1731654919.46692,780.4914288234033,813.7911307822241,806.0169006446363,800.444626228467
1731654919.4675622,779.6769361130008,813.4262597254497,806.1379441665986,800.0445071714419
1731654919.4681406,785.3023386174241,811.5620244969557,806.1067188623764,799.6428852760631
1731654919.472049,792.2780586669422,809.507794451011,805.9814460459907,799.2396578008912
1731654919.4759572,796.8040744600578,808.3375981185874,805.8467535237403,798.8346557214663
1731654919.4798656,798.8424418469859,808.4757116728798,805.7453022513848,798.4277140490199
1731654919.4825208,801.344745017625,809.6977283020057,805.6749217661045,798.0188110748118
1731654919.4837737,807.1875528140785,811.4020998535101,805.615489018093,797.608180334962
1731654919.4849174,816.3140025303562,812.9362247898986,805.551730643994,797.1962052025399
1731654919.487682,825.2390252738229,813.8095965437382,805.4800039117241,796.7829617819768
1731654919.4915905,829.2782660508097,813.7290718308219,805.403947360735,796.3676049115991
1731654919.495499,825.8753706260242,812.5182448346127,805.3280627200163,795.9482788570207
1731654919.4981215,816.5743948079091,810.0766607807905,805.2544171365757,795.5233776038014
1731654919.4994073,806.1463839401192,806.4999896537113,805.1827469092908,795.0941134382922
1731654919.502553,799.49142534112,802.2979828342261,805.1119583568347,794.6663961430123
1731654919.5033154,798.5863671765097,798.4583813380983,805.0412913294126,794.2483768561842
1731654919.5037978,801.6309307379943,796.1300918841647,804.9706106338781,793.8414757098807
1731654919.5072236,804.8117097125403,795.9949593229964,804.9001405190762,793.4292908796398
1731654919.511132,805.1838810644462,797.7391596156114,804.8301258432073,792.9776974553112
1731654919.5137222,802.5171738682178,800.0865845275722,804.7606737522723,792.4608240228632
1731654919.5150402,798.9278959861205,801.5005653757426,804.6917720619718,791.9094356875288
1731654919.5189486,796.8548403908443,801.1464275403351,804.6233717341272,791.440998638642
1731654919.522678,797.10007059487,799.4499170953258,804.5554442246071,791.2030715515227
1731654919.522857,798.4471682752029,797.8156307886909,804.4879909151359,791.1962637165793
1731654919.526765,799.0366193967319,797.652268165871,804.4210263123166,791.0710532493116
1731654919.5293226,798.2608883390549,799.3797516473318,804.3545639287431,790.1489640607296
1731654919.5306735,797.521822864727,802.1478149838283,804.2886180196684,787.8931029092314
1731654919.5345817,799.1155009692034,804.4709443451092,804.2232140110647,784.65090459605
1731654919.5375438,804.0745559455424,805.26405553503,804.158388009108,781.9840980752482
1731654919.53849,810.7534075204113,804.4691726634094,804.0941597881729,782.0148766962077
1731654919.5415585,815.4841400811516,802.8678868515543,804.0304887339257,786.0981683311048
1731654919.5423985,815.0515409108258,801.3824057079089,803.9672593006845,793.8379351855835
1731654919.5449233,809.2020239866359,800.5087049345026,803.9043580807008,803.1992473708867
1731654919.5463066,801.1438420315825,800.2480275882132,803.8418512247711,811.5880191726253
1731654919.550215,795.4135501750367,800.3830052295754,803.7801360348506,817.1375925217885
1731654919.5541234,794.6277734593297,800.7156877212075,803.719811304978,819.4324036701387
1731654919.5580316,797.6985496535227,801.0848203887234,803.6610817601783,819.3335668533717
1731654919.5604389,800.9571605456568,801.2943113290928,803.6029446270345,818.1194594564298
1731654919.560524,801.1852678870507,801.1545898943749,803.5430520760397,816.546186556166
1731654919.56194,797.9992938843891,800.638510200131,803.4793461871542,814.4571016521528
1731654919.565848,793.7439783480047,799.9638352252174,803.4134410858559,811.167238327905
1731654919.5697565,791.2633846419684,799.4716829583098,803.3531536504864,806.2715726076029
1731654919.5725346,791.6244821050182,799.4027395800973,803.3093756128116,800.2370179696692
1731654919.573665,793.6947517583206,799.7963250257361,803.2843313678828,794.3758907421436
1731654919.5761244,795.7145476702854,800.591670409009,803.256875121622,790.3010644033305
1731654919.5775733,797.2175846843887,801.7602651338008,803.1823079318175,789.2522231578446
1731654919.5793192,799.3828819664246,803.2568406138192,803.0263479666745,791.6051340665547
1731654919.5814817,803.4203865991913,804.8312290174259,802.8295038311461,796.6902006319262
1731654919.5853896,808.5705585911917,806.0020106754185,802.7496078829485,802.971139239892
1731654919.589298,811.853850749591,806.3886271225691,802.9948002085799,808.5683696917341
1731654919.591725,810.1665546254388,806.1632761086457,803.6085768146323,811.9335037506845
1731654919.5932064,803.0442031962775,806.108307244033,804.2326333060515,812.3621255578466
1731654919.5971146,793.6052271969945,807.0552142337207,804.1202685155839,810.1779664022894
1731654919.5981996,786.6909661925115,809.1099818655621,802.5695188733345,806.6665908501948
1731654919.601023,785.626942570178,811.3633878449939,799.5689948237243,803.8263036319132
1731654919.6049314,790.1239156354766,812.3963763794683,796.1306681258585,803.772260442582
1731654919.6073258,796.7770136727642,811.2020763784942,793.8998981925796,807.6698546399078
1731654919.607525,801.5589656628505,807.8234473423545,794.1928388985363,814.651819416601
1731654919.6088395,802.4056261390564,803.2942470882039,797.1516036743513,821.7453537964874
1731654919.612748,800.2252532850048,799.0342503694342,801.6754042729835,825.4727373566502
1731654919.616656,797.9052114274621,796.1870068013043,806.144266258631,824.3608534117708
1731654919.61708,798.1514495657747,795.2875945892389,809.3084951144892,820.3372858481907
1731654919.6205645,801.5992969117231,796.2905168366317,810.7021855859953,817.459537138462
1731654919.6229265,806.391628289109,798.7345673556678,810.5012636696542,818.6551850971488
1731654919.6244729,809.5010327436936,801.8778862463433,809.2201331251741,823.1651809641286
1731654919.628381,808.9315736352199,804.8599906999125,807.5497062093028,827.0284707589412
1731654919.6322894,805.2582868075219,807.0072534944591,806.2467026611623,826.3014483716275
1731654919.6359606,801.3231863213147,808.1769021028863,805.8765759691516,820.2422637508804
1731654919.6361976,800.212530272005,808.8134297112864,806.5008871647037,811.7804454682222
1731654919.638527,802.9744118551746,809.5331412146393,807.6287128516938,805.063206541002
1731654919.640106,807.809304239428,810.5165141168303,808.5695148164613,802.3064533885365
1731654919.642516,811.3740900562773,811.2835326089289,808.9337624005329,802.4761578650764
1731654919.6440144,811.1993576456961,811.1367123269933,808.8718227355907,802.566922565058
1731654919.6479225,807.3573163120755,809.876941450156,808.8709959235376,800.1826766781443
1731654919.651831,802.1770012668197,808.0576869244953,809.3014373025726,795.3613926509526
1731654919.6541276,798.4306681816291,806.5198521939107,810.084614846957,790.4143354719071
1731654919.6548407,797.5682769652849,805.7350386215526,810.7299888846347,788.1150736362667
1731654919.6557393,799.2837923762573,805.6026940346662,810.6839744295032,789.7098176010985
1731654919.6596477,802.4035232406983,805.7374249038814,809.7145731993578,794.2116293341521
1731654919.663556,806.0792434558689,805.82794763224,808.0760226476247,799.376906766984
1731654919.667464,810.2918647893707,805.7749402105649,806.3984881809374,803.4585694934955
1731654919.6697285,815.4069531017362,805.6275640925221,805.4190451112693,806.2939359712183
1731654919.6713724,821.2662194937363,805.4665590150566,805.6811091488406,808.9328774514902
1731654919.6737213,826.6372301971368,805.3352892605043,807.2603102922891,812.2630442846296
1731654919.6752808,829.6363828751709,805.2337925608725,809.5870722294087,815.8657207474544
1731654919.6775067,829.0038382584528,805.1434023593707,811.5292177557767,818.0533285633397
1731654919.679189,825.2636292496899,805.0490533043695,811.8725032408288,817.047041548761
1731654919.6830974,820.6441448643973,804.9466300326363,810.055972247632,812.3719938032906
1731654919.6853287,817.5638918313896,804.8392877741392,806.6710396079986,805.3846785080185
1731654919.6870055,816.8186725978388,804.7313292343187,803.2292234969184,798.4943986060523
1731654919.690914,817.0379311200426,804.6248559972165,801.2218060016477,793.667800961093
1731654919.6926017,815.9369401175653,804.5197042243936,801.1552614871965,791.4075146019965
1731654919.6948223,812.2751681416302,804.4148320400965,802.3616620790207,790.944474746051
1731654919.6987305,806.8049711973524,804.3094645500831,803.6956283648293,791.2260211513635
1731654919.7009294,801.4843921921115,804.203420484284,804.40503025072,791.662583776393
1731654919.7026389,797.8346913595359,804.0968839936435,804.4360980044581,792.153773955792
1731654919.706547,795.9733877330954,803.9900795338135,804.140774170781,792.7583811655826
1731654919.7104554,795.0368733102249,803.8831039860794,803.8585018159287,793.4820047620859
1731654919.711482,794.3761149886404,803.7759256645351,803.7219843902242,794.2670412484491
1731654919.7124977,794.3325397979476,803.6684550902149,803.6956275510394,795.0527376912236
1731654919.7143638,795.9289719399565,803.5606143140859,803.6948645450789,795.8110552535875
