timestamps,eeg_1,eeg_2,eeg_3,eeg_4
1731655700.3097613,808.2892448191715,799.8387719988898,804.7405564538698,810.5188407897725
1731655700.3130467,802.9536731037123,799.9674225141825,804.7892814446853,807.330829353638
1731655700.3286667,800.1143684771495,800.0279143807267,804.808113600088,806.0081240476933
1731655700.3286667,803.5133070636363,800.2530453926298,804.7952827468004,808.5581420109299
1731655700.3442864,815.7753477600604,801.1089485429211,804.7438876048703,815.7400276606945
1731655700.3475718,833.6411205040231,802.8199114504023,804.5778077639962,824.9805173542608
1731655700.3486998,846.4935501840012,804.8712809990753,804.167710695703,830.413426095952
1731655700.3526003,842.3936608117425,806.0148933251373,803.4784921169014,826.6261613872344
1731655700.3565009,818.4363118755169,804.934959698721,802.720830115765,813.7540410642638
1731655700.3599064,786.0058035281455,801.1343127536481,802.2838176543405,798.9589969957698
1731655700.3604014,764.0849184005012,795.3506041652848,802.3941557613572,791.6561682271509
1731655700.364302,764.4959660822778,789.1913787872229,802.7838798335893,795.7678159039967
1731655700.3664773,781.8512276495622,784.3203404179723,802.7911292230501,806.0093789706499
1731655700.3682024,798.2389183839549,781.7907979001556,801.9929860881024,812.3204478379575
1731655700.372103,799.3912405278073,781.8099368233177,800.873459666278,809.0474241963981
1731655700.3755264,787.6133596588417,783.794544697881,800.7777028113002,800.455842862821
1731655700.3760035,778.9661310480469,786.5580754009629,802.9225438070966,796.9652020408888
1731655700.379904,787.0324083023066,788.7286882906027,807.1724296193614,805.1293566764489
1731655700.3838046,808.9301521652095,789.474719530462,811.7109201085805,820.7275302884649
1731655700.3853824,827.4984340147358,789.163920829907,814.0823318442133,831.8869641396228
1731655700.387705,827.8961131491774,789.2977228532385,812.8765801510142,829.7941629604093
1731655700.3911462,812.5249628008843,791.506354107075,808.7323277635622,817.1321303121749
1731655700.3916056,799.4641879922448,796.2603641882782,803.9045024511416,806.1695386137663
1731655700.395506,805.4089864684441,802.3366743981744,800.8052648849072,807.9167962533097
1731655700.399407,829.1979037032156,807.5136450557264,800.6331212378383,822.1074793744846
1731655700.4033072,851.8405706799653,809.9747394167073,802.9617848628425,837.171756802704
1731655700.4042878,853.5432009450327,809.3770039852351,806.3396391734603,840.3367484918003
1731655700.4067662,832.0945211102687,806.8759329926173,809.279670877,828.7795111926681
1731655700.4072075,805.4060417678218,804.2153578615712,810.9407305475941,811.7971111436818
1731655700.4111085,795.6254786823647,802.6164136213282,811.219933618262,802.1508773857272
1731655700.4150088,809.4222315171681,802.2265697406102,810.4544331174318,804.6300818863793
1731655700.4189093,832.5947378060583,802.3859194958408,809.0926441670259,812.3533525712361
1731655700.4223862,843.6610385366102,802.3492827167066,807.5224970113859,814.0026617878251
1731655700.4228098,833.3978174732817,801.8383545353565,806.0149841027808,804.8876539363897
1731655700.423193,812.20467084937,801.0646802433492,804.6907214621239,791.2668576350653
1731655700.4267104,799.1379369193328,800.3746330419813,803.5110923908206,784.0039560252523
1731655700.430611,803.6093603540656,799.9276251420282,802.3459837139497,787.9008360613902
1731655700.4345114,816.9893677954293,799.6418489854466,801.0988031389536,797.0353896394148
1731655700.4380062,821.5823963578551,799.3279712732681,799.7833651198206,800.5020457215606
1731655700.438412,808.2276165616278,798.849076318082,798.4795476836689,792.979626964099
1731655700.4420984,785.8722903543048,798.2630995161899,797.231212260187,780.0553740818161
1731655700.4423125,773.8472192166354,797.9239207433168,796.0349936810804,773.3681191774381
1731655700.4462132,783.6812203747386,798.3930231944644,794.9804177302173,780.3649546603626
1731655700.4501138,807.4970301041081,800.046158429434,794.4088042011842,798.3259815087453
1731655700.453626,824.4173902464614,802.5971336381044,794.8679136671567,817.5923308865176
1731655700.4540143,819.5421449581835,805.0527598493877,796.7777312811751,829.7820441291093
1731655700.4579148,797.8081756155766,806.3803057581979,799.9936613395595,832.9808931334262
1731655700.4610035,779.5666687498839,806.463693459465,803.6235190089923,830.6025618065403
1731655700.4618154,781.9578378394018,806.4343529190623,806.3564912905196,827.085678644534
1731655700.465716,803.5023993849079,807.839723608547,807.2212289316618,824.8827382383857
1731655700.469246,826.0363931754455,811.1854168146524,806.3157764217566,824.1728399258927
1731655700.4696164,831.6877897889813,815.146216442745,804.9301422343498,824.0826322294564
1731655700.4735167,818.8069591091995,817.3059417227845,804.7995991369019,823.8439801509525
1731655700.4774177,802.2977582923752,815.9352139471387,806.8712172916946,823.2177772146865
1731655700.4799087,798.6585924883492,811.3412820550677,810.4743433004165,822.3429430486736
1731655700.481318,810.1318288488758,805.6973816822327,813.6421383045716,821.4344667843847
1731655700.484866,822.8494114891196,801.5893705574587,814.4943560889403,820.6058123633222
1731655700.4852183,820.6760781884655,800.5083353271654,812.6926685597396,819.8559309931366
1731655700.4891193,801.8016456721351,802.339506127884,809.8217726311277,819.1352013207935
1731655700.4930196,782.3171761464596,805.9069999675966,808.332277849794,818.4041123236113
1731655700.49692,782.6404009048164,809.8340932626517,809.7813085212673,817.6521653969087
1731655700.498814,808.3791423370924,813.00347212819,813.6422914509853,816.8878685315767
1731655700.5004857,842.8841857937049,814.5393314449337,817.5413957730108,816.1225587420097
1731655700.5008206,859.0756210355808,813.7655921479585,818.7710234728778,815.3616833897238
1731655700.5047212,841.4671518268824,810.513263273899,816.0660557138033,814.6047390940163
1731655700.5086217,800.1102150714721,805.5997072087011,810.4731573156026,813.8489698002305
1731655700.5120966,764.3608079311958,800.8940152403404,804.7629526722583,813.0923606248457
1731655700.5125222,760.7710425898026,798.5806541199246,801.7902978896476,812.3344415255453
1731655700.5161057,792.4424720410412,799.9135366721595,802.8518019336342,811.5756376235827
1731655700.5164227,836.2717316931214,804.3201498722626,807.0210200948163,810.8164216085864
1731655700.5177195,860.4970654365842,809.6237325259876,811.7811869440297,810.0569724974339
1731655700.5203233,848.934036870363,813.3683533976526,814.5046800242981,809.2973325943235
1731655700.5242238,812.8489775916653,814.3309595473374,813.8888128998628,808.5376628252435
1731655700.5281243,781.0784290483433,813.0771633482948,810.5264431545212,807.7781910327279
1731655700.5317256,776.466953876153,811.171030988918,806.3123258912245,807.0187463493072
1731655700.5320249,797.8853290656637,809.7840105131985,803.1151790220371,806.258259599572
1731655700.5359254,822.4387293956562,808.9142604357219,801.6469599044584,805.4950171096092
1731655700.536625,825.6133169406208,807.7768904793425,801.3203113914357,804.7282754967987
1731655700.539826,802.2751253117406,805.8176104704877,801.1110109670338,803.9606313760715
1731655700.5437264,771.0677347089,803.322169267758,800.618787392352,803.1986608860872
1731655700.5470002,758.7919122514702,801.1342285327611,800.3754416973562,802.4485982112293
1731655700.5473454,777.8312637553671,799.9106550501571,801.1607910340509,801.7067673974268
1731655700.547627,815.2143003824359,799.6820960740631,803.0334310822911,800.9517300032262
1731655700.5515275,842.3502100243114,800.0117099951664,805.0743592776059,800.1518449617971
1731655700.555428,837.7100061137434,800.4260950976079,806.1634344443412,799.2976953058853
1731655700.55553,804.1767129839859,800.6890122517829,806.0698369391508,798.4452301864353
1731655700.5593286,766.9837166507454,800.7998277397901,805.743856344861,797.7211302596559
1731655700.5629654,753.8391480282796,800.8550495399778,806.4047835289838,797.232519062451
1731655700.563229,773.26812993599,800.931176982423,808.2316264160893,796.8854906056828
1731655700.5671296,808.5380817310017,801.0478441008148,809.9913921180437,796.2556262056372
1731655700.57103,831.7156413251637,801.1878325760877,810.1277684563291,794.7686964987292
1731655700.5744352,826.087870890598,801.3288054905207,808.3443034541403,792.3434151328555
1731655700.574931,798.7605812039619,801.4601797137287,806.0604384561505,790.1842816829877
1731655700.5785854,773.713955709478,801.5830450360043,805.1305176096504,790.8002162950181
1731655700.5788312,771.6248924613058,801.7028394205032,806.0047917919479,796.2845715398132
1731655700.5819037,793.1687741467516,801.8234849676604,807.2163438497395,805.3264228892338
1731655700.5827315,819.1677122691458,801.9458149743771,806.8270348610289,811.9129775385792
1731655700.5866325,826.9699588795088,802.0688279610746,804.4374717064043,808.9112947895019
1731655700.5905328,809.2512448435925,802.1913731294219,801.6791450252005,794.955152390089
1731655700.5933406,779.6619728682767,802.3129680825018,800.5912240971314,777.7579172879293
1731655700.5942051,760.8325622353484,802.4337326461117,801.486100935884,768.959748561899
1731655700.5944333,765.0540634364751,802.5539842058486,802.5150709890497,774.1569506384449
1731655700.5983338,784.0585388828363,802.6739405130816,801.4487109234028,787.3850078400584
1731655700.6022344,796.4889094342808,802.7936543790609,797.9159540697635,795.7695382438404
1731655700.606135,786.5307766400753,802.9130885793525,793.8749429383777,790.7416384758275
1731655700.6098251,757.800079706736,803.0322037204122,791.8894437034966,775.9693171375962
1731655700.6100354,730.8819816266654,803.1509964513398,792.9364729167074,764.8040160048474
1731655700.6122458,726.7804411671365,803.2694930094394,795.7809506728426,769.1652176683074
1731655700.613936,749.9489633141777,803.3877293841125,798.280865907662,789.1877909311248
1731655700.616807,784.5002968845969,803.5057401728717,799.1903307412348,812.3248613507764
1731655700.6178365,806.5040570952999,803.6235578184841,798.8268872361284,822.8062702185537
1731655700.621737,802.6775686052301,803.7412114140673,798.2808137350626,813.9835472977483
1731655700.6254451,780.7106566649416,803.8587167437909,798.1952854518471,793.7313115133994
1731655700.6256375,762.8122633928127,803.9760638028138,798.3036578716451,778.46790020488
1731655700.629538,767.3845750548458,804.0932233999815,797.9524687843268,780.3643588669973
1731655700.6311512,793.7097143775717,804.2101925717501,796.8598599222926,797.8954071794544
1731655700.6334388,822.5676704105147,804.327064571672,795.306293069532,817.403286287816
1731655700.6373394,832.6275737455646,804.4440527999747,793.7318164808463,824.4851510101943
1731655700.641065,818.94665017732,804.5613714499437,792.374396315019,815.8865758905321
1731655700.64124,797.7312010009764,804.6789558626181,791.3983394407189,802.042068048305
1731655700.6451404,792.9384732509396,804.7962166883082,791.2289480961614,798.117368868635
1731655700.6490407,815.697785968096,804.9122304316761,792.4752967689503,810.9914451939569
1731655700.6500566,853.7431337877556,805.026668464197,795.326770025075,832.9967508287291
1731655700.6517105,879.9251673131618,805.1410936432187,799.0375022713959,847.6437250912394
1731655700.6529417,873.3382554265671,805.2592273404149,802.1504326982653,842.7451421001115
1731655700.6566849,836.2801906445275,805.3844332705822,803.3706311385729,820.3371202108252
1731655700.656842,793.2711755618662,805.5143851604054,802.3279646113926,795.3236041431852
1731655700.6607423,772.4735414846335,805.6369382184151,799.6335500817831,783.8651273846248
1731655700.664643,784.1548350589752,805.734815579906,796.3940576189198,790.9595454935115
1731655700.6685436,813.5797412131416,805.8040294025202,793.7772291575855,807.3682529081054
1731655700.6689618,833.9914255668872,805.8775973315755,792.8622525747444,818.1416143107986
1731655700.6723049,828.6683205045717,806.0274710986076,794.4371783458074,815.1939674494585
1731655700.672444,803.7534023109279,806.314105701174,798.4729725362353,803.2846829866119
1731655700.6763446,781.8344503455277,806.6910133034495,803.6744110582135,794.8898099846501
1731655700.6802452,782.5302482792559,806.9540724858922,807.8362859061039,798.9967898300006
1731655700.6841457,806.5192388326132,806.8677402953758,809.096359853246,813.4632781080172
1731655700.6866138,835.5803405708689,806.4366288245008,807.1797438590264,826.9243716084195
1731655700.6878672,847.6660987663741,805.997293613874,803.5444852299424,828.1905071093098
1731655700.6879249,834.4273099352506,805.8710864867121,800.278058836182,815.4139042952504
1731655700.6880462,807.5330018236821,805.8922332125615,798.7166843962113,797.8966280352316
1731655700.6919467,789.2586150498029,805.4535946417213,798.9246144091536,789.1638339792205
1731655700.6958473,794.8546169386879,804.1770811283775,800.2530288601247,796.5288692656482
1731655700.6997478,820.4940371008626,802.4986609484309,802.1665111210297,815.2164731914619
1731655700.7035446,846.4055559229502,801.4240414594318,804.4222531759435,831.8769342505199
1731655700.7036483,852.8378004195063,801.5993980240733,806.563259691828,834.9977817179903
1731655700.7067723,835.9884684675329,802.6553031529007,807.5495255444341,823.9626517570034
1731655700.7075489,810.8309599606839,803.5552018988301,806.2326501537095,809.345161796567
1731655700.7114494,798.4843227017692,803.628746253347,802.4075138446157,804.1330928300908
1731655700.71535,808.6170105070773,803.2577127746986,797.4298790778141,813.0927142533709
1731655700.7191646,831.5201951025314,803.5615917207215,793.6875260313858,828.9995099955713
1731655700.7192504,846.3832738788433,805.4206884701781,793.2271084418625,838.6843919223265
1731655700.721517,838.7804338398493,808.7179569904205,796.5376599147096,833.7260745078943
1731655700.723151,812.7827856819201,812.3548536247177,802.287790306357,816.9706392749068
1731655700.7256775,787.6671861750735,814.9062728634248,808.0586423901741,799.7118778144837
1731655700.7270515,781.9783802539598,815.3940102651322,811.5277807360834,792.0984313356576
1731655700.730952,798.1889159652823,813.7301958693841,811.4666029720839,794.8484543129143
1731655700.7347846,820.812477902031,810.6613662749049,808.1499720038046,799.2688765617199
1731655700.7348526,829.6914977578708,807.3153569739358,803.0844857669563,795.6687834880046
1731655700.7387533,817.3011035947671,804.6419095888218,798.2380131716168,783.0063825200324
1731655700.7426536,795.2414040742105,803.0672962200151,795.1540668406193,771.1695863652403
1731655700.744583,784.1852820135392,802.5090362864422,794.3677841110266,773.3054015587895
1731655700.746554,795.8069638484758,802.6474139428082,795.3555859493571,794.2504500407965
1731655700.7504044,822.1919332508156,803.2258160627455,796.9597301947932,824.8874841487092
1731655700.750455,841.8433282683568,804.1890251844982,798.0275257992519,847.675492538977
1731655700.7543552,837.3182978331349,805.572781568819,797.9741560959686,849.4037975867816
1731655700.7564209,809.8030867385456,807.2085699719042,797.0444434645077,831.1090307177776
1731655700.7582555,778.5292489515269,808.5090077549913,796.149658726163,807.1811948288164
1731655700.7621562,765.4441092757486,808.6645819693008,796.3257693569092,794.2994184081006
1731655700.7634883,777.6521829801395,807.2718910481736,798.0899508223363,798.976246387304
1731655700.7660244,802.0517825059758,804.8838693992609,801.0967340554125,813.5603495469142
1731655700.7660568,816.7199456080381,802.8169053322312,804.3441085155637,823.6813508847347
1731655700.7699573,809.7566024218058,802.1415181016844,806.8007991233923,820.8069775517399
1731655700.7738578,789.7313246243272,802.671285410489,807.9966219555919,809.3456082609118
1731655700.7777584,778.4616351803719,802.9907215237632,808.1510337499302,802.223615312885
1731655700.7816443,791.7675415780615,801.7045651451962,807.8307098154902,808.6955479209287
1731655700.781659,824.5987528140879,798.8742740842367,807.5100221235903,825.0951242358336
1731655700.7823937,853.7725989998148,796.2755262843569,807.3717614736303,837.0253072463598
1731655700.7855594,856.6635791358493,796.1128925166627,807.373649709628,831.6182269632919
1731655700.78946,830.3231360297781,799.2568843994173,807.407799299616,809.4426133949139
1731655700.791324,794.7926448663635,804.5321383903005,807.4070753556911,785.4813116091292
1731655700.7933605,777.5196259714093,809.6282485816034,807.3643178032632,777.7493883758566
1731655700.797261,791.6026302089668,812.7655784096917,807.3027941281739,792.7791107777028
1731655700.797264,825.723714653331,813.6865392995993,807.2443781635077,820.1271589874864
1731655700.8011615,853.8832956286474,813.295793327513,807.1967079211224,840.6512848064616
1731655700.8012989,856.6974448573593,812.5238928662744,807.1565491672241,841.8217794376818
1731655700.805062,836.6451978759341,811.563455125334,807.1180307036661,827.4688652586246
1731655700.8089626,814.8981736302453,810.1032108077975,807.0778304559965,814.0053710735415
1731655700.812863,812.7463295584739,808.1690615618809,807.035811283658,816.3805954415933
1731655700.812884,833.3274279279455,806.6348940122549,806.9933039107392,835.4502438062123
1731655700.8167636,858.8617535028064,806.8198568046834,806.9514514877125,857.1258549900288
1731655700.820204,865.5026750488782,809.439773279078,806.9106151211704,863.8459740683215
1731655700.8206642,843.3404914495392,813.7576859003107,806.8706070376636,848.8712117190819
1731655700.8245647,805.0673011150195,817.6482134360707,806.8311338782503,821.8395946243571
1731655700.8262277,776.2938528789517,818.6341823739128,806.7920531029316,801.2987065627901
1731655700.8284657,775.4336890178807,815.2900526529296,806.7533882287343,800.3786953719143
1731655700.828504,799.3363033258369,808.1549252197078,806.7152302181833,817.0063692352016
1731655700.832366,826.080942849173,799.5734106247759,806.6776517343674,836.1725728187162
1731655700.8362665,832.5870778290948,792.5194873306522,806.640682390343,842.0911420383409
1731655700.8391094,812.9065000977438,789.093989556103,806.6043287650448,830.3540604966456
1731655700.840167,782.537032932143,789.6009045240419,806.568602522699,810.462736006797
1731655700.8440676,765.3539381647452,792.7022476303841,806.533529815355,797.1028666396908
1731655700.8441238,773.8939361281132,796.3952798734687,806.4991348951588,797.7135570910707
1731655700.847968,799.1872329774914,799.0510898819227,806.4654114070913,806.7206642734005
1731655700.8518686,818.4130392902185,799.8996825024898,806.432312437686,810.9798296833568
1731655700.8557692,813.8793438641167,798.9345578682669,806.3997929749913,801.5195331151134
1731655700.8580146,787.6094248521889,796.6375708961289,806.3679055432304,781.5651945194403
1731655700.8596697,759.695191225258,793.8336020355773,806.3368772955396,764.1463669250676
1731655700.8597438,751.9359206284361,791.6018824333589,806.3070323119026,761.3076205369945
1731655700.8611312,770.0503678790068,791.0006725665617,806.2784684271063,773.8399047056342
1731655700.8635702,798.8078789731563,792.6066119317172,806.2506339463905,790.0975512567624
1731655700.8674707,814.207472640089,796.2154544248574,806.2222869826652,795.2071875521078
1731655700.8713713,803.1418776797382,801.0235999666817,806.1924037307002,783.4315403221871
1731655700.8752718,774.4698916889491,806.1442969700138,806.1619737185711,763.4524068806423
1731655700.8753638,751.9126237853793,810.9166648226242,806.1352486565157,751.7353715738212
1731655700.87692,754.2350603304387,814.6884866715363,806.1179044058391,758.9898325034064
1731655700.8791723,779.3199215386715,816.452363021825,806.1106925024114,780.8779662356002
1731655700.8830729,805.876959805912,815.0640780050253,806.1018245126829,801.0106875120954
1731655700.8869734,811.5373076005088,810.2080581507489,806.0674721656877,804.1416402840722
1731655700.890874,791.8872987262027,803.302192437798,805.9904007432847,788.7923152543929
1731655700.8909836,764.1541336031825,797.2743492837635,805.893637310285,768.7839575329256
1731655700.8947744,752.5134698652332,795.0300626403886,805.8599730824932,762.236611106827
1731655700.8958251,767.636171207252,797.6427466771423,805.9895376613985,776.8910500526736
1731655700.8960345,797.7105551356332,803.6377604764423,806.2730611310079,803.6012971185917
1731655700.898675,818.3322463298201,809.8974397090544,806.4473486775188,823.283657571976
1731655700.9025755,812.951074370248,813.4879179594661,806.0014082953617,821.8811970238103
1731655700.906476,786.8269592406156,813.1453193575932,804.4714420670201,801.4258665966058
1731655700.9066036,762.6978715071976,809.6010354556958,801.894328495651,778.2160540845263
1731655700.9103763,761.580323127334,804.8400877065161,799.001755569711,769.4825546465887
1731655700.9142773,784.8885487775713,800.9772367180287,796.8707322243874,779.4983250536425
1731655700.9147303,813.2298270798634,799.384278886651,796.2694891159445,796.6922586982565
1731655700.9181776,822.9719982118312,800.3158097906684,797.2296899102424,804.0562334406726
1731655700.922078,806.3047259651947,802.9981310622967,799.1203046596212,793.8578192474292
1731655700.9222236,777.7190087988453,806.0718431966484,801.0778156947309,774.2119027974486
1731655700.925979,761.878534348213,808.2473312141973,802.4788562185104,762.2547275761219
1731655700.9298792,773.605834010677,808.9402651073009,803.2173967897425,769.9713912616384
1731655700.930938,806.4549303906547,808.5816441024342,803.6846902407398,794.4886228478147
1731655700.9336357,838.3007730825115,808.3754392047935,804.472777524057,820.5194864945428
1731655700.9337797,848.5945854072579,809.5410241056422,805.941546188895,832.6110629336351
1731655700.9376802,833.6254448992136,812.4127345422813,807.8810392652392,827.1246712726362
1731655700.9378436,808.5333027598193,815.9545421466828,809.5014982751538,814.3439683593143
1731655700.9415808,795.0740415770143,818.1008762369211,809.8500306225455,809.2170985267927
1731655700.9454813,804.7057476577847,816.8759521105208,808.4985542929793,818.5697713463193
1731655700.9493818,830.0149958787781,811.7223202410669,806.0772459834469,835.5422497488898
1731655700.952541,851.0658898025549,804.2063577690162,804.1590332794165,845.8449786162413
1731655700.9532824,851.4994243244514,797.4813229002581,804.3452912117215,840.3026569626633
1731655700.9534633,831.4430746216817,794.5847463577688,807.0678182509971,822.8654195493357
1731655700.957183,807.0013868896804,796.5204718266797,811.0655611405945,807.3698799609283
1731655700.9610834,797.0568462630479,801.4924323825002,814.1396120808255,806.0224752165368
1731655700.964984,808.211434293453,806.0486084213417,814.7448526421991,819.3744437365723
1731655700.9658415,829.8691116740312,807.4645578564845,813.1582119760872,835.9656064166505
1731655700.9688845,843.1643581694011,805.5877012283971,811.2297570635254,841.6864550076333
1731655700.9690833,836.4925270675324,802.6897947316835,810.9055949393527,831.1705830015991
1731655700.9714465,815.2090095008308,801.4937671968025,812.7318821424253,812.1455558728275
1731655700.972785,797.5056266215203,803.0404836755514,815.5131669328493,799.3154151446832
1731655700.9766855,799.3626422342959,806.0997757799128,817.3152573394059,802.5656546807008
1731655700.980586,820.6318483663446,808.4164296532457,816.9447411612679,818.8891872273692
1731655700.9844866,844.112552503228,808.5314180121724,814.7199220322494,834.7173396885124
1731655700.9847033,849.1714362494521,806.6121117664667,811.9701351252138,837.010179161166
1731655700.988387,829.0325284153346,803.8336736759238,809.7775184219012,824.0731055447291
1731655700.9903517,797.1301648078243,801.2131649444854,808.1333769399594,807.0249570993585
1731655700.9922876,776.709865566784,799.0939178997746,806.2816517661561,800.5362268965948
1731655700.9961882,781.9708507260916,797.5662261855143,803.8417811895375,810.456692828778
1731655701.0000887,806.3763569942104,797.0719936286172,801.4868216475373,828.6130172275601
1731655701.0003233,827.9907169829166,798.3526987133521,800.405622075957,839.2001698713659
1731655701.0007448,827.6445247618946,801.7293399229053,801.0789522915619,831.7285711655593
1731655701.0039892,805.0289579045561,806.4820194216236,802.6537303516989,810.0693637755428
1731655701.0078895,779.263868433422,811.0253796848966,803.5873611674467,790.0413709575364
1731655701.0092573,773.0661730520328,813.7962375096613,802.9345467822801,787.0358023985749
1731655701.0117905,793.3940728000346,814.1087815494868,801.0480114687333,803.4189005953989
1731655701.015691,824.981866362542,812.3211510704252,799.1268524096638,826.1634206467836
1731655701.0159433,842.8351814259834,809.3288325876414,798.1806708577445,837.1634331063392
1731655701.0195916,833.5180793738509,805.9333655193881,798.3936898325031,828.0725103367545
1731655701.023492,806.9372061790338,802.5602149195744,799.2809880522017,807.2995052177209
1731655701.0273926,788.1198350048933,799.36444322344,800.2333399111419,793.1195231427502
1731655701.0281622,795.8278409045143,796.5032610774583,800.8930502560611,798.5835858447316
1731655701.0312932,826.3388377692021,794.3883374414368,801.222325866637,820.8128793554018
1731655701.031563,856.1846147271032,793.7666621768853,801.4366297534767,843.374860738086
1731655701.0351937,861.4200408996699,795.4372916740502,801.8803491628073,849.444800315914
1731655701.0356483,837.3154264228525,799.586910029424,802.7788197471408,834.8864999566865
1731655701.0390942,802.3542166707198,805.1889881762855,803.938446185404,810.9697434038219
1731655701.0429947,783.4192187622195,810.1454702475306,804.6800170078145,795.0212094599041
1731655701.0468953,794.2497946190588,812.3601335458113,804.1981919986682,796.7407761269494
1731655701.0470676,824.5659525215261,811.0377568059465,802.1619478597706,811.011040559874
1731655701.0471828,848.548087381745,807.1447251800331,799.0994196866625,822.6877261378274
1731655701.0507958,845.6604624324576,802.6318179868982,796.2269813054234,819.3329997439653
1731655701.0546963,816.8729498857992,799.1009878246687,794.7851672664356,801.533757718776
1731655701.0585968,783.3182248726697,797.0191351249109,795.3098339542673,782.3587155463448
1731655701.0624974,768.93976746153,795.9686066061986,797.3317208898058,776.3260046407729
1731655701.0628028,781.5521423996743,795.4601533878988,799.7115588503092,786.9795706258238
1731655701.0659728,807.4244564307427,795.463286004374,801.3711714181754,803.5449028314616
1731655701.066398,823.0790312395333,796.263436581079,801.8998526855868,809.7668092276722
1731655701.0702984,814.3559540326161,797.9554216350513,801.6280860626423,797.866342881728
1731655701.070552,787.6331991755583,800.1493615290686,801.1923997493011,776.0085443798522
1731655701.074199,764.6526584004233,802.1585444335443,801.0133873384733,762.6583033664826
1731655701.0780995,765.1577185747144,803.4495710240565,801.120612329532,771.8728831598322
1731655701.0784228,790.933504972666,803.9335609025254,801.3647378144711,801.3075157499258
1731655701.082,823.9013510568021,803.8941248744987,801.6579123914403,832.9730016015948
1731655701.0848782,840.1266618604925,803.700258926699,801.9262402141298,846.6431683078333
1731655701.0859003,828.9169915457836,803.5785571956234,801.9014777734823,835.3765176239706
1731655701.0898013,801.6252126984092,803.5718369057001,801.1611424145442,810.5920112342833
1731655701.0937016,782.605991013374,803.6233500894527,799.5421472987134,792.534284918877
1731655701.0940423,789.3055156257612,803.6710196408073,797.5300245218268,794.0256094349936
1731655701.097602,817.7557312193348,803.6899181663382,796.1424899718027,810.9281734762384
1731655701.101503,845.5654713286114,803.6868735201879,796.3150030066231,826.8914818237829
1731655701.1037834,850.0475500413323,803.6781654118596,798.2794166973492,827.8166922306833
1731655701.1054032,826.6150589930983,803.6739867475108,801.4010933283329,813.586357029787
1731655701.1054552,792.4797264718136,803.6755531157066,804.5467362002569,797.4832648130291
1731655701.1093037,772.7706758147696,803.6794650649153,806.7217524404501,794.3519287071282
1731655701.1096623,780.3731068465218,803.6824654350115,807.5967545062431,807.7470672644018
1731655701.1132042,805.7572279658257,803.6833950100488,807.5813807489175,826.7542850334846
1731655701.1171048,825.0215984742894,803.6827222826331,807.3395339844898,834.9682026284148
1731655701.1210053,819.6600462618162,803.681324404006,807.0776773135707,824.1199661185984
1731655701.1226888,791.9189554331755,803.6797080631923,806.2473245894769,801.1001148005604
1731655701.1249058,763.0825112173754,803.6779064746453,804.0528075548931,782.6054775616672
1731655701.1252823,756.0650504799216,803.6757315711858,800.4212352181504,781.8463254370183
1731655701.1288064,776.7129670517231,803.6730212893845,796.5591520719522,798.2450862022712
1731655701.1327069,809.2132547410688,803.6697296865872,794.485706900293,818.4467419291674
1731655701.1366074,829.1282132625952,803.6658921799751,795.7970539863411,827.4850607586029
1731655701.1403587,822.9742576391499,803.6615581973438,800.5640805674406,820.6311582793979
1731655701.140508,798.2406926167508,803.6567530753357,807.1292512890791,806.2367790346019
1731655701.1409023,776.1544819861775,803.65147999895,812.8738438517913,797.6937603608359
1731655701.141594,773.8228614821609,803.6457420661262,815.4294259456809,801.6387061196573
1731655701.1444085,790.6961244925892,803.6395584166221,813.6807473713961,812.3038410357316
1731655701.148309,810.2233788651799,803.6329566293565,808.1425513897451,816.5724057751274
1731655701.1522095,814.8571578082925,803.6259407305604,800.6386640581809,805.4856422833979
1731655701.15611,801.5712524086721,803.6184590624407,793.5195298622011,782.7093191371036
1731655701.1565225,784.7046778108075,803.6104181598146,788.8100427833897,762.842604498591
1731655701.1600106,783.59683300562,803.6017788443298,787.5993798336623,760.5512092043278
1731655701.160499,805.3188937476223,803.5927003220833,789.7766674659266,778.9336716010768
1731655701.163911,837.0553720308707,803.5835855931099,794.1140481223507,806.3507663421462
1731655701.1678116,854.8416869249037,803.5748320617498,798.7276317235263,824.4564642573595
1731655701.1717122,842.0376631208447,803.5662598553722,801.872038363849,821.4684716992838
1731655701.1721425,802.991493138275,803.5566218424186,802.7529646485855,800.630785277184
1731655701.1752622,760.9921954856794,803.5440159341964,801.863755698367,777.5027332459608
1731655701.1756127,741.7447200200245,803.5277969323091,800.5822377600554,768.2446470471084
1731655701.1794045,754.8102640580319,803.511197623886,800.281434142011,777.8769621303942
1731655701.1795132,787.2257427572903,803.5017894537539,801.544008520677,797.4086160375823
1731655701.1834135,814.311366546373,803.5062466570218,803.9309267444332,811.8087713098587
1731655701.1873145,819.1728230353928,803.519466733329,806.31572560616,812.2566499731222
1731655701.1877625,805.197948715827,803.5163705647732,807.4743934971283,802.677530568754
1731655701.1912148,791.4035637937627,803.4618393911079,806.6292813639385,795.3112141098547
1731655701.195115,794.8540826092157,803.3483485668701,803.815122952827,799.3211510936397
1731655701.19831,815.3760618621051,803.2431650731082,799.9874658326937,812.3823463783164
1731655701.199016,835.6614893732473,803.2886746825715,796.7266476099583,822.5429481567935
1731655701.2029166,836.4737422378371,803.5916190430013,795.4796620653703,818.7461906703138
1731655701.203382,813.8430005468663,804.0100664095723,796.6534173522166,801.013394143148
1731655701.2068172,783.6660439953924,803.9972867514829,799.2046379336732,781.621529024335
1731655701.2101655,769.6808511687918,802.7593055096606,801.1950708559631,776.0785609464193
1731655701.2107177,784.3465204735697,799.8168296319222,801.0738141763746,790.9871696355822
1731655701.2146182,817.9990682948498,795.6310897434709,798.789458950147,818.4254529859307
1731655701.2172153,845.4166832929728,791.6910327936371,795.867169725557,841.4330527187383
1731655701.2185187,845.3150961029714,789.814241138602,794.3570179621244,846.5224255043138
1731655701.219002,817.6212675430075,791.1351670774625,795.4379835305411,833.527873074365
1731655701.2224193,784.3385457305956,795.5481807889619,798.7114202169755,815.0766931757678
1731655701.2263198,772.5689853723071,801.9040780358063,802.6454026231501,806.2258998129714
1731655701.2302203,793.0158126341965,808.5961019814721,805.7214945220887,812.7649268145603
1731655701.2341208,831.4684924499696,814.0482771853492,807.3352028453376,827.5990602292167
1731655701.234622,860.2010819439998,817.0264693859484,807.826902860743,837.65106523978
1731655701.2361205,859.7686683432682,816.9832745675224,807.8586486579533,834.9742069758829
1731655701.2380214,833.5027427976582,814.4271617693562,807.8507094740961,822.7606647843777
1731655701.241922,803.5771609954514,810.923085920461,807.8845296699631,811.7288361741943
1731655701.245069,792.6140232272231,808.3974267116995,807.8972928851377,810.4109289949951
1731655701.2458224,805.9550779698748,808.0170635255046,807.8464125296518,817.5961947682805
1731655701.249723,828.5958350142189,809.4470008195594,807.7438539247215,823.2915935620954
1731655701.2502418,838.7733497523486,811.1382158515789,807.6238132562436,817.6789094401303
1731655701.2536235,826.7653020460064,811.4959810447068,807.5107129247763,800.7820650227497
1731655701.2550256,803.1519532639868,810.0229571638713,807.41017993251,784.2639360364594
1731655701.257524,789.4046969433936,807.5138668822124,807.316466188519,782.7290571855995
1731655701.2614243,798.6814284896926,805.171204909394,807.2226005858812,801.0323894716895
1731655701.2653253,823.589552833418,803.4797891529854,807.1254697791701,828.5856977215607
1731655701.2658615,842.0909358092495,801.9401026421951,807.0255763657007,846.5786951470162
1731655701.2692256,836.7721780481188,799.9459312425811,806.9246707139281,842.8904175969382
1731655701.273126,810.5219020524767,797.8732989588691,806.8239518975785,822.1579632351203
1731655701.273931,784.6354159763788,797.105112774511,806.7236384470052,802.1380474758956
1731655701.277027,780.9159842148352,798.7822255860921,806.6233964383006,799.2058581057082
1731655701.2799726,803.2247625583476,802.5062388870203,806.5228687028557,815.1100161697431
1731655701.2809272,834.0150489269084,806.3998505570308,806.4219168413224,835.8646933927225
1731655701.2814815,848.4345489637279,808.5521991935033,806.3205885536564,843.3789621008453
1731655701.2848277,834.1798479400588,808.4306585481952,806.2189873122277,830.0647185507626
1731655701.2887282,801.0452223420291,806.9328504527307,806.1171815448713,804.6037850740884
1731655701.2926288,772.7389938453285,805.2353194783535,806.0151876497772,784.535668960713
1731655701.2928364,767.8020062146502,803.7727112028261,805.9129954208364,782.0411808523652
1731655701.2965293,785.0739320872287,802.314011795886,805.810595680614,794.589125602364
1731655701.2971015,805.327829328341,800.7698399143651,805.7079911870857,807.8359523199377
1731655701.3004298,807.5092474847771,799.637561217174,805.6051930737034,808.0085752888427
1731655701.3043303,786.2072992132348,799.5698288362158,805.5022133721491,793.4068935742337
1731655701.3082309,756.2337314701972,800.6168263029693,805.399061733568,775.7521701695516
1731655701.3117416,740.9194240851341,802.0269600445044,805.2957480833765,770.6262578949174
1731655701.3121314,753.7875175777086,802.8521005842579,805.1922872401776,784.9280921700948
1731655701.3127215,788.0027402268139,802.7913666154631,805.0886986541789,811.2255985454468
1731655701.3148758,821.3664859035628,802.5265466973095,804.9849963925884,833.133787122112
1731655701.316032,832.6729708640585,803.2823823329384,804.8811731447873,837.3779666727211
1731655701.3199325,817.0621509564977,805.9507191939721,804.777194767237,823.3769351150328
1731655701.323833,789.0024332394123,810.3921411132974,804.6730273154953,803.2218352384491
1731655701.3277335,770.7325537633953,815.3766603014177,804.5686998693577,792.1985887566894
1731655701.3283415,774.9943447566895,819.1941549627093,804.4643588858145,797.2174128576747
1731655701.330647,795.544925999954,820.5184138981622,804.3602236993373,812.1710286781873
1731655701.331634,813.0851689921404,818.9540549461591,804.2563767976114,823.7999725635225
1731655701.3355346,811.8722526306394,814.9857762033165,804.1524746792708,823.1970040723944
1731655701.339435,793.3316957342714,809.5550181049948,804.0476943189619,813.4380302196704
1731655701.3433356,775.232179522791,803.7260426278262,803.9413055947225,806.9374171593192
1731655701.3439612,776.9412881893724,798.6350846977155,803.8338678677908,814.6001064164743
1731655701.3472362,802.9471237558308,795.4657217852154,803.7281391775941,835.726128041096
1731655701.3495522,838.3358211401727,795.1038342921031,803.6279950940485,857.2028747245466
1731655701.3497794,860.1068284683175,797.5274910536291,803.5342885320642,863.1094632083071
1731655701.3511367,855.2788862609217,801.4500026524886,803.4396108817082,847.3706069001312
1731655701.3550372,831.0941529083915,804.74169692587,803.3281118307862,819.2602955354855
1731655701.3589375,808.8133593745187,805.6142703316557,803.1873475939439,796.8715447518857
1731655701.3595812,805.9886670714258,803.8626239213985,803.0308815424469,793.3568019426666
1731655701.3628385,822.0009135992103,801.2083965954737,802.913020431094,807.0232618531755
1731655701.3667388,839.3504140382387,800.294303047314,802.9037523687122,823.5138516189777
1731655701.3684576,839.8204585577242,802.8653478291137,803.0072807274348,828.1994426634797
1731655701.370639,821.4001876918358,808.3936546831864,803.0670064415993,818.2023424257266
1731655701.37454,800.7556979992532,814.2178941058647,802.7747941868032,803.9315660430352
1731655701.3752012,798.6597850063984,817.2217403026166,801.9022685167481,799.2196955677291
1731655701.3784404,821.0849620986991,815.9256583401226,800.6905337569907,808.8976608992983
1731655701.382341,852.7434347841971,811.504594648075,800.0272355832572,824.5072825263185
1731655701.384683,868.9662294972069,806.9863193513997,800.9942532448129,831.5851235142165
1731655701.3862414,855.8414643903312,805.1955429174187,803.9206278305018,822.0869338858039
1731655701.3873627,821.597314192432,806.9018781596498,807.7640440397658,801.3590723535965
1731655701.390142,789.8658333948417,810.4433864235103,810.5562369008,783.7981225985083
1731655701.390821,780.6065426105415,813.0019249457366,810.710720318631,780.8647269762171
1731655701.3940427,794.4057028241524,812.5407240439101,808.160636082992,791.5632817614319
1731655701.3979433,812.8497611688568,809.0272307641094,804.3976606514942,803.4898929722624
1731655701.4018438,814.4678664376922,804.187092675378,801.4016783741878,803.6289168552858
1731655701.4057443,793.0605743766981,800.1489542200806,800.3415553058985,789.7450040915154
1731655701.406268,763.3332463615844,798.0950335108807,801.0227538939852,772.6871615578794
1731655701.406441,749.1936435731649,797.8618002619667,802.348763298278,767.6408637715531
1731655701.4096448,764.2552349464014,798.5236349451715,803.250808166929,781.5671340017758
1731655701.4135454,800.3315642678227,799.2285133167297,803.3133341697915,807.0060366962731
1731655701.417446,833.0647211935026,799.6176935829633,802.7406387253105,827.0835232828723
1731655701.4195862,840.0704184154238,799.7456218386604,801.8888577629587,827.7375837582274
1731655701.4213464,817.3967378909831,799.8028483981645,800.8564036297224,807.8839574574039
1731655701.422061,781.9386795533666,799.9169317867828,799.4857539928632,780.1287326022785
1731655701.4251733,758.4950604669283,800.1078610441785,797.7633628604067,761.7774632791426
1731655701.425247,761.5340458776042,800.3366406846474,796.2508964032012,762.8588055474091
1731655701.4291475,785.2964600038614,800.5632020523383,796.0617440194588,779.8192557470343
1731655701.433048,809.4480970487583,800.7720215957261,798.1791596917959,799.2341739877278
1731655701.4369483,815.7030268638058,800.967813683095,802.5075848033205,808.4044350046194
1731655701.437681,802.2690448902355,801.1610396456804,807.4741123333969,804.5847228408236
1731655701.4408493,784.5462055155086,801.3580899692282,810.7235201541997,795.8618641074596
1731655701.4440787,781.5765972539526,801.5596082777945,810.5546804617699,793.4537607371284
1731655701.4447496,799.469680721793,801.7633616910485,807.0347268318034,801.9728168158358
1731655701.44865,825.5529352761687,801.9672717975683,801.9460106482184,815.5544115699752
1731655701.4525506,838.1763109121861,802.1706209023585,797.6848067699391,822.8071464245752
1731655701.4533007,824.3361847537642,802.3737202578196,795.9901501291167,816.4246539548187
1731655701.4544897,790.98241659478,802.5771242356108,797.2865014717037,799.6200975143157
1731655701.4564512,760.8500651750302,802.7811398036162,800.7777447393836,784.0927289877658
1731655701.4603517,755.7568886736772,802.9857690715259,804.9692819187972,781.0082174440441
1731655701.4629838,780.1257469502029,803.1908744743563,808.2932985733156,792.1977552644216
1731655701.4642522,817.5591364026062,803.3963383856626,809.6664166396436,808.8171291123464
1731655701.4681528,843.3890282032088,803.6021228712067,808.8446661358356,818.7199818388258
1731655701.4689207,843.5401356690451,803.808248905576,806.4443098820661,816.4553269078525
1731655701.4720533,824.6595854579431,804.0147481686122,803.6200383821042,807.3795445807147
1731655701.4759538,807.2413297431744,804.2216229864334,801.5606586186807,802.3398712962427
1731655701.4798543,807.5643744319854,804.4288291960751,801.0263050082646,807.6427759103933
1731655701.4818892,823.8928739074504,804.6362927775835,802.104792738869,819.2019913099967
1731655701.4837549,838.7932367335675,804.8439683938286,804.2724228528429,826.0517188857964
1731655701.4845407,835.3541832758881,805.0519194093959,806.7086166333177,820.1644264371184
1731655701.4876554,812.9292147051785,805.2603442331438,808.6664433420603,804.0285614000852
1731655701.4893932,788.5458372172451,805.469445792479,809.691081792867,789.3501577874206
1731655701.491556,782.7373275554943,805.6791254247519,809.6731111406206,787.7775484519195
1731655701.4954565,802.0588758192666,805.888710253792,808.8986943845774,801.3555370752589
1731655701.499357,833.2825110429683,806.0971525214678,808.1252856034555,820.7841822327748
1731655701.5001605,854.13229754055,806.3040366308835,808.400264517035,833.0527033362166
1731655701.5007944,851.3533428096956,806.5110019135925,810.3848754579875,832.039381799046
1731655701.5032575,830.8810182904111,806.7220647888138,813.5452223034018,823.0773973513693
1731655701.507158,811.7503615140064,806.9409116535073,816.0715345047433,817.6399555117124
1731655701.5110586,809.1841071333855,807.1650773231237,815.9543674702676,822.8193834805103
1731655701.514959,821.423901546426,807.3813339759093,812.4911122223898,834.7881717444651
1731655701.5157804,831.6284285062835,807.5705801637118,806.8892281972717,841.995490549377
1731655701.5188596,823.2098487303148,807.7276659495532,801.3966172835578,835.4300590134618
1731655701.5196998,795.3532185993644,807.8869664146383,797.7695467581758,817.1350590135102
1731655701.5227602,765.1866359535899,808.1235948627408,796.4004517864294,799.516085820301
1731655701.5242963,754.3654328891142,808.4944604722391,796.6202104434011,795.637822681033
1731655701.526661,771.0549478566289,808.9197744463722,797.5647969139869,808.2972348879492
1731655701.5305612,802.3820416584364,809.0820132423675,798.717757736491,826.9858783949068
1731655701.5314004,824.034421610451,808.4756153003012,799.8645135490808,835.7008328537546
1731655701.5344615,819.632841103664,806.6940375185505,800.8469455568141,825.6813225201022
1731655701.5383625,794.2059366822511,803.8711728153128,801.5216666680334,802.7601945515278
1731655701.538605,770.5048157063987,800.9877352763277,801.9025738319546,783.0783594386298
1731655701.5422628,770.7019122018559,799.6817527122083,802.2166664398586,780.4018817111
1731655701.546163,798.0482648068823,801.4303672470853,802.7449094439496,795.2878745538836
1731655701.5470202,833.3637699171854,806.4616155617086,803.5730912555689,814.8346358375208
1731655701.5500638,849.4368468055667,813.1586133403829,804.4516945431442,823.0303036997424
1731655701.5539644,832.0809944162177,818.5965134508913,804.8725163817595,813.2296568544027
1731655701.5575104,791.2971836133186,820.1249420982545,804.3468559246888,792.9546466911466
1731655701.557865,753.8609577067929,817.0482758638942,802.7602179255612,777.6517483466289
1731655701.5592,743.2623377780737,811.1761854678932,800.6002496875938,778.6705396172158
1731655701.5617654,762.6698367978111,805.6869375854695,798.8783800788445,794.8335166016133
1731655701.5626402,793.9413997291268,802.9991910379307,798.7168757979518,813.8374681983106
1731655701.565666,812.9249683119198,803.2195397226336,800.763140297079,822.085919761585
1731655701.5695665,808.476740034273,804.3817527059017,804.7149381797277,815.1527301147977
1731655701.573467,789.9262369857005,804.2584213254529,809.2512188821213,800.6826400969812
1731655701.5764158,777.3984383398822,802.2178716489695,812.5360463494188,791.574633277917
1731655701.5773675,783.6526902723502,799.6246584933674,813.1682789700258,795.1678184843756
1731655701.5782602,803.0198190513315,798.591678513865,811.0825535131761,807.4101491038302
1731655701.581268,816.6976458712012,800.2406105852427,807.7576616680391,816.7346461016276
1731655701.5851688,809.5529261239133,803.8876944675517,805.4225752091013,814.1312567129906
1731655701.5890694,783.8607968811477,807.6902976375761,805.6550929979526,800.7854284341349
1731655701.59297,758.293505181584,810.0635458113366,808.3032888750236,786.976084110239
1731655701.59388,753.0881200978001,810.6208141122045,811.5137374394345,783.4135528395968
1731655701.5941036,773.692657085561,810.0114204639492,812.8781952498197,792.3291718528466
1731655701.5953207,806.1137748411453,809.1216453360692,810.9262700430079,805.5690699094328
1731655701.5968704,827.6347873093675,808.4678294722228,805.9923325650296,811.2271147445408
1731655701.600771,824.4907495282604,808.1113198866448,799.9556478133189,803.6006818596296
1731655701.6046717,802.5970585185687,807.8882163433396,795.1026879515778,788.4333153877196
1731655701.608572,782.6333194517124,807.6430158322551,792.8800558388411,778.7618976926935
1731655701.6095,783.1303492690358,807.3218909297115,793.2897766894065,784.1756235500982
1731655701.6124723,805.2546049331538,806.9486351550897,795.188717965219,802.2222182946346
1731655701.6142263,832.0682539633966,806.5656229622531,797.1596893349666,819.6291348541503
1731655701.6163733,843.0891767406155,806.196757839779,798.3206105431043,822.9779938991927
1731655701.6202736,831.805048459056,805.8430667313122,798.5917735414431,810.080492284611
1731655701.624174,811.0344584941405,805.4950937638059,798.4013916947393,792.2362754248605
1731655701.62512,801.4568499748917,805.1447754637858,798.2045162714463,785.1855617174219
1731655701.6280746,813.226854065459,804.7896746185806,798.2043354014344,796.2450991687796
1731655701.6290069,836.5261240056346,804.4312845777936,798.3682241059037,818.2750740853895
1731655701.6319752,849.1880588059004,804.0718442407017,798.5807067846064,835.2572076165351
1731655701.6331315,835.1265754868167,803.7125028102852,798.7622406146421,834.7545255183688
1731655701.6358757,798.3982343272438,803.3532117817766,798.8982319763253,817.2595042507353
1731655701.6397762,761.3042790708153,802.9934280279903,799.0110601413525,795.2196422809538
1731655701.6407397,747.7764335823194,802.6327276727035,799.1249941367555,782.8045979150968
1731655701.6436768,765.1235125457787,802.2709980268569,799.2499465853391,784.779057371378
1731655701.6475773,798.6569978390608,801.9083247855235,799.3834656923625,793.4794166280852
1731655701.6514778,823.4726200214108,801.544812321837,799.5193186601333,796.2148767582485
1731655701.652037,823.9009576807501,801.180483561337,799.653544053626,786.7498619844785
1731655701.6553783,805.1032327142582,800.8152841284088,799.7856342202049,771.1296407893536
1731655701.6563597,787.8609966519191,800.4491519701713,799.9168855691446,762.9064526123906
1731655701.6592789,791.1564633430868,800.0820977094277,800.0485622921344,771.7133199784345
1731655701.6631794,816.5870183364843,799.7142341758606,800.1811272497376,794.6440984195071
1731655701.6639104,846.81643522937,799.3456951613916,800.3144121122883,817.614946619741
1731655701.66708,859.0865245633681,798.976437491655,800.448084901395,825.832216628274
1731655701.670942,843.0971098892459,798.6060561613484,800.5819532227497,815.142499941841
1731655701.6709805,809.1494142928007,798.2338861718357,800.7160074016372,795.1710691195789
1731655701.6719797,779.9951323664521,797.85961472043,800.8503248656493,781.5556720285466
1731655701.674881,772.8224373002323,797.4841891999671,800.9849746281374,783.3906326718019
1731655701.6787815,786.084162269986,797.1100958778438,801.1199814915884,796.141721020333
1731655701.682682,802.1943168466471,796.7397719717108,801.2553382813338,806.0101147215328
1731655701.6865826,803.7832010757239,796.3719844855034,801.3910310738252,802.1446278297982
1731655701.6875997,789.3649785533757,795.9987425770572,801.5270542404651,786.2991095582827
1731655701.6898477,774.6181126232508,795.6079394264812,801.6634117073047,771.6249779659978
1731655701.690483,778.0595689099438,795.1954844228402,801.8001114958078,771.6155884042885
1731655701.6943836,803.6084839340939,794.7818825086802,801.9371607793557,788.6183146814823
1731655701.698284,835.3215128468739,794.4150716280919,802.074564242586,811.5686979410639
1731655701.698814,849.234180076248,794.1372038970358,802.212324877526,824.7260230672462
1731655701.702185,832.8076866578482,793.9159517648193,802.3504453214459,820.0886656150496
1731655701.7032194,795.9905620058939,793.593512741534,802.4889285831639,803.3644903122473
1731655701.7060852,764.4861224747448,792.9520682938822,802.6277780440139,788.8573169476499
1731655701.7087526,760.1116237115133,791.9585469372005,802.7669971375857,787.6884771214349
1731655701.7099855,783.8090868916928,791.081583748031,802.9065890824634,799.0926275713341
1731655701.7138865,815.2262124333282,791.3490620605545,803.0465567955423,811.9082687235514
1731655701.7177868,829.5791940419117,793.8211397518855,803.186902927809,814.8836742591959
1731655701.7188394,818.102638114073,798.6636815698371,803.3276299210339,806.923474879614
1731655701.7216873,795.0266212974548,804.6711291888732,803.4687400286571,798.3263658102794
1731655701.7255878,785.1766196720228,809.9341131741971,803.6102352988356,801.7812075737626
1731655701.727658,802.7076804016846,813.1807891625722,803.7521175422761,820.83640460258
1731655701.7294884,838.9212616478528,814.4851096766924,803.8943883037831,845.8257489079319
1731655701.733389,869.23821905018,814.6864069240472,804.0370488430733,860.8621863132314
1731655701.7337172,873.2851744378115,814.2687954737612,804.1801001216396,856.2175219392872
1731655701.7344594,851.3833157894923,812.9643326657657,804.3235427914818,836.087433600217
1731655701.7372894,823.9760741614963,810.4557129903186,804.4673771841993,815.5768352902211
1731655701.74119,814.6128292343903,807.3069370368377,804.6116033000948,809.2550508981167
1731655701.7450905,830.564565940544,804.9806504182636,804.7562207948414,820.1754150173335
1731655701.7465632,857.1807167427477,804.7655947721157,804.9012289588229,837.9806742415334
1731655701.748991,870.8270420941724,806.6253288186034,805.0466266870864,847.7151139506022
1731655701.7500792,859.5858147681962,809.1555886883872,805.1924124490886,842.3461450770142
1731655701.7528915,833.9704043254662,810.7833720629753,805.3385842809649,828.6308970325405
1731655701.756792,818.1184257506403,811.0905269863957,805.4851398214719,821.1534397937482
1731655701.7606926,828.7322052568084,810.9769148717168,805.6320763779788,829.3447558668163
1731655701.7645931,859.8660810846765,811.5225030272607,805.7793909475764,848.5835363943995
1731655701.7654686,886.8194148634798,812.7407129103184,805.927080084666,863.2306720083618
1731655701.7656991,886.1004016703332,813.5328834670962,806.0751395860365,859.2833642219983
1731655701.7684937,854.9097421035616,812.8609469262348,806.2235641920151,836.1485888358111
1731655701.7686207,814.1111111179973,810.8126165923751,806.3723477431511,807.7907317662855
1731655701.7723944,792.2224644997327,808.3661934259791,806.5214841534896,792.2536251001737
1731655701.7762947,803.2732067661585,806.1829700025344,806.670968854268,797.9092699547198
1731655701.7801957,836.2574937280931,803.9154589245387,806.8207992197272,817.2973677257123
1731655701.7813191,864.5142521414914,800.912697634652,806.9709719931159,833.257240504812
1731655701.784096,867.1956719691316,797.5127713438466,807.1214774637081,832.2580928298369
1731655701.7843738,845.3205631875933,795.3384393666358,807.2722945392293,814.3311340922925
1731655701.7879963,819.7660369568931,796.0623958138275,807.4233950552715,792.1138269778004
1731655701.7918973,813.6074948538504,799.7761490458006,807.5747633021163,780.3910428794778
1731655701.7957976,833.6278538369708,804.568535443764,807.7264225624311,784.7966684194747
1731655701.796939,865.548636401355,807.782076319155,807.8784393767038,798.4031802585772
1731655701.799698,885.6848328580462,807.8800437431256,808.0308697866034,808.2312275769481
1731655701.8032792,878.7196294465052,805.3661681651768,808.1836487308306,805.9173259522947
1731655701.8035245,847.53478396322,802.1081635016177,808.3365079664446,793.95500882804
1731655701.8035986,808.6876745161451,799.823855475354,808.4890796731368,782.9191661199992
1731655701.8074992,779.1459912619449,799.0719276383677,808.641281448407,782.4611920286306
1731655701.8113997,765.8883618019519,799.3675755990071,808.7937963076896,793.7356789805797
1731655701.812559,765.2529179759408,799.9363602473983,808.948075951713,809.360493239185
1731655701.8153002,769.3587861362294,800.3033178702252,809.1052301646105,820.2168422379386
1731655701.8192008,772.4191559676692,800.3995095897689,809.2639392670562,822.402793748555
1731655701.8221843,772.783967919521,800.3672729805063,809.4191284191699,818.4180118893278
1731655701.8231013,771.4890498951644,800.3487774353192,809.5643418157268,813.146285919867
1731655701.8270018,770.0374623150126,800.3966351118489,809.6992742502684,809.6996052759097
1731655701.828179,769.1809677637043,800.4918895047552,809.8383553075391,808.3874199378035
1731655701.8309023,768.8745036363742,800.5966127622717,810.00931115377,808.0487076978746
1731655701.8348029,768.7573536797846,800.6884150656952,810.2305223236656,807.5923408157271
1731655701.8384278,768.5581274070479,800.7655845923767,810.4720344200347,806.6314330222001
1731655701.8387034,768.213319348067,800.8363817102161,810.6354302829592,805.321143687377
1731655701.8410895,767.7884747283472,800.9082082035721,810.6075051981552,803.9519583662792
1731655701.842604,767.3637027133166,800.9834890879189,810.4096550240952,802.6908622905398
1731655701.8437986,766.9753789193396,801.061012464353,810.359039163749,801.547435499047
1731655701.8465044,766.61841862265,801.1387780625728,811.042114173833,800.4576894225582
1731655701.850405,766.2731621107727,801.2157143480683,812.9493574792101,799.3660887122662
1731655701.8543055,765.9260393979636,801.2918363875602,815.9513129606398,798.255530450825
1731655701.858206,765.57464898065,801.3676348636267,819.1231268435708,797.1362180670112
1731655701.8594186,765.2229639582822,801.443516372287,821.209166912644,796.0238177679929
1731655701.859995,764.875290042128,801.5196154736179,821.3624957651638,794.9266564364921
1731655701.8621066,764.5334623705254,801.5958839574687,819.5220017279245,793.8448047688257
1731655701.866007,764.197186013666,801.672243476389,816.2303433696995,792.7748417975293
1731655701.8699076,763.8655149698728,801.7486700351755,812.2254655828358,791.7140843342397
1731655701.8733313,763.5378963186524,801.8251963894813,808.1800249921552,790.6619436448132
1731655701.873808,763.2143748941601,801.9018776517532,804.6492619512337,789.6191995129967
1731655701.8750386,762.8953091274539,801.9787625622334,802.0601055186664,788.5868326193458
1731655701.877709,762.5810544664812,802.0558851302795,800.6231985877273,787.5653966663464
1731655701.8789003,762.2718311889879,802.1332702339962,800.2306215770318,786.5550150699042
1731655701.8816092,761.9677546986534,802.2109417015,800.4834816183485,785.5556485191573
1731655701.8855095,761.668916676747,802.2889264023283,800.8909753773074,784.5673117695586
1731655701.8894105,761.3754357772608,802.3672540802377,801.1124069952075,783.5901322484871
1731655701.8906584,761.0874606179732,802.4459554814197,801.0652115237596,782.6243022992849
1731655701.8933108,760.8051485836152,802.525060910472,800.8506430279567,781.6700142975876
1731655701.8972113,760.5286508442712,802.6045997856949,800.6045278475659,780.7274305888154
1731655701.8978057,760.2581198569966,802.6846007400545,800.4007400258976,779.7966930673931
1731655701.9011118,759.993733495103,802.7650917718696,800.2429754643684,778.8779509247424
1731655701.9050124,759.7357086568592,802.8461004498139,800.1032951823483,777.9713783865416
1731655701.9062784,759.4842697828274,802.9276545128388,799.9578830858657,777.077159499096
1731655701.9082346,759.2395635184191,803.0097828831624,799.7996523622423,776.1954363700023
1731655701.908913,759.0015766208669,803.0925161968219,799.6331502774221,775.326255065881
1731655701.9128134,758.7701819531198,803.1758852839347,799.4650791088043,774.4695828341308
1731655701.9167109,758.5454145060227,803.2599169266327,799.2988689666093,773.6254613901734
1731655701.916714,758.327879770206,803.3446293642097,799.1343876506214,772.7942507065676
1731655701.9206145,758.1188754230687,803.4300337211564,798.9700412806587,771.976728300732
1731655701.9218984,757.9196688650371,803.5161471336762,798.8045905266619,771.1737087039154
1731655701.924515,757.7298610517294,803.6030139928919,798.6377099455129,770.385100483302
1731655701.9284155,757.5460029666441,803.690715154208,798.4696575658617,769.6090256035101
1731655701.932316,757.3628108191238,803.7793357161468,798.3007683177005,768.8423636046354
1731655701.9356165,757.1786603351828,803.8688832037415,798.1311880980054,768.0838190605964
1731655701.9362166,757.0030490600914,803.9592092611142,797.9608775674151,767.3383999484976
1731655701.9375184,756.8577890209303,804.0500533047555,797.7897301914005,766.6186680697493
1731655701.9401171,756.7618787941984,804.1413064263239,797.6176666122707,765.9366616006198
1731655701.943138,756.7003964402411,804.2334040415741,797.4446601581864,765.2858580668375
1731655701.9440176,756.6014371296186,804.3274472425866,797.2707150680617,764.6261865736815
1731655701.9479182,756.3652952229158,804.4245165257651,797.0958340998154,763.8979232735451
1731655701.9518187,755.9727819469535,804.5241041616723,796.9199985916373,763.0825900545549
1731655701.953138,755.620222376131,804.6227749251733,796.7431693821482,762.2846964101356
1731655701.9545214,755.7203666411901,804.7153051361735,796.5653093408059,761.7431979537625
1731655701.9557192,756.5902934852753,804.7999322570548,796.386418787298,761.6629415601093
1731655701.9596198,757.8656214110313,804.8855381520701,796.2065566818939,761.872824635116
1731655701.9635203,758.1321017061323,804.9928938747012,796.0258057626047,761.5792520325487
1731655701.9674213,755.6064445119546,805.1402944842418,795.8441611562793,759.7043860099573
1731655701.968758,750.2929238764151,805.3138074536322,795.6614020817742,756.1076291576685
1731655701.9713216,746.5134994816428,805.4451219684566,795.47710870842,753.1306287610448
1731655701.9734268,752.859975658582,805.4397382987343,795.290990938793,755.7853185968626
1731655701.975222,776.9182292063558,805.2826993003129,795.1034647816853,768.9309376542153
1731655701.9780414,816.7521005688226,805.1753410960598,794.9159673009152,792.3495068442215
1731655701.9791226,857.1291293973599,805.5586946378905,794.7302059242108,818.2269612551751
1731655701.9830232,877.5346830658735,806.8800029589651,794.5460199507828,835.3281259101611
1731655701.984378,868.3232453661617,809.1764538043819,794.359122038981,838.0502311239078
1731655701.9869237,841.0509845196626,811.8421405696408,794.161843843867,832.3071464918876
1731655701.9908242,821.6476037965966,813.9068972968093,793.9497878892793,831.5654968911259
1731655701.992332,830.0647947828788,814.6914630497178,793.7325537286782,845.2444572651406
1731655701.9947248,863.4717593613798,814.3140058461876,793.5383598842056,869.6085294058332
1731655701.9986253,898.4090090107766,813.6476973356653,793.3977739974515,890.0087847704629
1731655701.999998,910.8722402530908,813.7747517605881,793.3025774066928,893.3061477400106
1731655702.0025258,896.9340409933912,815.3117081981866,793.1668497446046,879.7033971918017
1731655702.0064263,875.7564570146304,818.0280164539367,792.8506274290758,863.2880298262455
1731655702.0103269,872.5533215841151,820.9857753267625,792.2973279528244,860.5457991321775
1731655702.0112374,896.5554733988205,823.0797943128526,791.744011304769,876.7340970250773
1731655702.0129447,932.7260398006881,823.5804581398987,791.8198387253565,901.6991001238814
1731655702.0142274,953.7563673493132,822.351807655787,793.3138666132098,918.4423630432341
1731655702.0156178,942.2062463798189,819.7694498480425,796.6477648328414,917.1103127848367
1731655702.018128,904.9731643434989,816.5718259259057,801.4762526849877,902.8699607996183
1731655702.0220284,868.6160122822181,813.7157767573736,806.8341794155797,891.2870867334691
1731655702.025929,859.0386440347035,812.081224852178,811.7063750235345,895.0295626733919
1731655702.0298295,881.3867916034137,811.9865198362073,815.4636009705233,912.9155660975914
1731655702.0301423,916.1263002221569,812.8392770721139,817.8535800901855,930.5644369221648
1731655702.0312378,934.5448009680119,813.3498622729535,818.8046620189051,932.303892767998
1731655702.03373,921.282248621358,812.320127955298,818.443564834607,914.4693758159776
1731655702.0376306,885.8749904058539,809.4594151733883,817.3092204742779,888.9882781154097
1731655702.041531,854.4696288590825,805.5874431935722,816.3402053213008,874.2675500787868
1731655702.0454316,849.0297287154186,802.1100912836192,816.3702255941821,880.8710817357659
1731655702.0468576,870.9464591437207,800.2724391826306,817.4557582024943,903.4819907780414
1731655702.0478485,901.5170076493001,800.7633216750309,818.715411112855,925.2694878870051
1731655702.049048,917.8580802303205,803.7373922706462,819.0021065585704,930.9167327717219
1731655702.049332,911.049431399187,808.8514767480312,817.9159215542995,918.0847298218376
1731655702.053233,892.2568440664742,815.0367217259779,816.2086593228756,898.5296848960329
1731655702.0571332,882.3036295601028,820.3045004516176,815.1020870410824,888.0917239746653
1731655702.0610335,893.2695987187408,822.2137602781359,815.0983486561599,893.4949919930625
1731655702.0624776,917.3484283514381,819.1928948317104,815.4412060289113,906.6938038908658
1731655702.0649345,932.64138309996,811.9650812602529,814.7840201105882,911.6346516323206
1731655702.067953,921.4849356471187,803.786306471662,812.3890096811443,898.0043894295083
1731655702.0688348,885.9188491177048,798.827771239563,808.6655658489767,870.4141572719551
1731655702.0727353,846.9379944427917,799.5369324766554,804.6373539651432,845.1176936626197
1731655702.0766358,827.9270620006808,804.8869259512227,801.0714969557716,836.8994707945608
1731655702.0780976,836.1558750958926,810.9424633187309,798.1802470377148,847.0890208165821
1731655702.0805364,857.6393733301903,813.4230572734399,795.9505458460693,862.5980132481507
1731655702.0827518,869.1871602239887,810.4428415370519,794.4597796338143,866.5892539289715
1731655702.084437,857.3353337891002,803.5782486390121,793.7956527826336,851.961811616957
1731655702.0868585,828.7327736591172,796.7123768875616,793.8400052555405,826.8835789899827
1731655702.0883374,803.9043339435381,793.5856479808076,794.27553028559,808.1385472296683
1731655702.092238,799.7673403804821,795.6418989602229,794.786262151452,807.6087568233669
1731655702.093717,815.3134336070726,801.381261052935,795.2101209098847,822.5539867858199
1731655702.0961385,832.4499096022768,807.4463632071277,795.5381117476311,837.5356906499621
1731655702.100039,831.6704683240876,810.6911938453819,795.8280103067066,836.7782618760142
1731655702.1039395,809.6095654208091,809.9805964220327,796.1286895168626,817.263708679831
1731655702.1057637,783.3069840121298,806.6604358699034,796.4541792385928,791.8547524503492
1731655702.10784,776.7483532606127,803.4548740579086,796.7946201408787,779.5324278930018
1731655702.109337,800.3263709229776,802.564663421277,797.1360068249836,790.3225638147802
1731655702.1117406,840.419713546075,804.2816394123996,797.4712996709987,816.9919705535142
1731655702.115641,868.4307499223244,807.0342913412699,797.8008599687075,840.2882537562825
1731655702.1176553,862.6557192206454,808.6880088819811,798.128016311009,843.6451957163314
1731655702.1195416,825.4744986407529,808.0184148899801,798.4553060513286,825.6436977997165
1731655702.1234422,781.7176347311031,805.2999182962257,798.7833546728351,800.295564026086
1731655702.1246693,759.2504767668976,801.8101181560855,799.111589123292,785.0944859628571
1731655702.124957,767.4695006871405,798.9120376967912,799.4392937298189,786.8221811857487
1731655702.1273427,791.2618346742221,797.486114769193,799.7661533171573,796.959814242022
1731655702.1312432,805.1713373458754,797.879267866455,800.0922358550567,800.4165687673769
1731655702.1351438,795.5779919671809,799.9585922866324,800.4177443230523,789.7987022299912
1731655702.1390443,772.021911777772,802.946029796105,800.7428246846555,772.5142299706171
1731655702.1405773,758.2583273966226,805.3055331245705,801.0675201249571,764.246244874802
1731655702.1429448,771.0578340997429,805.2431891717497,801.3918201841664,774.4742913574831
1731655702.1435742,804.9988257189125,801.8495068528453,801.715721376984,796.9377179777708
1731655702.146845,835.996459917863,796.0520663512804,802.0392494939363,813.685586733394
1731655702.150746,840.4321238658104,790.3872982599554,802.3624381695377,809.501893355772
1731655702.1525588,814.1142749922551,787.5075343700671,802.6852895882985,784.5536668132565
1731655702.1546466,775.802256637387,788.4919324987319,803.0077597405916,754.6609254768798
1731655702.1561973,752.5301368017435,792.2639616839704,803.3298067902483,738.9586800531588
1731655702.1585472,758.3660867694654,796.4839472884277,803.6514996656493,745.0394313170392
1731655702.1624477,783.4761945954225,799.0913411887341,803.9731024143775,763.5580513780158
1731655702.1624796,802.3851325415599,799.310281406256,804.294981317492,776.4780751173615
1731655702.1663482,795.0854211978825,797.605277073373,804.6172388837754,772.0820514824037
1731655702.1702487,764.0327668439511,795.0071540798467,804.9392470983153,754.4533935529843
1731655702.1718173,732.9452436123707,792.5387663267802,805.259625083856,739.7297383233287
1731655702.1741493,727.9568669537002,791.0265416242538,805.5772822679482,742.3267323530408
1731655702.1780498,756.2777671842505,791.0299035543786,805.8934231528325,762.5805564611203
1731655702.1813848,799.7750988343952,792.5969112017285,806.212874559194,786.0085584838047
1731655702.1819503,828.7287945115372,795.005725520604,806.54190698962,794.7621841611875
1731655702.1858509,824.626171331974,796.9500884058368,806.8810658084218,781.9426943232056
1731655702.1874373,793.8297944814382,797.3275930932851,807.2168111471811,757.2945183792967
1731655702.187462,761.665755562227,796.145266533434,807.5225305837005,739.7603089417935
1731655702.1897514,752.172027834647,794.7491950359217,807.7798589615239,742.6882559122699
1731655702.193652,769.7818536142255,795.0034933537111,808.016168636034,763.2085524743497
1731655702.1975524,797.2072397901262,797.8884604691867,808.3249282506603,784.219340722973
1731655702.2002902,810.6099856464264,802.5493998906554,808.8158302807623,787.7523789667365
1731655702.201453,799.2740877692271,806.6094761604918,809.4716264244228,769.400814402171
1731655702.2030568,773.5759277147479,807.6651178308844,809.9886620280377,742.2050272177754
1731655702.2053535,755.0270690404533,804.9417970968287,809.7886242573757,726.4938780237657
1731655702.209254,757.3194969035983,799.8546137150556,808.3417897066721,733.5971049775654
1731655702.2131546,774.7266026011195,795.0051715274585,805.6290595575155,756.6627960184568
1731655702.217055,787.5526619835947,792.4150848177567,802.2947943823712,776.2116637376297
1731655702.2186768,779.6135778790375,792.4322893819949,799.2960757011273,775.9770187966151
1731655702.2191956,752.8199438486133,794.092581366968,797.4181677798177,756.1847177571624
1731655702.2209556,726.7957966589088,796.3639933696123,797.0961971727972,733.6502286596517
1731655702.2223656,723.8706987038178,798.9659525155588,798.4661271954301,728.7187493628983
1731655702.224856,751.3480902305884,802.0286239135295,801.2522121080826,749.3418294400359
1731655702.228757,795.0007883925898,805.1173298577766,804.4556832314404,784.6276963298337
1731655702.2326572,829.0951256357147,806.8384147496402,806.3792833608176,812.8039114741373
1731655702.2342968,835.3886264022867,805.7006021273789,805.4810488827948,817.4147582655754
1731655702.2365575,816.2571013425764,801.6243803994395,801.6986973660589,799.2024613526723
1731655702.2381008,791.4644591938732,796.6642627255352,797.0596061178151,774.5347398911238
1731655702.2404585,781.1623011342978,793.9905245005357,794.6750657346179,761.9146785006716
1731655702.2443588,789.0748601846475,795.6792366877551,796.6151117744726,767.5449715269935
1731655702.2482593,799.8937725778488,801.0633904474486,802.3387617270489,781.4472151423421
1731655702.2499166,793.1982806635439,807.0899997616357,809.0199379211738,786.8452409194314
1731655702.2521598,762.259818209043,810.4556714271125,813.5021189467994,774.7027145298013
1731655702.2560604,721.7089905570593,809.7862928387714,814.2889516513717,751.3820181484265
1731655702.2570062,697.1899840263497,806.2126278519132,812.1187483202366,733.4000018950084
1731655702.2572691,705.1975465978236,802.2060541628894,808.9635030960332,733.9390497643435
1731655702.259961,739.6184652671235,799.920160281605,806.4822369673191,752.3121701845716
1731655702.2638614,776.1944371920276,800.2819849899762,805.1477469034949,774.9354668289229
1731655702.2655363,791.5513344848698,803.0065475415755,804.5196669562032,786.8860467699064
1731655702.267762,781.3848894534508,806.9186963601675,804.1577243039443,784.3751576633748
1731655702.2716625,762.796682481743,810.2209507903251,804.2099539999409,777.530127933624
1731655702.275563,758.7913523850027,811.0116254273701,805.1174877936048,780.9003279503496
1731655702.275911,778.0556857258887,808.3187418972049,806.8097580925174,799.7263246226338
1731655702.2794635,807.2958788132173,803.0855503484372,808.3449726836616,824.0253453989944
1731655702.2811563,822.6432126145584,798.0507798099688,808.5402371558865,836.0253432545559
1731655702.283364,810.2566664411186,796.2004912360198,807.0894439429139,824.9100435357067
1731655702.2872646,778.5846106419317,798.8287673880885,805.0768232239881,796.4280980084519
1731655702.291165,752.1277754191722,804.7534991932935,804.3066792186896,769.250127376036
1731655702.2921724,752.0757934593772,811.2758455069596,805.9577356422276,761.043784399544
1731655702.2948167,779.6229395921,816.0045683518281,809.6490692403171,775.5040324974381
1731655702.2950656,815.1128447660733,818.1043015021032,813.606733628129,800.4426515217306
1731655702.2967763,833.4122591254234,818.2414274205377,815.7446753909074,818.0123626180077
1731655702.2989662,823.3444345060536,817.6267864366964,814.8949184985302,818.674057133328
1731655702.3028667,795.9793150046445,817.0645578498454,811.4509556951044,807.8315461245903
1731655702.3067672,775.2637214045197,816.5987440594521,807.1238294918296,800.0816002256706
1731655702.3106678,778.4536843508168,815.7477463426181,804.0137944650783,806.1095443958129
1731655702.3123963,802.143272225636,813.9913131870942,803.527717322836,823.2994429451129
1731655702.313722,825.2497543421335,811.1896593693837,805.7008267297424,837.9123955091475
1731655702.3145683,826.4073073909595,807.731891820537,809.2332066959239,836.7967860289602
1731655702.3184688,801.430325028331,804.3299236526426,812.1866414152724,818.5768947509555
1731655702.322369,766.7227835819987,801.5761032461464,812.9817826847777,794.9893205401956
1731655702.32627,746.2725255406854,799.597344190937,811.1904872011673,781.546364281949
1731655702.327076,753.0716572687289,798.0962752039762,807.7019888807819,785.4429137922077
1731655702.3280163,779.727540825951,796.7197394829823,804.1804968846336,800.4245308078025
1731655702.3301704,805.206755449353,795.401631878256,802.1713390400073,812.3616268156752
1731655702.3326273,811.9267453512325,794.4262522192369,802.4207798730696,810.820187338123
1731655702.3340707,799.5682365052072,794.2860815777198,804.7460331742001,797.4458610747783
1731655702.3379714,784.5951937001416,795.5246062507725,808.3301103903965,784.4997042833897
1731655702.3418722,785.673743532987,798.5595387797216,812.0746727634627,784.5259147197087
1731655702.343636,806.8130852492301,803.3436583032691,814.8266782866827,799.383457403924
1731655702.3457727,832.6863055476421,808.9428506648238,815.6017813479807,817.9102665197221
1731655702.3496733,841.0041480464996,813.4643476995789,813.9275887290868,824.7415021634948
1731655702.3515325,822.1631577338391,814.7392118043123,810.1338671018013,813.3153881027835
1731655702.3535738,789.3013258533097,811.6090882107202,805.2730668175241,792.0630132455643
1731655702.3574743,769.2569586047747,805.034962839102,800.6259767772408,778.1752028722356
1731655702.359256,780.9892106824041,798.1161787611873,797.1329075669435,783.7988849702724
1731655702.3613749,819.07471143796,794.669825881314,795.1327942028059,805.9980058458527
1731655702.3619795,856.3406400295145,796.9811069730491,794.480157555583,828.7626777119456
1731655702.3652754,864.2973761658816,804.115192376701,794.8381882148632,835.4713575266645
1731655702.369176,835.3948225511464,812.1469648421302,795.9536888561937,821.7813454143239
1731655702.370438,789.2163241620236,816.5309655372537,797.8335202471484,798.6983559331986
1731655702.3730764,757.3240848928245,815.1714955553126,800.7384819147144,783.5440962267461
1731655702.374876,758.7012323666511,809.9107627786061,804.88826315554,786.2419447016906
1731655702.376977,785.6243640621931,805.1433892229845,809.9655881390987,802.006220030919
1731655702.3808775,811.4445488293993,804.5261445164392,814.8274910154793,816.1686202155105
1731655702.384778,813.5715949771683,808.3448209542485,817.8478288360753,816.8389420634506
1731655702.3886786,792.1774470472269,813.5312668650151,817.8206165950437,804.6982737724845
1731655702.389343,768.9626599635303,816.1166794421281,814.7654865794782,791.8389545262312
1731655702.3904958,767.5750047457695,814.0806997395107,809.952432548499,790.9149190722314
1731655702.3925793,792.8204593685251,808.5571139820998,805.1154341972949,803.9646500827896
1731655702.3964796,826.3359987933493,802.826621884342,801.5186630633902,820.393956779533
1731655702.3968828,842.0477207008764,800.0555442858548,799.5782300996602,825.8597858960386
1731655702.40038,828.1278213322048,801.3325659874039,799.1322202917794,814.6594774031338
1731655702.404281,797.018337371206,805.1544465114639,799.86067078321,795.1557257685968
1731655702.4061158,775.2071169138502,808.5555435683734,801.3773203661715,783.3493696464049
1731655702.4081812,781.2477934590461,809.0816188668684,803.0564594099396,789.5794294903483
1731655702.4082484,810.2288657809571,806.293930152595,804.0719537867021,809.3861184478232
1731655702.4120817,837.5952729271082,801.8314552477648,803.9007567350407,826.501473564597
1731655702.4159822,839.2611618137366,798.1187679337545,802.8906660945469,825.9132330133274
1731655702.4198828,811.5034066875614,796.8037759813465,802.1792036818873,806.299373137904
1731655702.4217358,774.3685919003025,798.083335982227,802.761381257727,781.4273318156125
1731655702.4237833,755.9666798134793,801.1618209129144,804.412735047556,769.3892710351985
1731655702.4271536,770.5023658236396,805.0975386621715,805.5210623613619,778.8454742614808
1731655702.4276838,807.481746737993,809.1861946853214,804.2003202833266,803.665397202497
1731655702.4315844,840.1335699131441,812.7756933581529,799.908684105113,829.4847319047245
1731655702.4317863,845.9792614931745,815.0727920584663,794.2223726147528,845.1127687294845
1731655702.435485,823.5595662800224,815.3865283920849,789.9938139733466,848.6856105049606
1731655702.4373558,792.7658010605255,813.6257767737022,789.4144899125884,845.2869395995177
1731655702.4393854,778.8681516815107,810.5118737862089,792.4333890758769,840.8846015864851
1731655702.443286,792.7142979499173,807.2304312022848,796.7460858171963,838.4910992888808
1731655702.446059,822.5455109864382,804.76815471852,799.3501522290824,838.0855366736552
1731655702.4471865,843.9417316732975,803.4311969662365,798.4907944434535,838.3950694548965
1731655702.451087,840.0216910730603,802.8693513800665,794.6473580271498,838.4167491386999
1731655702.4529755,815.5170944687711,802.5463420549894,790.0638997248952,837.8945165256633
1731655702.4549875,793.0840219057592,802.2718453536586,787.3764544066813,837.0547838999643
1731655702.458888,794.8042173881637,802.3463280393354,788.3057021672074,836.1904205957926
1731655702.4627886,824.1133914105478,803.1690978587014,793.0461660460608,835.4401234606141
1731655702.4649642,862.8584613278795,804.6630367324976,800.3905750866383,834.7898217832476
1731655702.466689,885.465582435876,806.1051557755926,808.2869476914158,834.1687042141009
1731655702.4666898,878.3815675513454,806.585332104175,814.536737562986,833.5259364910002
1731655702.4685955,849.3871494391827,805.6657289136854,817.480433625236,832.8511501118895
1731655702.4705896,820.1642614410827,803.6106889015095,816.5537582397246,832.1579616715325
1731655702.4744902,808.8609795771617,801.0599073840573,812.5216493978361,831.4618996562748
1731655702.4783907,816.8000133563843,798.629301150897,807.1913361612371,830.7697207214401
1731655702.4822912,829.5662942210799,796.8944490483447,802.6213139469925,830.0803002387514
1731655702.4838696,830.8535033501521,796.5884729540427,800.1847231045904,829.389944851554
1731655702.4842155,817.1470076407674,798.4557451481518,800.0200965909934,828.696285366772
1731655702.4861915,800.9305232535246,802.6161826514843,801.2072649228292,827.9991170638174
1731655702.4900925,799.9191968072944,808.0412689054973,802.541667591495,827.2993862140727
1731655702.4939928,821.5491561366811,812.8388298432421,803.3714031585489,826.5980049808708
1731655702.497893,855.7261703635224,815.2677129194725,803.9088375066017,825.8953566296221
1731655702.4998353,881.7573008969567,814.6467713746498,804.8032661709609,825.1914695038389
1731655702.501593,883.7829902733021,811.4661490806602,806.3337180059399,824.4864326013019
1731655702.501794,862.4738483230767,806.8171725394765,807.925265042494,823.780626669761
1731655702.5027747,833.962936627983,801.7733788870668,808.4745713958097,823.0745316540036
1731655702.5056944,816.9062971749654,797.1456051592769,807.2798650546807,822.3681645066798
1731655702.509595,817.7566717651894,793.5455853875653,804.7709538176666,821.6605980002188
1731655702.5134954,826.1218132431566,791.4773151394719,802.3308423439923,820.9503225916885
1731655702.5154552,824.5362237208209,791.2817806175677,801.2935685431028,820.2369542838678
1731655702.517396,805.0048409493097,792.9591303806714,801.9569171812366,819.5235386262111
1731655702.5212965,777.9638377855683,796.049088668332,803.4108850013231,818.8168883372642
1731655702.52168,764.7828017241101,799.7788492330711,804.2275060713525,818.1228746748051
1731655702.525197,779.1900114191807,803.4756704695889,803.3867998332591,817.4368407725435
1731655702.5290976,813.612303945697,806.8977452628518,800.813870338903,816.7366078224034
1731655702.5310752,843.1412282784358,810.0801165646143,797.3656399409446,815.9916778334056
1731655702.5329983,844.8793714025796,812.7645691059296,794.4518744061992,815.1967365020405
1731655702.5364966,816.8617853373852,814.0589158258033,793.4802503309212,814.4129887234856
1731655702.5368989,780.5417742846225,812.90634069537,795.2325536777395,813.7676373397742
1731655702.5405855,764.2303463668953,809.121277862806,799.3634876472315,813.3567688065325
1731655702.5407994,780.6296830156481,804.005106757102,804.3517699280129,813.064777173573
1731655702.5447,816.6794935966334,799.7963367344698,808.1173351775526,812.4523911033286
1731655702.546695,844.1078500628516,798.2817382227439,809.0889871038012,810.9679348890483
1731655702.5486004,842.199288882515,799.6919805856805,807.0951015363837,808.6061180495301
1731655702.552501,814.1713352304339,802.7355772452868,803.456676668585,806.65840532133
1731655702.5564015,783.8097908080441,805.6325994246757,800.15809190403,807.6104634301311
1731655702.559491,775.4922483973096,807.2522742898448,798.6208523742472,813.2806866620518
1731655702.560302,794.4596102227787,807.5332891228003,798.9186785922107,821.8074297689022
1731655702.562315,823.4817098664217,807.0931494918036,799.9655332547103,826.5556749328435
1731655702.5642023,837.9304713999687,806.5753577628245,800.4694938815626,820.1000159453139
1731655702.5681033,826.2006980035055,806.2813273406907,799.8666667228783,801.5536446733196
1731655702.5714002,798.83979305588,806.1929675912747,798.5410617291354,780.1554926798178
1731655702.5720036,779.6295697312607,806.1713165750479,797.3058772338068,769.9483913076117
1731655702.575904,786.3108129686019,806.1139606728351,796.7219479194304,778.8910556047717
1731655702.577935,816.2550182320662,805.9987290364049,796.8196696902905,801.7062887167259
1731655702.578396,848.1061050252991,805.8519684586024,797.2864115808336,823.08394692156
1731655702.579805,858.1291689342804,805.7044722966915,797.761946114696,829.2112205072818
1731655702.5837052,838.7663996559012,805.5697205363721,797.9330784799406,818.4793501432506
1731655702.5876057,804.8292753156785,805.445332244562,797.4733584905654,802.4952802698729
1731655702.5915062,781.9228703508663,805.323596263669,796.0979048372859,796.2492732423461
1731655702.5935547,785.8874992384488,805.1993268742723,793.8629416665968,805.3914029418728
1731655702.5954068,809.9723969370332,805.0716621956517,791.4888272468064,821.3032578852184
1731655702.5973012,830.665898158232,804.9421356582083,790.2875171846173,828.2612624873083
1731655702.5993073,827.6084999782344,804.8123504875114,791.484986697435,816.7462091977474
1731655702.6032078,800.9432639278126,804.6829362531228,795.2585898445302,791.756544753618
1731655702.6063037,771.4736176518327,804.5537081345041,800.2324329423757,769.2769008816508
1731655702.6071084,763.4954734045735,804.4242439066335,804.0301480582489,763.9508517816861
1731655702.6091747,784.7140240350135,804.2942812534368,804.727991819055,778.0558860641958
1731655702.611009,819.9650600271232,804.1637913989459,802.2348735091042,800.4746378459386
1731655702.6149094,843.7915791436479,804.0328679524841,798.5071388796376,816.0729549763512
1731655702.6162066,841.1836552407323,803.9016022494989,796.3177355796195,817.6197558426891
1731655702.61881,819.1050208711404,803.7700233584145,797.4197395187534,810.6031084492619
1731655702.6227105,799.3579878660292,803.6380976907452,801.4167987049792,807.2449453298296
1731655702.6247947,799.2135297668099,803.5057611076645,806.0939862951607,814.9127613519928
1731655702.626611,816.5584548819303,803.3729705686095,808.8912713966032,828.8060446155486
1731655702.6305115,832.2078285700537,803.2397644873947,808.475808325166,835.3096462278504
1731655702.634412,827.1141476334886,803.1062904954101,805.4231571433805,823.466268426036
1731655702.6351118,799.5053857986646,802.9727286314913,801.6750193781572,795.0694809799893
1731655702.6383126,767.3230398983228,802.8390772524571,799.2292250096631,764.831687668267
1731655702.6404145,753.9281173071041,802.704921245002,798.9723718785212,750.1386921013657
1731655702.641207,768.9129200146887,802.5694907626853,800.4018999118898,758.3338428406031
1731655702.642213,799.7535176954473,802.4323103692714,802.2883512721995,781.4931117758126
1731655702.6461136,821.2880064165263,802.2942802838987,803.6295397420664,802.7973918223245
1731655702.6500142,815.6895267184188,802.1581929192777,804.1504112903434,809.484926326412
1731655702.6539147,786.9216334050582,802.0271852438517,804.1460933042533,802.0831060061661
1731655702.6540172,757.7467096245884,801.9006382273504,804.0342350163359,792.5651474661219
1731655702.6560345,751.404499508877,801.7700973536911,804.0495848799583,793.1934385150574
1731655702.6578152,772.764374244864,801.6211724431176,804.2098634406871,805.6109604346414
1731655702.6617155,804.3677247182253,801.4465874997675,804.431131809937,819.4560712364647
1731655702.6656165,820.6181536761521,801.2662032920214,804.6390895748957,821.5526311074074
1731655702.6695168,808.5520960810995,801.1341623284592,804.810302343229,807.7041081399717
1731655702.6716545,778.3688183495611,801.1057076640526,804.9579482154734,787.0287199471601
1731655702.6729224,755.297956206289,801.1584801232962,805.1027523128803,775.1481558346932
1731655702.673417,759.3385036819611,801.1225126348633,805.2557577737513,781.7620201803387
1731655702.6761105,788.9732862595567,800.7328252192507,805.4169632194616,802.6530284314478
1731655702.677318,821.9023253313301,799.8926427306492,805.5816357906579,822.6400603027653
1731655702.6812184,832.5770014833912,799.0496719991999,805.7459801532248,827.352155584481
1731655702.685119,812.8549914848977,799.3058858290673,805.9089889191503,814.5727483146684
1731655702.6872745,779.0351170706418,801.824366538991,806.0714956332699,795.9312789705476
1731655702.6890194,759.064473504093,806.6602668362988,806.2346171193904,787.2965674399358
1731655702.6918278,769.9741819243662,812.037582703815,806.3989067568915,795.5775358713713
1731655702.69292,804.0272939713184,815.1191330080425,806.564342606938,812.9150320997569
1731655702.6968205,835.0154745889107,813.9524581121188,806.7306819135115,823.2599224303254
1731655702.700721,839.3491911904537,808.9326499354266,806.8977512875566,815.8880916991765
1731655702.7028942,814.466636029049,802.469836425245,807.0655270978006,794.4994027866148
1731655702.7046216,779.845609152234,797.2447254793743,807.2340745554984,774.348913377221
1731655702.708522,760.6354220146521,794.6374176369286,807.4034643549527,769.9626253021761
1731655702.7107327,767.8485713829339,794.4907337495306,807.573734264356,783.6369883084986
1731655702.7110138,791.0269668856929,795.9721941663248,807.7448981878115,803.9354218070342
1731655702.7124226,808.6142429471168,798.4195504131201,807.9169718849644,815.1214448702407
1731655702.7163231,806.9428752337396,801.4035897574502,808.0899836953288,809.7959155982899
1731655702.7185142,791.9250422841538,804.2280315942561,808.2639562504398,794.5623130964569
1731655702.7202237,783.5170997077696,805.6702218840007,808.4388715719846,784.1192765249887
1731655702.7241244,797.4219491349003,804.4875354774175,808.614658576157,788.6191743985217
1731655702.728025,829.7418264935159,800.4197096811769,808.7912487265419,804.9261099516516
1731655702.7296383,858.394168894409,794.8252347429519,808.9687031613495,819.3229215534639
1731655702.7319255,860.8613059863,790.2384285985557,809.1473172482855,819.3789639506239
1731655702.7341342,833.426865517424,788.9744602765327,809.3275200144155,804.6509144797428
1731655702.735826,795.4012575777355,791.7522303664316,809.509443782402,787.0243427475654
1731655702.7397263,774.5505613121004,797.3505542571633,809.6923534043699,780.8030764955265
1731655702.7436273,785.7416584239836,803.4641200113592,809.8745790353969,791.5105076955381
1731655702.745917,820.0764551170092,807.9855434325665,810.0547179602778,812.792059175171
1731655702.7475276,852.6640199411097,809.8046045885269,810.2340414444719,832.8939318632962
1731655702.7485435,862.1003601892043,808.8922518640865,810.4182059382094,843.80272216189
1731655702.749754,846.07997333862,806.0709651474826,810.6148577800603,845.1892273040759
1731655702.751428,821.4061596255823,802.799750961873,810.8251646341605,841.6762823799236
1731655702.755329,809.1883852852526,800.8272269951248,811.0335235528927,837.9242578323132
1731655702.7592292,817.5067556134978,801.4863188556369,811.207974469828,835.9707369822473
1731655702.7631297,835.6106551261915,804.8996410002836,811.3248767654283,835.5322108601376
1731655702.765374,844.1959821956935,809.7504134671703,811.4140321474832,835.5304381563352
1731655702.7670302,832.871911788966,813.9431970347783,811.5853806335498,835.2276587408708
1731655702.767449,809.8494167429095,815.735931000649,811.9727839763544,834.4961266495543
1731655702.7709308,795.5527847197925,814.5747229246724,812.5628356975177,833.5509631538738
1731655702.7748313,805.5054188112796,811.1956151925317,812.9933610908616,832.6204966634823
1731655702.7787318,836.7100334608416,807.1176935177973,812.5329829339278,831.7961191905729
1731655702.7808208,868.6930117115239,803.9263200581224,810.4124901952404,831.0532493170837
1731655702.780994,878.5561106553318,802.6873886433507,806.4077454202318,830.3327854217313
1731655702.7826324,858.4759479992757,803.6646941878313,801.294674845919,829.5976783798886
1731655702.786354,822.1677570422812,806.3549664303922,796.7672647575233,828.8434655592331
1731655702.7865329,794.9761271765909,809.7331698625889,794.6659053381798,828.0824346912075
1731655702.7904334,794.6749868797754,812.5817359416263,795.8233913315594,827.3263478351807
1731655702.794334,817.7696323145892,813.880415381474,799.2848681680266,826.5793422158883
1731655702.7966137,842.599849258072,813.2811233840921,802.6567730721275,825.8396448839458
1731655702.7982345,847.3879558563115,811.4957114385288,803.6237025815814,825.1040090518707
1731655702.802135,828.6809075589701,810.1601871588254,801.6627667097132,824.3705483458045
1731655702.8052597,804.5375581069667,810.8916770194195,798.5906257653838,823.6391007878952
1731655702.8060355,799.1813380521235,813.9657561148948,797.3391121567695,822.9102834184177
1731655702.809936,821.5887339590174,817.6733487388079,799.7798845761852,822.1845620567477
1731655702.8122337,856.0819153700079,819.1350960317717,805.2758886942942,821.4619318053617
1731655702.8138366,873.4187620129562,816.193627373498,811.0916518546891,820.7421324946355
1731655702.815724,853.9712750928494,809.0220869423383,814.2883296914264,820.0250423169961
1731655702.817737,804.3143264257552,800.2449829443203,813.602337579655,819.3108879780871
1731655702.8216376,753.4367454919006,793.5019826682471,809.9878910966833,818.6000254578495
1731655702.8241646,731.0837465230454,791.4516552297672,805.680534889858,817.8922955282902
1731655702.8255382,745.3510261141918,794.4151388241798,802.7019853507251,817.1864019284418
1731655702.8278537,777.5307141186265,800.3093200036824,801.879477340784,816.4801970915386
1731655702.8294387,798.2831567716826,805.8115456154407,802.8145523617967,815.7725921981438
1731655702.8333392,791.7288290651746,808.1694382992287,804.5065084197357,815.0664330373243
1731655702.8372395,767.6147794269514,806.7213077269962,806.0561593766436,814.3694436684976
1731655702.8411405,751.8616338774608,803.1757529464194,807.0546041206243,813.6893199224319
1731655702.84307,763.9360651554377,800.3390053270502,807.5784154109855,813.0223579826448
1731655702.8434734,800.1644330111382,800.0959913027352,807.9158393230667,812.3435761257011
1731655702.8450408,836.584733975571,802.1173609089435,808.2178122237656,811.6146678663507
1731655702.848941,848.5017595268673,804.2299861874383,808.2795236008626,810.821876752972
1731655702.8506277,830.4543200670759,804.0695327061575,807.6149049641771,810.0284292203664
1731655702.852842,800.3828351546938,800.7330519993125,805.8310113204973,809.3846295502183
1731655702.8567424,784.7839999480906,795.3502892995233,803.0775356263207,809.0248211141835
1731655702.8590934,797.0291519753606,790.3855263812857,800.2156666144508,808.8510510899749
1731655702.860643,826.5946089162594,788.2426955319438,798.4847867020909,808.3680181290654
1731655702.8619754,848.129227142271,789.9835673048989,798.8072108968553,806.8784538245291
1731655702.8645434,842.9523944646569,794.790268716814,801.1975572184639,804.2366921183464
1731655702.868444,815.0407679930737,800.4041526871242,804.7289447637706,801.816655558199
1731655702.8723445,787.8824583941184,804.2842012623939,808.0873213833455,802.6060886945759
1731655702.8747134,784.6090594106953,804.8565526770711,810.253132943922,809.2372879509161
1731655702.876245,808.1296857883741,802.213248250478,810.7867586872359,820.4067422495932
1731655702.8801455,838.1470475547912,797.973133801764,809.6653746760346,829.1131559187547
1731655702.8808806,847.670570673414,794.4620761779294,807.0964323300896,826.610243018672
1731655702.884046,825.2836052230459,793.6223222724493,803.6274453714819,810.5831469916194
1731655702.8855312,784.807065541149,796.0928909478909,800.3155027372708,789.6897633165266
1731655702.8879466,754.550039343899,800.8431889756315,798.469985497129,778.3109240566026
1731655702.8903332,754.9521771127836,805.6127735865927,798.9403509023798,784.806278204301
1731655702.8918471,782.6676502466128,808.0892688771066,801.5481601092747,803.5939496986958
1731655702.8957477,813.8467335770135,807.2572074582608,805.2312134472488,818.6773488750696
1731655702.8996482,823.8235418452651,804.0393556363449,808.7475474365059,816.3782155298511
1731655702.899786,807.0483677007721,800.6787506384136,811.2335803709972,796.7636956195147
1731655702.9035487,780.8977166691295,799.217988044949,812.1969069868552,773.9271005621374
1731655702.9059532,770.3857205613649,800.194021518105,811.2706357352544,764.611189197828
1731655702.9074492,786.7333194444114,802.5288744695372,808.3005832767811,774.6329037971191
1731655702.91135,817.7492702072552,804.6046867598656,803.7731146787008,794.4056013949236
1731655702.9152503,837.837592411703,805.5421587805924,798.9746137422796,807.0302871616783
1731655702.9186912,829.0032897036522,805.6221688648369,795.4411648685862,801.9566279801135
1731655702.9191513,795.4854425327637,805.6328463883748,794.0442176726767,783.039208425458
1731655702.9204345,760.4542343191215,805.8871043826105,794.5172847754307,764.8960007968526
1731655702.9215732,747.9131758930787,805.8737049906412,795.8208961339388,760.9687496145334
1731655702.9230516,764.3213944727248,804.8333467235816,796.9511716478638,772.9042994749416
1731655702.926952,794.1233916726437,802.6602548908211,797.4844189654782,789.4997086976891
1731655702.930853,812.3752631396784,800.2513775109765,797.5488855984545,795.9473500954897
1731655702.9347532,804.4903111952966,798.9699079321142,797.4680099336875,786.0845029717857
1731655702.9371932,777.5982444366185,799.6911728522169,797.4636115733333,767.8103892629596
1731655702.9375966,754.4957646244249,802.2220669700845,797.5806132129702,757.0401304563497
1731655702.9386537,754.971170613777,805.5199316503129,797.7615755317653,764.7835158938318
1731655702.9425542,779.5538788001696,808.475295975191,797.9415101195328,787.7632332402945
1731655702.9464548,808.9238779031305,810.6089583347361,798.0929647965991,810.3731668592396
1731655702.9503553,819.4866467599606,812.1502106575452,798.2218236587358,816.6433812153291
1731655702.952813,802.4130410231726,813.5029959473625,798.344631792461,802.7658728452784
1731655702.9542558,770.771252963763,814.643293858996,798.4721745388274,780.3169499689277
1731655702.955338,749.2458513753261,815.0482999319344,798.6060142424551,767.6786633565036
1731655702.9565015,754.8599698079499,814.2363183123342,798.7427632969165,776.1943108412711
1731655702.9581563,783.9061927815771,812.3619428530585,798.8790134512685,801.4756518758013
1731655702.9620569,815.1582259377376,810.226673314328,799.0134675195109,826.4836383778062
1731655702.9659574,826.7100446153881,808.6828310541255,799.1465367630543,834.2899581537423
1731655702.968433,813.096624343342,808.0520046310951,799.2791005668911,820.8701153341461
1731655702.969858,788.9727237467984,808.0804956759056,799.4116810608366,797.7662835032232
1731655702.9737585,776.371953750716,808.3161509569131,799.5443118265547,782.2596586569987
1731655702.9754071,786.1367504962847,808.457880318846,799.6767869816457,783.1017318513593
1731655702.977659,809.0762574382815,808.4426487743546,799.808918128063,793.8898115189412
1731655702.9815595,824.19470029099,808.3442487964787,799.9406341351942,799.7150844212963
1731655702.984053,816.8155472896314,808.2475872478153,800.0719510251453,791.1219364582006
1731655702.98546,791.1225418646798,808.1887758814127,800.2029048441472,773.0498207507093
1731655702.9893606,766.6299813039196,808.1602170058967,800.333510570673,760.9694019758329
1731655702.9902415,761.8689845286424,808.1402131901917,800.4637578917736,767.6430380184538
1731655702.993261,779.2135163172159,808.1145405842038,800.593625466276,791.8871797340439
1731655702.9943123,803.4530980959223,808.0810635002372,800.7230942223804,818.8226083814368
1731655702.9971616,815.0119682065213,808.0441683190214,800.8521519313554,831.4265408922084
1731655702.999673,806.5789386371762,808.0082967492257,800.9807911731067,823.9124199603135
1731655703.0010622,789.1766240857836,807.9751317438463,801.1090057315362,805.9660423352638
1731655703.0049627,782.4704427776194,807.9441114768995,801.2367885657716,794.3208622453288
1731655703.0088632,797.3487586744949,807.9140525758173,801.364131724446,798.647057222757
1731655703.0127635,825.5862936475959,807.884235873891,801.4910271463581,813.5819819551026
1731655703.0132177,845.7162123493057,807.854582711263,801.6174673391017,823.5930103337117
1731655703.0152926,840.5864263954479,807.8253301332212,801.7434455781067,816.4668050577593
1731655703.0166645,812.1158519613815,807.7966936014911,801.8689557717148,794.0091107633519
1731655703.0205648,780.9891218601439,807.7687350927876,801.9939922632287,771.1272066770838
1731655703.024465,771.3023321596552,807.7414020213013,802.1185497254552,764.2509328506684
1731655703.0251448,792.1483823609626,807.7146154987241,802.2426231564984,778.5664314681901
1731655703.028366,830.409619678478,807.6883248031122,802.3662079170227,804.0987825340636
1731655703.0309126,860.3700491457882,807.6625130380653,802.4892997571233,823.4817209545574
1731655703.0321229,863.0270603436023,807.6371774671449,802.6118948167938,825.2653307939048
1731655703.0322664,840.4685522495945,807.6123103325439,802.7339896094264,812.472021297323
1731655703.036167,813.942589015254,807.5878920425587,802.8555810028264,799.665996164438
1731655703.0400674,806.5788149731117,807.5638964108332,802.976666205303,800.653257427023
1731655703.043968,824.3341733230885,807.5403020501994,803.09724275663,816.6911944707767
1731655703.0465324,851.0439634140847,807.5171014971185,803.2173085204635,835.2466888318152
1731655703.0478685,862.1734973641924,807.4942979205729,803.3368616757508,840.7780581976605
1731655703.0510285,845.8456895188217,807.4718826908446,803.4559007069857,828.4705837986759
1731655703.051769,813.1943268281073,807.4498024029709,803.5744243945418,808.877163506479
1731655703.0556695,789.2238515745897,807.427948297925,803.6924318058261,799.2005289464994
1731655703.05957,792.0661092488319,807.4062117880848,803.8099222861074,808.6643919103216
1731655703.0600483,818.1325690815022,807.3846123965441,803.9268954462369,830.5112647872714
1731655703.0621524,845.2846991750205,807.3634082609857,804.0433511455055,847.3284951242763
1731655703.0634706,850.9808296140354,807.3430057851156,804.1592894729852,845.1237918083742
1731655703.0673711,830.2538538540687,807.3235335589268,804.2747107375607,824.5220673911128
1731655703.0699334,798.9169584231563,807.3042544681088,804.3896154777824,800.0837779548481
1731655703.0712717,779.7483209400039,807.2834553086283,804.5040044886028,788.4936874474464
1731655703.0751722,783.443845746684,807.2596058438809,804.6178788336598,795.3441858933529
1731655703.0777724,800.3538804367115,807.2337804488365,804.7312397913506,811.3049898051468
1731655703.0790727,809.7972826740105,807.2114787507342,804.8440887107573,820.6724053967338
1731655703.0829732,798.7559950450849,807.2003455140591,804.9564268530349,814.9376387398543
1731655703.0868738,773.8472165348467,807.2014926295802,805.0682554156126,799.8681435765453
1731655703.0888388,756.3986199731125,807.198022293073,805.1795759329178,790.283198409675
1731655703.0907743,764.8301430047087,807.1520948015919,805.2903909573117,797.2112346922346
1731655703.093392,798.9647695102728,807.0211310323439,805.4007043892306,818.2998829909822
1731655703.0946748,839.0140639146113,806.7860629290816,805.5105204988753,839.272259331287
1731655703.094952,860.0443531685946,806.4659124884864,805.6198413140042,845.0616895610721
1731655703.0985754,850.570620301953,806.1032128255306,805.7286639923949,831.6822158003195
1731655703.102476,820.8132349761811,805.7357577381268,805.8369819674776,809.5062468347281
1731655703.1063766,794.240126788865,805.3803992784811,805.9447931968109,795.3044506785035
1731655703.107744,789.1218735600958,805.0359800070698,806.0521129352802,799.0943368492249
1731655703.109012,804.800773501418,804.694809865652,806.1589784580863,816.106029834751
1731655703.1102772,823.6710577568846,804.3513442421109,806.2654281807746,830.5277972775295
1731655703.1141777,827.0838891869422,804.0044641392957,806.3714515588629,828.4545732197341
1731655703.1180782,811.803967832275,803.6556555823653,806.4769438292833,809.7156825330666
1731655703.1219788,793.051492449846,803.3065880112053,806.5817378028961,788.6581140423284
1731655703.124632,791.393080858957,802.9579552508497,806.6857686976916,782.806004858048
1731655703.1258793,814.4168842991255,802.609585933218,806.7893088751559,798.4447117175209
1731655703.1266494,848.6123862176545,802.2610314600687,806.8930239718113,824.907121218964
1731655703.1297798,868.54999255149,801.9119922008557,806.997531902483,842.3410215085539
1731655703.1298552,856.4571504262967,801.5624079597281,807.102446356432,836.9545925892811
1731655703.1336803,816.8351131132085,801.2123474825589,807.2056114292018,811.8408482212214
1731655703.1375809,774.2466206291112,800.8618803246181,807.3038936029945,784.8483287670964
1731655703.140252,755.2812646938218,800.5110209984218,807.3964458203226,774.9303833902275
1731655703.1414814,768.4181048484281,800.1597394478741,807.4889785097654,787.4886030575384
1731655703.145382,797.8881102335208,799.8079946446786,807.5941661043524,810.3298905222374
1731655703.1455543,816.8547888399072,799.4557584775243,807.7224764432864,823.660956840944
1731655703.1492825,809.4059995222395,799.1030203826073,807.8640645050571,816.2295777391939
1731655703.153183,783.3298869873648,798.7497773840805,807.9762428086005,794.5389082711338
1731655703.155872,763.242432024565,798.3960180656081,808.002278267192,777.5692429036395
1731655703.1570835,769.9430862506218,798.0417106368499,807.9361706077863,781.2650270032456
1731655703.160984,802.9593958491002,797.6868080308924,807.9015459755011,805.3905186178429
1731655703.16446,840.2162423952635,797.3312794843765,808.1527188534826,833.3712021281044
1731655703.1647587,854.9051390349019,796.9751574473926,808.9054864912505,845.2076962230757
1731655703.1648846,836.2862094921397,796.6185541319812,810.0557687649869,833.1019307643502
1731655703.168785,798.21408252948,796.2615852759159,811.0823665968904,807.3436864570742
1731655703.171492,768.5334247948479,795.9041894712313,811.3793231824544,787.8280955046943
1731655703.1726856,767.3933660379,795.5459668306823,810.7438230498535,788.1364601300039
1731655703.1765862,791.7386232603476,795.1862966455751,809.4333842065072,805.1457381550364
1731655703.180487,818.7355102301993,794.8249328024335,807.7283940609329,822.5261603280322
1731655703.183365,825.3213719159951,794.4628451625148,805.6067844584602,824.8766950831849
1731655703.1843872,807.3207236741802,794.1024101902738,802.9617699639127,810.443250977506
1731655703.187112,782.0079056912261,793.7458105732424,800.0540175417309,791.9036225855835
1731655703.1882875,772.4945796521972,793.3915945257721,797.5917960048032,785.0757153204761
1731655703.1921885,787.8751088748041,793.0319553816864,796.2797478957353,795.487466397098
1731655703.1960888,815.9884333060625,792.6556420782554,796.2750379091776,814.0370369677428
1731655703.1996622,834.1360554886716,792.2597407376581,797.0798310535257,824.8832183287121
1731655703.1999893,827.9651577837136,791.8649733371152,797.9428392772066,818.546351158365
1731655703.2022705,802.7844750193029,791.516954828517,798.3580408852231,799.4037148543676
1731655703.2027316,778.6122569594008,791.2530020626597,798.2181148335046,781.8356116972102
1731655703.2038898,773.472768906668,791.0371933874477,797.5777975115719,778.514678604167
1731655703.2077904,788.4878729344827,790.7164147990907,796.368207639504,790.3781398658745
1731655703.211691,806.8624111002005,790.0905088691492,794.414028458289,806.3053769845852
1731655703.2155914,808.0718988193652,789.150162487017,791.7784362728917,812.7424615779083
1731655703.2183516,786.1393452692481,788.3723028190037,789.1128740126608,805.3963184035123
1731655703.219492,756.6280353191137,788.7600926102954,787.6094807021681,793.1591323742144
1731655703.221176,745.4031713252467,791.3339846406249,788.4231742181333,790.6232348838062
1731655703.2233925,767.419859067753,796.2289017686797,791.879229827975,805.169277079387
1731655703.227293,812.9740464986472,802.1304328220671,797.058294746008,829.5664399495747
1731655703.2311935,853.436481351724,806.7615000851661,802.163794540904,846.7768421033242
1731655703.2339716,862.5558267311062,808.2928071202701,805.5096029090982,843.5005776816861
1731655703.2345655,836.4771208207526,806.6674471121702,806.4765768694468,821.4655388507405
1731655703.235094,796.5446268717708,803.7863328768921,805.791730254487,796.9887124694462
1731655703.2389946,772.7161289213566,802.3330180157608,804.9638599960073,788.7536346293307
1731655703.2400813,780.7012389085617,804.0163687805839,805.2715436952241,803.3868960658878
1731655703.2428951,810.7655765277382,808.4161013705115,806.9590865774621,830.4066237928954
1731655703.2467957,836.8468439225545,813.169249183117,809.1337126876349,850.6668542779373
1731655703.2495914,838.362858289344,815.3229958005167,810.4042830021807,851.4124979522496
1731655703.2506962,816.7651540850502,812.9958706521584,809.8250712253177,835.6190058238457
1731655703.2545967,793.2610929944199,806.4457941669383,807.5014589898366,818.1986352759295
1731655703.2584972,789.9575797129626,798.0788183210663,804.4501451411944,812.7923310134806
1731655703.2589865,810.6092432617144,791.4280458301665,801.8662312577519,820.5473734964334
1731655703.2623978,837.2065222477371,789.504208121753,800.4131233892616,830.0274034256898
1731655703.265211,845.0409956977435,793.232514220487,800.0943405909389,827.6872044392888
1731655703.2662983,823.565703003357,800.8508100072818,800.6966147737351,809.7937494066231
1731655703.269469,785.9800462072754,808.8032700540716,802.2443517727235,786.0962165626631
1731655703.2701988,759.8697044331226,813.7410878994998,804.9401288860511,772.6356910172489
1731655703.274099,766.2814259854306,814.3636792408839,808.6554815511943,779.6583719981478
1731655703.2778916,803.5191949775966,811.8733970850185,812.5554783348316,804.0245566971014
1731655703.278,848.2094822292329,808.8720805064921,815.3447940268319,831.6298255918203
1731655703.280831,872.8529042412058,807.6527889994836,816.0247223813079,847.6018085807514
1731655703.2819004,866.254455121584,809.0458880237005,814.5551574841179,846.3973200025129
1731655703.2858007,840.814097035371,812.3030643431883,811.8813892107042,834.3981811438257
1731655703.2897017,820.9943326150416,815.7774873896526,809.3206687707061,823.542895841801
1731655703.2936022,822.5733936764079,817.9099360152305,807.8069706977725,821.3979912513153
1731655703.296451,839.9673916555292,818.0706246907223,807.5254857107899,825.6895426706965
1731655703.296797,852.1019811367606,816.8571007106585,808.0547058464712,827.5860172469378
1731655703.2975028,841.5600440858314,815.6315016353968,808.7258227403187,820.7420993567725
1731655703.3014033,810.5272592001461,815.5474464720293,808.8942900801932,808.1409636204585
1731655703.3043723,779.9272016087483,816.7606868791308,808.0910239222756,800.4268253541582
1731655703.3053038,772.429697664507,818.4287312079297,806.1651657908477,806.655679144897
1731655703.3092043,793.5608793334491,819.4496818893288,803.39233141673,825.2577935534197
1731655703.312071,826.7000507470188,819.264478353137,800.3888831447761,843.4552994415544
1731655703.3131049,846.1989520024312,818.0605355586351,797.8185741181186,846.5818976522648
1731655703.3157022,837.8681950888232,816.3391986990837,796.1367640091266,830.1638015442448
1731655703.3170054,810.0042096404912,814.4090371870619,795.601582751402,804.5895357794591
1731655703.320906,785.9437480666405,812.3516083917456,796.4450814587047,787.7328813566414
1731655703.3248065,784.4090795718519,810.4141411646277,798.8518974964842,790.8410862572022
1731655703.3276913,804.0182765463254,809.2467925347232,802.5952665051532,809.0983615839306
1731655703.328707,824.7938011309792,809.524894148552,806.6538099033766,824.9916392220503
1731655703.3326075,825.2177593326895,811.2037411760391,809.3346087455297,822.2222790012204
1731655703.3346076,800.4309563932657,813.1920645844065,809.0687670234643,799.0319798401325
1731655703.336508,766.4628154841583,813.94507762173,805.4283580017396,770.0463974728515
1731655703.3392758,747.2368330328643,812.5813812856883,799.6174529254345,755.0009896283656
1731655703.3404086,755.303624314243,809.545818383682,793.9886850757321,763.336415139286
1731655703.3433108,782.1092739646709,806.2241130430796,790.7948567523254,786.9701061197846
1731655703.344309,805.5236056136923,803.8974614123022,790.9346974853191,806.9560758698263
1731655703.3482096,808.1819537379473,802.9776558740016,793.5293462028477,808.5669891886348
1731655703.35211,791.4202347462588,803.0498713204961,796.6578870676692,792.56039595896
1731655703.3535128,773.3198950532386,803.4392592857487,798.7286693203055,773.5938009404932
1731655703.356011,772.6548126889304,803.7005285101587,799.403434756288,767.4248941676537
1731655703.3589308,792.3810552194434,803.7361751710217,799.3399235336248,777.8161239187797
1731655703.3599112,816.7142421064718,803.649644162038,799.1204392572954,794.0803616069127
1731655703.3638115,824.3501673604368,803.56304302763,798.5352802041123,800.9600737728042
1731655703.3677125,806.7189860768821,803.5292063423045,796.9848841435479,792.0499237304506
1731655703.3716128,775.9255106824728,803.5378576178924,794.5301437847477,775.2687488186735
1731655703.3724182,755.6849590980072,803.5579108352704,792.3965746796962,766.0108600979468
1731655703.3741794,762.594510707238,803.5687262086676,792.2937610912022,774.0570234148342
1731655703.3745508,792.8344567550484,803.5670404793607,795.1034962344712,795.2157494183773
1731655703.3755133,824.9702974768987,803.5590956319277,800.091127772632,814.4540019887675
1731655703.3794138,836.7839585664478,803.5513186929473,805.3132041364788,817.9285557833678
1731655703.3833144,822.8216342871794,803.546200668253,808.880614496277,804.2694526795359
1731655703.387215,798.3392603659194,803.542984639582,810.0826817625027,785.9676868262147
1731655703.3901706,786.0324338298456,803.5399908437549,809.5581638133215,779.4676063741738
1731655703.3911154,796.386712029435,803.5361925354589,808.5015189519058,791.7251527112269
1731655703.391323,818.4007948224388,803.5314851609133,807.6488677726121,814.1880878263054
1731655703.395016,828.9299694052839,803.5262257009507,806.8965645451939,829.407621349181
1731655703.3989165,812.8911092844369,803.5207461566058,805.7961480663052,825.1886883629696
1731655703.402817,777.13052204505,803.5151599194725,804.3658878106489,804.7909731798861
1731655703.4057906,746.138473957341,803.5094150263682,803.3711358571278,784.6863965147018
1731655703.4067175,743.0341000245344,803.5034202649797,803.7417813112291,781.4819436514416
1731655703.409083,771.219985384052,803.4971238070838,805.6600646266999,798.5256466111157
1731655703.4102287,811.3465820465028,803.4905223136441,808.2230494472568,823.0670902419208
1731655703.410618,836.0717012221193,803.4836344749942,810.055927331542,836.365359831853
1731655703.4145186,831.2243206258291,803.4764758062727,810.3279933046094,828.6809220962574
1731655703.4184191,806.7102428719136,803.4690497398446,809.2437521210969,807.0204446556506
1731655703.4214106,788.0564926290999,803.4613512969913,807.6361340509505,789.2163844545518
1731655703.4223197,794.8798984011792,803.4533738808352,806.1749681483034,789.0809678659932
1731655703.4262202,823.8620003149367,803.4451131748282,804.9837280440129,804.9312293404292
1731655703.429134,850.8785893802968,803.4365673695183,803.9056634941866,821.1821816579755
1731655703.4301207,851.0843019596443,803.4277356775724,802.9723248947307,821.7829520162818
1731655703.4340212,820.2728680111992,803.4186170489069,802.5448644748179,804.1941491908494
1731655703.4370306,779.4956293545521,803.4092097825131,803.0678088974656,782.0667108061047
1731655703.4379218,759.0244539903049,803.3995117739571,804.7555185337624,774.2951895998535
1731655703.4418223,774.8647520058794,803.3895208890256,807.4528482385397,789.5204037323864
1731655703.4439862,816.6429843598406,803.3792351655436,810.6340927627234,818.8160887389008
1731655703.4457228,855.9254266604607,803.3686528225032,813.4465876689632,842.413331363755
1731655703.4480393,867.7648855168335,803.3577721877826,814.8755334843123,844.928571886944
1731655703.449623,848.5395163572585,803.3465916430033,814.1531117457268,826.9637639615437
1731655703.4526503,816.755704070299,803.3351096170209,811.2716530692395,804.0796178647955
1731655703.453524,797.0126060025967,803.3233246110426,807.170761399031,794.2101964773731
1731655703.4574244,800.38847991394,803.3112352281456,803.2906114999334,803.6579439393408
1731655703.4613247,817.0765886276682,803.2988401925816,800.7294219464263,822.7987495489608
1731655703.4652257,826.8526823956487,803.2861383588096,799.6702716877048,834.6795991332598
1731655703.4669447,817.9454184900707,803.2731287164862,799.5374541725771,829.17551162224
1731655703.4682703,797.784003556977,803.2598103964524,799.6659842045674,810.9768118190618
1731655703.469126,786.2696293614657,803.246182679092,799.826071502675,795.0383518586794
1731655703.4730265,797.5217811730242,803.2322450040056,800.1840321420198,793.62281799535
1731655703.476927,826.1207584331923,803.2179969795482,800.8953557646388,805.9131670885602
1731655703.4788897,850.0585513032158,803.2034383915238,801.8497166304342,818.8448737126233
1731655703.4808278,848.3935564715741,803.1885692110811,802.8351679757117,818.416354919717
1731655703.4838903,819.1060922721545,803.1733896021515,803.8818476956061,802.0032891487068
1731655703.4847283,782.1692625438944,803.1578999286837,805.3183402987552,781.2260491029334
1731655703.48585,764.6625027992354,803.1421007617286,807.3558851957526,772.5904978796157
1731655703.4886289,779.3920456976105,803.1259928863091,809.5429006652892,783.3884114280976
1731655703.4925294,814.2493659065275,803.1095773079942,810.682839137303,804.7848243118135
1731655703.49643,841.4262215942119,803.0928552591374,809.4830027504623,818.5058316587626
1731655703.49951,839.5687452554112,803.0758282047735,805.5504094706738,812.1100499329636
1731655703.5003304,811.0040577352395,803.0584978481901,799.9702466339274,790.0986993171765
1731655703.504231,779.8707619181274,803.0408661361856,794.9521671898137,771.1764029694677
1731655703.5047553,772.6120134014268,803.022935264036,792.6963471275374,773.5400059997634
1731655703.5081315,796.6636894949984,803.0047076801782,794.1842280857973,800.1320912922608
1731655703.512032,834.3432684167208,802.9861860905933,798.6644521141279,835.7518513713477
1731655703.5137932,856.5391086337586,802.9673734628211,804.1693704677173,858.2157591402462
1731655703.51513,845.3465044257352,802.948273029506,808.7287150278736,854.7648565021303
1731655703.5159326,808.1766881880304,802.928888291439,811.4535600406858,831.1822437719802
1731655703.519833,772.4672008156921,802.9092230202551,812.7245916327772,806.881111704258
1731655703.5236604,764.8246541906706,802.8892812611598,813.3996042171415,799.8729766551509
1731655703.5237336,790.546124559151,802.8690673360072,813.790433835301,813.2336905129224
1731655703.527634,829.648901473783,802.8485858464651,813.387126237044,833.6467945338627
1731655703.53075,852.7859991063785,802.8278416760027,811.5936440850536,843.1331585963245
1731655703.531535,844.3216278969301,802.8068399889552,808.6987562668255,834.2768210083341
1731655703.5354352,813.8681739981478,802.7855862263149,806.0152871126165,816.189184846466
1731655703.5393355,787.2670984556734,802.7640861016633,804.9448192482068,806.2542845554407
1731655703.5425658,785.129685784343,802.7423456044335,805.8228110204508,814.9118767335234
1731655703.5432365,806.8564084679822,802.7203710160231,807.6296389841256,836.6202750357213
1731655703.5463698,832.6306427625371,802.6981689323653,808.823210443587,854.5681464346123
1731655703.5471368,840.7050634837641,802.6757462681247,808.5368826852882,854.82540806856
1731655703.5486965,825.2964839581074,802.6531102108903,807.1379459446284,837.8257771997877
1731655703.5510373,800.7386668011235,802.6302681238828,805.7789262916951,817.6865193324509
1731655703.5549378,789.119633195678,802.6072274679899,805.4344700684323,810.2477100428059
1731655703.5588384,801.9435682977853,802.5839958791804,806.245708060855,820.0309266649599
1731655703.561471,830.9161638484064,802.5605814913558,807.588045813752,836.9547967926186
1731655703.5619898,855.1911172872127,802.5369933567554,808.6055927043125,845.2751817845066
1731655703.562739,858.6800471773803,802.5132414774288,808.6754643347743,836.964396124253
1731655703.5666394,842.7455539207106,802.4893358807158,807.5589944597,818.2095965403786
1731655703.57054,823.7989578777215,802.4652848085254,805.4013115990059,803.7605825786977
1731655703.5744405,818.3969696410671,802.4410934704212,802.7335579145588,804.2178949134259
1731655703.5776098,828.9931556950556,802.4167659137406,800.3360452459434,817.1284417938151
1731655703.578341,842.4498177565688,802.3923114190612,798.8426180520443,829.1705301602339
1731655703.5803764,842.0898251440791,802.367752118362,798.371803213323,827.2252049289046
1731655703.5822415,822.6337233394509,802.3431223740539,798.5602330153647,809.0293009876023
1731655703.5836,795.3386847373281,802.3184498821086,798.9264031533123,784.964411640997
1731655703.586142,779.0637326021904,802.2937217152521,799.1804819848915,769.9437913957828
1731655703.5900426,784.604612599996,802.2688646801204,799.2771316669848,772.06234159646
1731655703.5932295,805.2712686921594,802.2437875189349,799.2982586997467,786.9044113840012
1731655703.593943,821.8836620661033,802.2185056335344,799.3272764243987,801.7877974628004
1731655703.5978436,818.6390100700471,802.1932764766424,799.3954725527966,806.3533096644312
1731655703.5992815,796.8851704233637,802.168562929709,799.4919665655892,800.8122866640825
1731655703.6017442,774.8259707889172,802.1446497095492,799.5944807906234,795.0007359042029
1731655703.6056447,772.5689872421649,802.1210101506125,799.6897343841664,799.0028516664711
1731655703.6088495,794.5895022513295,802.0960127297124,799.7766027934525,813.3766825011362
1731655703.6095452,824.588201553702,802.0678446627919,799.8598850837002,827.6199185517235
1731655703.6134458,837.7681463769065,802.0369245519219,799.9439253678081,828.597540021946
1731655703.6173463,820.9348768537691,802.0082725064489,800.0301559926065,812.0279281975895
1731655703.618187,784.0008278293982,801.9903371554594,800.1178611443701,787.2731526315589
1731655703.6185036,753.2034722172015,801.9872885712571,800.2058474366781,771.0581716014574
1731655703.6212468,750.9929170184757,801.9873252069675,800.2934604747388,774.7939067615213
1731655703.6244695,778.3415029982528,801.9587426022713,800.3806851178795,795.5213952902435
1731655703.625147,813.7178164142056,801.8698894099022,800.4677892491973,817.9036197111294
1731655703.629048,830.0447330354832,801.7360401468046,800.5549939228641,826.0538219101873
1731655703.6329484,816.3310298037981,801.6618349288561,800.6423609570904,815.9159743412068
1731655703.6368487,786.2259043741366,801.8150426904916,800.7298442308356,798.0776747211355
1731655703.637092,766.0922001252675,802.2889348562599,800.8173792965295,788.5572107312165
1731655703.6400893,772.4187474338258,802.9371014333539,800.9049334724649,795.1923239466457
1731655703.6407497,797.7071965554355,803.4252494742094,800.9925076527338,811.0518514823384
1731655703.64465,816.8623739161065,803.6436248696401,801.0801162381933,820.3415560705657
1731655703.6485505,808.5817767384956,804.1179054195037,801.1677702091455,811.7531470011762
1731655703.652451,773.5944658099277,805.7370887519376,801.255472129832,788.1747097091645
1731655703.6534069,734.6283317261259,808.7146597648971,801.3432194017603,764.9614282055378
