timestamps,eeg_1,eeg_2,eeg_3,eeg_4
1731652644.4947467,808.6005019425211,821.6902039453428,824.1144879305909,771.0067461001867
1731652644.5035384,805.5710048142951,821.7248352933606,823.3334955652589,767.8325540869208
1731652644.5137558,821.2846078108621,822.0538610598837,821.6981930900912,774.879092919255
1731652644.514367,858.609841008046,822.5267687534658,819.5857804971972,794.7220758538439
1731652644.5182662,900.5908377500303,822.4098625013064,818.6934876984394,819.7555433906107
1731652644.5221653,921.9288921906443,820.7124792609945,820.7962546690356,836.744605172916
1731652644.5223844,908.0222830251965,816.8663211183523,826.1082236396807,835.801599673362
1731652644.5260644,867.4276543678785,811.3520252235974,832.5566962233828,817.8157271215509
1731652644.5293334,827.7164309779151,805.7646791753834,836.6382809073086,794.9045752436043
1731652644.5296664,816.7625114363908,802.0885908389431,835.4297986889055,782.9261623325046
1731652644.5299635,842.7292569308053,801.5329373600209,828.5475659096544,790.7156467685708
1731652644.5338626,887.8307432345914,803.7375984325944,818.7992856506497,813.5766780389532
1731652644.5377617,921.2611799946392,807.0137186691047,810.9451133337368,836.1853373986477
1731652644.541231,922.0162073221227,809.5146969444995,809.0925817492745,843.4265454024659
1731652644.5416608,894.0029196728246,810.458409082627,814.2289048566564,831.3608292382615
1731652644.544911,861.4465002177543,810.4785682395388,823.5373887668005,809.80540763442
1731652644.54556,848.4977519280474,810.9417901974263,832.1169447560846,794.2481518917706
1731652644.549459,859.9640914949761,812.8972180635864,836.046107737672,793.369785596255
1731652644.553358,878.8966970217971,816.4629911360203,834.6385062052674,802.2091131026376
1731652644.5572572,882.3659679653983,820.8957973532847,830.2643922327626,806.578434804923
1731652644.5600767,861.6473856938036,825.0137713830884,826.0451586425881,795.2279198677268
1731652644.5604882,829.918910247345,827.5988632821254,823.468891437677,769.9537790630558
1731652644.5611565,811.4285906032625,827.7409638799062,821.8962843326816,745.4342327410906
1731652644.564586,821.3638907657572,825.2332235168311,820.0615487262721,738.6618915997691
1731652644.5650554,852.9608769413064,820.8624304531495,817.8385113706573,756.0235404303068
1731652644.5689545,882.3516351802435,816.1930950465897,816.5134974139881,788.0823544429045
1731652644.5728536,887.3437918866314,812.7410175934916,817.4772507796341,816.3128944052901
1731652644.5760655,865.063382830766,811.1003560984925,820.8113224974974,826.6855269479569
1731652644.576753,834.1666360372168,810.8276349638305,825.1636518656326,819.4571257953028
1731652644.578923,819.7207877901752,811.2433779468598,828.866414032393,807.56310161739
1731652644.5806518,832.9493753951641,812.3626759726874,831.0558742813854,805.3193786875796
1731652644.5845509,862.2475321384744,814.9508362818658,831.7519820324698,816.877218059208
1731652644.58845,882.6467596608675,819.5429540767259,831.0652480115971,833.5613395888181
1731652644.591643,875.902381122918,825.3735270432969,828.6144396337352,841.5555416895105
1731652644.5923493,845.0436819077786,830.4144935272078,823.9726311077146,833.2182957594424
1731652644.5962484,812.1628693370997,832.7677757846644,817.7981777757468,813.153856316191
1731652644.597769,801.7308775644864,832.3009935640299,812.3918123449957,794.8797421557491
1731652644.5995057,822.5579992080159,830.9555166437732,810.7196019319854,791.0297079142249
1731652644.6001475,861.7510081302037,831.200782840477,814.330103495384,804.2799073349609
1731652644.6040466,894.585199966365,833.8313699989824,821.8403490781888,825.3165028405438
1731652644.6072204,902.5143121381057,837.0556436661908,829.4817483824581,839.2169427070222
1731652644.6079457,885.7167555825943,837.7596373625462,833.5342957134321,835.7007073731929
1731652644.6118448,860.8040656246491,833.8955610465543,832.7748332942897,815.7467476531239
1731652644.615744,845.9967022998501,826.0012252479473,828.972818508622,789.692698835655
1731652644.6166153,846.3298239911936,816.7395933733308,825.1545135931012,768.6660259583675
1731652644.619643,851.3376239777908,809.057590231151,823.2391249859634,756.5667773967396
1731652644.622798,846.642790859367,804.483681807558,822.9867576638704,748.9830023687678
1731652644.623542,828.5894232672678,802.6612423426081,822.8413430819437,739.1524979701796
1731652644.6274412,808.6920114952588,802.1669212565326,821.6298409474604,725.1906096361323
1731652644.6313405,804.1330164607162,801.8801996828781,819.6031356118177,712.3199314232564
1731652644.6344252,822.8288938528021,801.9519772513594,818.1051707748691,708.509110106747
1731652644.6352394,855.8424611246936,803.6953316989518,818.3185558014329,717.3425780197896
1731652644.635461,883.3199972126564,808.3992085288693,820.1531829271139,733.968878009063
1731652644.6383753,889.0867990605286,815.8851408077492,822.1552444704943,747.5852197198979
1731652644.6391385,872.4487186613869,823.9992257299871,822.5619248506831,748.9762468203398
1731652644.6430376,848.1134777891369,829.6616211836672,820.7593306235905,737.49822310691
1731652644.646937,834.3720037473809,830.8467461099403,817.973179274067,721.8049151042712
1731652644.6508358,838.9144938001014,827.976985961921,816.4935557004928,713.2971212975759
1731652644.6539528,853.6530007922545,823.5807764377917,817.9393445467449,717.4086642237505
1731652644.6543076,862.6235302563575,820.4703437556454,822.0037411778272,729.9950166865245
1731652644.6547348,856.1739467352648,819.896017577673,826.7841545096043,741.8385754001469
1731652644.658634,839.4293065505216,821.0746643397295,830.371503176333,747.1595787699528
1731652644.662533,827.958167521897,822.293546606783,832.233753274992,748.5128328179737
1731652644.666432,834.3131928026983,822.5485180033966,833.211804873046,753.7783963655124
1731652644.669345,856.5918132474288,822.3828765224168,834.3074179086948,768.0326352087054
1731652644.6695302,878.4702510785205,823.348763173286,835.4898840950721,787.5710426693104
1731652644.6703312,881.0479504438911,826.5966713594157,835.5639404814723,801.4757333011011
1731652644.6731536,857.4915631082661,831.6816017726094,833.1086675709398,799.7234132178041
1731652644.6742303,818.9073031931225,836.4476591154173,827.6629522346092,781.3554300344821
1731652644.6781294,786.3022829361693,838.1016955148648,820.2936300828073,756.0743617481804
1731652644.6820283,774.5810508657997,834.8382795292051,813.2284261166061,737.8238088879467
1731652644.6851077,781.5521897964098,827.0432788072654,808.8316816521624,735.274386343482
1731652644.6859276,791.2752681753901,817.3261756993951,808.5084867401326,746.5546700155448
1731652644.6898267,788.9496630191962,809.2861616863985,812.0903588984644,762.0458001669249
1731652644.692,774.3888477580758,805.6573113293658,817.96764758387,772.5145957233563
1731652644.6937258,762.3051750325922,806.8753448238846,823.8393885818019,775.7625163834213
1731652644.6976247,769.2033156713001,810.90301549164,827.6567655773508,776.6535763855647
1731652644.700685,798.2182655857534,814.4438902427842,828.3086367634661,781.1884911674945
1731652644.701524,834.7914879389677,814.8708931872494,825.8247762034829,790.1563541698525
1731652644.7042642,856.8951741466725,811.7605523755051,821.1679379162393,797.8678224667915
1731652644.705423,851.6643311081127,807.1270290449405,815.8516759879923,796.9175362537612
1731652644.7093222,825.2459811142354,804.1994810800776,811.5848420045492,784.8318472439768
1731652644.710846,798.0385448244527,805.4294278383335,809.9674133970266,766.9604786002764
1731652644.7132213,788.9484857890736,810.8311994961546,812.1039015319498,753.1092686973304
1731652644.7162626,801.0105122094507,817.5646231420643,818.0574008090282,750.5322129792006
1731652644.7171204,819.805706628046,821.0805567304329,826.3875259956815,758.8562215475363
1731652644.7210195,825.9526710955566,817.4475975999001,834.2946557454712,770.9123145872314
1731652644.7249186,811.4559331799392,805.8202179970683,838.6754168280372,778.5927408285938
1731652644.7288177,786.4100086394712,789.6492730264732,837.6742500756096,778.816416324319
1731652644.7296922,770.5281758735505,775.6054517619623,831.7442978514446,774.9178283526012
1731652644.73184,776.5972171269235,770.4099024195087,823.4434206156762,772.9302279087221
1731652644.7327168,799.5669283196023,777.2020414166857,816.0545861671013,776.4391381085844
1731652644.736616,820.2192460052554,793.6384475488006,811.90161645319,784.2985149025287
1731652644.7391837,820.4692288281309,813.0004032982177,811.3751219789616,792.4484940859708
1731652644.7405152,797.9886309771173,827.6918451090733,813.1808493321399,797.4837726903156
1731652644.7444143,768.2971055200921,832.9853143142794,815.5238520038914,798.7207446339307
1731652644.7474174,752.4125437859457,828.8643055395243,817.3272351349726,797.6444433550575
1731652644.7483134,759.9040636319305,819.2339218967509,818.5935144853322,796.1160215497025
1731652644.7485385,781.2576212971355,809.4000544210053,819.7314117543552,795.1467554061322
1731652644.7522123,796.0879973502085,803.390079771271,820.5818923201562,794.800355669218
1731652644.7561116,790.5506042401583,802.3240857082535,820.1806476510052,794.7095557314934
1731652644.7600107,769.2992678613609,804.3381315704808,817.6215866397082,794.5565544441362
1731652644.7629948,751.6389603070486,805.961320584999,813.2787427734737,794.2450746418273
1731652644.7639098,754.8694076892681,804.2766602173152,809.1694287157937,793.8347515323375
1731652644.7673843,778.8843471954424,798.6901437965183,807.9461298712937,793.4151374085272
1731652644.767809,805.2767329589901,791.2080176803698,811.2512182222814,793.0327303312262
1731652644.771708,812.0798956400687,785.0958047371921,818.7214844071507,792.6864707700566
1731652644.7741032,792.0754549584475,783.0132677389446,828.2775554961746,792.3555080566072
1731652644.775607,759.4101962368125,786.0063384250243,837.2305247013601,792.0234964125523
1731652644.7785723,738.779574001252,793.7418272040402,843.3016234996595,791.6862207402728
1731652644.7795062,745.8072722954739,805.1545381066264,845.124479988871,791.3472925117749
1731652644.7834053,774.6188748630848,818.5788412754114,842.443476839324,791.0114072340805
1731652644.7862306,802.8651175360898,831.4860417211834,836.2957342235371,790.6807679353985
1731652644.7873044,810.2076380815383,840.7921415740393,829.0209223399291,790.3551069465844
1731652644.7912035,795.1302158836379,844.2154530851365,823.6381075060367,790.0332433163813
1731652644.7941496,776.1249198301276,841.8222171054362,822.4661625106133,789.7143257217264
1731652644.7951026,776.0909227313123,836.26343376679,825.6612746861172,789.3981548525749
1731652644.7990017,802.7188719133226,831.1636954324754,830.8235745250049,789.0848956923892
1731652644.8029008,841.0554035907054,828.8390240730754,834.3078665390237,788.7747033174056
1731652644.8050768,864.4663909224668,829.2174591790242,833.567351205615,788.4675680800667
1731652644.8068,855.2544819392355,830.6704518603168,828.8672166001842,788.1634037919928
1731652644.809023,818.5468959368546,831.6616910108818,823.0308526982492,787.8622296948924
1731652644.8097272,778.5899261537306,831.6806417632561,819.3788528985616,787.5642413935059
1731652644.810699,760.4669580995776,831.0562733559773,819.4407736378053,787.269615868864
1731652644.814598,771.5688476091957,830.3125604372693,822.1388051815002,786.9780860188893
1731652644.8184972,797.2312782336663,829.7428174121642,824.8774132794913,786.68864078205
1731652644.8223965,813.6740955289293,829.3621498953624,825.464901013681,786.3999432348319
1731652644.8239229,807.4900239003714,829.0580195046286,823.3581659709984,786.1117845750482
1731652644.8253045,785.7348020574789,828.7337960547841,819.5884323491906,785.8268173748254
1731652644.8262954,768.6893004493751,828.3602208146889,815.8645198294843,785.5504167096703
1731652644.8301945,771.9357136478477,827.9553337740527,813.6751780278424,785.2863932138958
1731652644.8340936,793.0969193992005,827.5462607417913,813.7468767419193,785.0292929512232
1731652644.837993,814.1468384452702,827.1471013275584,815.8030226692174,784.7599521775691
1731652644.840882,816.8073099717466,826.7575606777024,818.6516614874073,784.4550862839966
1731652644.8418918,797.8692233346384,826.3713545391844,820.7724470323707,784.1155895589986
1731652644.8427691,771.9657073032686,825.9835640941251,821.2806746914882,783.7972280676033
1731652644.8439424,759.9311113585869,825.5929440707052,820.6392522736845,783.6022873688415
1731652644.8457909,772.2346752226888,825.2006195387733,820.4374505481217,783.5925382749665
1731652644.84969,800.4800523477384,824.8080447671719,822.2047855498821,783.6457166148867
1731652644.8535893,823.6185371624181,824.4159202367646,826.0700359868921,783.3893710710507
1731652644.8564594,824.2440352177941,824.0241981197382,830.3481160264737,782.4113371552097
1731652644.8574882,802.3415911111587,823.6325521438483,832.5344049889386,780.8092469861251
1731652644.8613873,775.4197352268473,823.2407535143312,831.1082051183347,779.7343678522599
1731652644.8616152,764.5161167872151,822.8487717191608,826.8101894312119,781.1451125114637
1731652644.8652864,777.1069836034259,822.4566942653713,822.3161912241376,786.1214908876304
1731652644.8691854,800.8611191174966,822.0646186890347,820.4218785067438,792.4090077126795
1731652644.8720367,813.5762004859977,821.6725996200244,822.0833872669754,793.790787938865
1731652644.8730843,801.4058355687753,821.2806517442938,825.833656421584,783.7601984918638
1731652644.8769836,770.6295360029055,820.8887745213103,828.9713623015659,761.9058623508823
1731652644.878862,743.3905997471409,820.4969719671053,829.482196189455,737.08930868509
1731652644.8804617,740.6645770045325,820.1052610905936,827.2008722295592,722.9583913825015
1731652644.8808827,765.8669048216399,819.7136733453032,823.56423218404,728.2269879514687
1731652644.8847818,802.1007536505377,819.3222507918323,820.5018896239384,749.499430899626
1731652644.8876145,825.4130525399572,818.9310324290223,819.4398081760908,772.9678386928346
1731652644.8886812,823.5968236449476,818.5400293956158,820.8975129072942,784.243577208478
1731652644.8925805,805.2171600100834,818.1492051105624,824.521513534388,778.7641880554191
1731652644.8964794,791.2758758036425,817.7584950572968,829.2847522367617,764.4552737382388
1731652644.8993075,796.5504777283244,817.3678916981925,833.8213960577293,754.5408523471546
1731652644.9003785,816.6689448411569,816.9775591101984,836.8985873421176,756.4413613631134
1731652644.9031918,832.1049892071501,816.5878507164077,837.8018187961486,765.7727174210755
1731652644.9042776,825.5665436501004,816.1990755579111,836.3928980106778,770.1609958571403
1731652644.908177,797.7335697998373,815.8110188534847,832.9384307918419,759.7104928507123
1731652644.9120758,767.964645734844,815.4225875875519,828.0339877145863,735.8396112660338
1731652644.9137814,759.5058410150399,815.0322621498826,822.7039742838534,711.5476088019007
1731652644.9159749,781.4300487049849,814.6397668077426,818.3797762277202,702.6734317233193
1731652644.9181538,821.6390377775664,814.2481475218987,816.5040218536678,716.4550690333408
1731652644.9187691,856.0101407101082,813.863776884744,817.9362043329513,745.8743326161407
1731652644.919874,866.2304624715263,813.4915289777257,822.5851888772401,774.266851401581
1731652644.9237733,852.5261297378444,813.1257303502575,829.4750325238602,787.0511607263757
1731652644.927672,831.6691624981196,812.7444361135837,837.0746414848154,781.6361787452322
1731652644.9315712,822.22074985237,812.3197555649878,843.6267266893816,767.5956468963246
1731652644.934347,829.2656634068242,811.8504849985858,847.4240722989819,757.1520652127609
1731652644.9354703,841.3622740843583,811.399132274988,847.1729133452108,754.4794511591508
1731652644.9369998,842.0119936995063,811.0851256790176,842.5019955158102,753.3434314744135
1731652644.9393694,825.3261252375806,810.9853074480785,834.4028503601066,744.7690111246035
1731652644.9432683,802.0198383374881,810.9613778946934,825.2195216214307,727.1259748479148
1731652644.9471676,790.5873881401789,810.5620909210571,817.9543356109596,709.0872412976862
1731652644.948701,801.4790816781559,809.2226505009597,815.0502072351164,702.7919187639635
1731652644.949924,827.8430041454518,806.8075875086843,817.18624743368,713.4180885197618
1731652644.9510667,850.5060219988495,804.0881011547646,822.7569913984743,734.3242792254395
1731652644.9549658,853.008771415091,802.511312728215,828.4988652141901,751.9619067598203
1731652644.955846,834.504401198011,803.1872093778135,831.1694233654472,756.5343158310807
1731652644.9588647,810.1533895391983,805.9252739625719,829.4500918682539,749.6180659756694
1731652644.962764,798.609680293259,809.2431138701695,824.8333677789377,742.370763980349
1731652644.9655015,806.6197851459809,811.3886021305312,820.7074514479567,745.6839560264473
1731652644.9666631,823.4044923004044,811.551492848922,820.076358133628,760.5273441418256
1731652644.9705622,829.7933689011504,810.3529953345362,823.4491886936075,776.8431494113174
1731652644.9744613,814.8588383485667,809.318903335318,828.4315355936151,782.1622005646333
1731652644.974692,786.208059363377,809.8076115021504,831.3733683970626,772.6451478911141
1731652644.9783604,765.0309360467362,812.2109521827417,829.9650710231481,757.0512937144782
1731652644.9810789,769.533218993762,815.947311382592,824.9896965658357,750.2061787583038
1731652644.9822595,799.9895996021869,820.0887728140659,819.9701557899532,761.3891619992073
1731652644.9836204,837.4739975939053,823.9815518869174,818.8405052573936,787.0447615113906
1731652644.9861586,857.5593683384706,827.3463279998726,823.1637192756413,813.4268197796612
1731652644.9900577,848.5411280197052,829.9321529619285,830.8668986638244,826.8425108076779
1731652644.9935384,820.0545697699073,831.2411420681519,837.4933095129568,823.4517597151545
1731652644.9939568,795.2459620685335,830.7018178457614,839.1266788497285,811.2006791507439
1731652644.9966564,792.584505314493,828.1402493020535,834.8489309551713,802.686997861686
1731652644.997856,811.8696435408267,824.0647440080359,826.9975156429224,804.7980687578947
1731652645.001755,835.7331362349628,819.4601658637408,819.2922401050478,813.4093983571515
1731652645.005654,845.0751195992113,815.2447287324128,814.5049443532104,817.2688267207534
1731652645.0095532,835.1389418958225,811.8207535955509,813.3671776691689,807.6852531701958
1731652645.0122335,818.6414951266895,809.0495652938985,815.0410250694608,785.9919782407451
1731652645.0123844,813.7944641794531,806.646215987758,818.1996733413115,762.8186526481736
1731652645.0134523,827.9428845883722,804.6901965626311,821.7206252837157,750.010663002369
1731652645.0173514,850.8183801139311,803.8649351082604,824.839637978294,751.7384194335499
1731652645.01854,862.9189316614862,805.206743747729,827.1568881086895,761.5891371944305
1731652645.0212505,851.9208380216596,809.4577107063725,828.644163870786,767.640632783882
1731652645.0251496,823.5242912689577,816.3827652614871,829.4409872274326,761.6199344532273
1731652645.0278113,797.6426011502001,824.4721589360091,829.4402720640647,745.3492967337659
1731652645.0290487,792.7327345582685,831.2902638116558,828.1364789146306,729.5868472427237
1731652645.0312307,810.9410675162957,834.4360434141579,825.1213607307333,725.8745202264719
1731652645.0329478,836.4869997865006,832.745063245596,820.8798341780436,737.4802606723191
1731652645.0368469,849.0463017086635,827.1035117015034,817.0163349739363,756.7472114699607
1731652645.0407462,841.2148000732267,820.2609562277746,815.4383111793189,771.3960664144305
1731652645.0433886,825.1772246514538,815.4937590005629,817.0044088265969,774.7527541964046
1731652645.0446453,822.4493076897735,814.7464114003807,820.7288215195367,771.0810605334291
1731652645.0485444,844.9871310320732,817.4167074114803,824.2638103973023,771.2331859873664
1731652645.0500767,883.6068628889407,820.6968323334379,825.4047883633993,782.4465023623984
1731652645.0524435,913.790271417072,821.3751413577488,823.579075023037,801.3588790664652
1731652645.0534596,914.6231338518943,817.9767530582562,820.2621548473411,816.3889349791818
1731652645.0563426,885.8102033356341,811.8649675257145,818.0136322396905,817.4245707351013
1731652645.0589662,848.9764720637266,806.5834258320294,818.8108545827755,804.5946054055851
1731652645.0602417,831.6367902111381,805.782779102325,822.8524872271153,788.7321920661133
1731652645.0641408,845.9873283355881,810.9175172309309,828.6080479723452,782.9671682956093
1731652645.06804,879.3524106055241,820.1221851639322,833.9212354890044,792.1746354031634
1731652645.068923,904.391570085478,829.1185756499008,837.2521873165649,808.9908732814392
1731652645.071939,901.249120731989,833.8032442509664,838.2357294611597,819.9822971680239
1731652645.0745437,873.6786009762468,832.9436597891713,837.4316269042264,817.132651284399
1731652645.075838,845.8515155590203,829.1012696098398,835.7359538948061,805.0211422238227
1731652645.0797372,842.5703771561963,826.9827528013374,833.9439448936355,797.3224162959982
1731652645.0836363,869.2915098149325,830.2635443844329,832.5768751276777,805.2104553182597
1731652645.0875354,908.0398112998714,839.081542728648,831.8001219565277,827.2624619824676
1731652645.087769,931.7751384373081,849.8736733960467,831.316426420418,849.3717767550206
1731652645.0883791,925.0778469830971,857.5108107244421,830.3494508743889,854.9937073643748
1731652645.090121,895.0295697997119,858.2517209990114,827.9254200112192,837.7976627536389
1731652645.0914345,864.7456782131304,851.8229129834248,823.4823461650229,807.0061922796439
1731652645.0953336,855.3485265971933,841.638830989291,817.5149786141569,781.2934296207835
1731652645.099233,870.3370916944722,833.0738459258013,811.7629721482612,775.6738940285876
1731652645.1031318,894.0560018468475,830.5266364718027,808.590513101613,791.1492587314002
1731652645.1056983,905.1430861458075,834.7627105258417,809.7055826214083,814.9700897494704
1731652645.1066153,894.1936557474132,842.2483349036645,814.9513160083916,831.2593392403772
1731652645.1070309,871.3799662995212,847.2700988460819,822.0899941135597,833.5062429613371
1731652645.11093,857.7140703815604,845.7317749115216,827.9521318309488,828.8305252864895
1731652645.1148293,867.0764243444224,837.998612789383,830.2791641833072,830.6267391302267
1731652645.1187282,893.976728282671,828.5609475450616,828.9039400553837,845.937376783882
1731652645.121276,917.4330260358505,822.6644588202657,825.3518774928351,868.4708908160028
1731652645.1226273,917.9975008368058,822.5141356609378,821.2781791940068,883.437529194664
1731652645.1232986,894.0032205317243,826.0045548107564,817.1841196833273,880.1837828747049
1731652645.125461,863.6035996448954,828.8181854822083,812.5639144606032,861.7624477768601
1731652645.1265264,850.5919036673804,828.0219680096958,807.2576293500484,843.0715086483361
1731652645.1304257,865.1598878468589,824.2488707377428,802.6002590276581,838.9384723007173
1731652645.1343246,895.2712891939948,820.8866004649956,801.0681113722384,852.2249705475263
1731652645.1368532,916.2217923197002,821.1584536768859,804.4737368846553,872.1874886315983
1731652645.1382236,911.0314109614533,825.5466714387879,812.1786828024639,884.5292055021653
1731652645.1421227,884.6656802533857,831.5291334628121,820.9835514733363,884.2004021373936
1731652645.1443076,859.6611126167865,835.6421600381481,827.0455341088516,879.3807376745497
1731652645.1460218,856.5948521412016,836.1217289758155,828.4482464721807,883.0322573376534
1731652645.1499207,876.2611171095407,834.1288511499158,826.4306007524965,899.8971067469481
1731652645.1524308,899.0369218381617,832.798439869203,824.324096152812,921.0246360811255
1731652645.15382,901.7814761865789,834.9466128495745,825.0339220574657,930.8123027562494
1731652645.1577191,877.466134867915,841.0750005252269,828.9482909899467,920.0165253371961
1731652645.158218,840.9328308655289,848.9463815774002,833.7337128431536,893.1376745372827
1731652645.1616182,816.5220662647489,854.917856528722,836.0313511071001,864.193266063621
1731652645.1631536,818.4051487739289,856.156564319038,833.7362572923903,845.2343042536603
1731652645.165517,839.7924829483937,852.3757922494501,827.2525848341312,837.6066201205634
1731652645.168008,859.3710736370596,846.0002559840087,819.0055211771677,832.7690684376322
1731652645.1694164,859.2938105675128,840.5879139632343,811.8035954871627,821.0974718972711
1731652645.1733155,839.8068266295668,838.4865863826444,807.3347196488371,800.7049923767357
1731652645.1772146,818.3009605751164,839.3494790597437,805.6976920501265,778.7568228692421
1731652645.1811135,813.3486023681157,840.6181299964095,805.9330507140518,764.3530532666771
1731652645.182,827.0222394027194,839.5848941608522,806.8924098394114,759.2984248041389
1731652645.1835856,840.7259709976936,835.3680986899739,807.829107166109,754.9489128712627
1731652645.1850128,828.86016069882,829.2709598334077,808.5121800748923,738.2552723261451
1731652645.1889122,779.8169665058533,823.4543149646687,809.0257439950981,702.3924699811224
1731652645.1928113,707.3873825811504,819.2406826713215,809.5191491972812,653.3944314035206
1731652645.1931376,642.9014780554617,816.4278533475027,810.0707390634011,607.1452789117247
1731652645.1967103,613.4486234835049,813.8667136363599,810.6775285678228,578.4454593512402
1731652645.199163,622.4851450122393,810.4924472157082,811.3028430766881,569.9946210048928
1731652645.2006094,647.6503677056012,805.926569880824,811.9182544288266,569.6072981369788
1731652645.200846,657.804613833698,800.4440180157212,812.5165868022366,558.4567438525804
1731652645.2045083,636.5838534797978,794.6318410157003,813.1042714719413,525.1411959755605
1731652645.2084076,594.2348590318956,789.0398335718094,813.6895730552419,475.29304449469845
1731652645.2123067,558.1525133652069,783.9123610621053,814.2763883642028,428.6520867197402
1731652645.2147405,549.5938201205404,779.1120988629725,814.8643120920017,404.6859563813622
1731652645.2162058,565.8221669325179,774.416347616924,815.451354086226,407.5043871052967
1731652645.2196922,582.8101930253968,770.0769386511095,816.0360981658688,422.5015104130405
1731652645.2201047,576.3134161311573,767.0589645506565,816.6182718894813,428.1939165982606
1731652645.224004,543.3877906073485,766.4242235420771,817.1982772657921,413.995130393078
1731652645.2279031,506.02016191903164,768.1632943388865,817.7765680730698,389.2561226543955
1731652645.2280574,493.71114370430456,770.6121064388581,818.3533503200729,375.88545979528044
1731652645.2303178,519.3772174272135,771.338048161655,818.9286087503364,390.39734567360193
1731652645.2318022,568.2254896549431,769.0349660151337,819.5022568802656,429.8969643171724
1731652645.235701,608.5957564311171,764.8186708994383,820.0742463111825,473.3817569000951
1731652645.2385385,616.2586854941377,761.6445181864195,820.6445901860877,497.6359507061669
1731652645.2396004,593.0513534116224,762.1949311300274,821.2133351540302,495.4325924175402
1731652645.2434995,565.0845406820214,766.9561543607434,821.7805289392056,481.5931934269084
1731652645.2458954,561.8239991158279,773.9933712568328,822.3462065216979,481.62834110567894
1731652645.2473986,592.6693336445571,780.4052849091306,822.9103928647484,511.4741392650232
1731652645.2512977,639.7704684223044,784.1086185700057,823.4731103129631,564.3432507859462
1731652645.2551968,672.6852274908637,784.6337064404163,824.034382177899,615.4264960372119
1731652645.2573843,672.8603357903348,782.7320772841362,824.5942318939206,640.989072230171
1731652645.259096,648.3633880809329,779.578100782422,825.1526825299519,636.8329289176271
1731652645.2614727,627.5367923830778,776.336313757257,825.709761261727,621.5738427396532
1731652645.262977,636.9200953795344,774.1263323417234,826.2655075602573,622.1449231632512
1731652645.262995,680.6498393899493,773.8829313475238,826.8199755629657,652.8082879050445
1731652645.266894,737.1433124921175,775.862732463737,827.3732179486536,704.110986260728
1731652645.2707932,775.7131393274362,779.2382192335311,827.9252500789629,750.7160169376806
1731652645.2746923,780.4259033893032,782.4536382483063,828.4760208703403,772.2262557230273
1731652645.2762306,762.4673787597941,784.3702361813662,829.025442120612,770.2816127460924
1731652645.2770505,750.8905432963322,785.3075155094033,829.573511322229,767.5282333499072
1731652645.2785914,768.9499712336906,786.9476806847034,830.1204733253387,788.6498615296915
1731652645.2824905,815.2885893942025,791.0168664361041,830.6668372110215,838.9135871314915
1731652645.2863896,865.4392142775203,797.8011463130921,831.2130316749932,898.3754808079057
1731652645.2902887,892.1267052439142,805.7296272545908,831.7587203322213,936.9870704496673
1731652645.2926276,887.1803444078498,812.2938535495088,832.3023211614131,938.1729689659888
1731652645.2941878,867.0556429929023,815.4802357019447,832.8416994820535,911.5284744960692
1731652645.2950768,858.3026272418813,814.708044823448,833.3765838451427,884.9555768657408
1731652645.2978964,875.8839056538835,810.9403809294226,833.9114784805121,883.6540207325346
1731652645.298087,912.1735725371445,806.2543359580612,834.455497564427,913.0132984837848
1731652645.301986,944.7589899330884,803.1456600331363,835.0152801135669,957.6879183145472
1731652645.3058853,955.683833561137,803.5959373896127,835.5821100015195,995.5658872656722
1731652645.3082051,945.9826356430541,808.0920725860441,836.1242889812488,1014.4446298183485
1731652645.3097842,933.8339858709911,815.2312051824161,836.6028535032731,1018.7928334659396
1731652645.3136833,938.4565113091655,822.478904639061,837.0188625730392,1023.0026694745292
1731652645.313923,963.5764831080611,827.7724909788265,837.4657279438477,1038.0997997227187
1731652645.3175824,994.242322738022,830.7766795909902,838.1182286768072,1062.8672841371936
1731652645.3214817,1009.2761103929058,832.7515482514187,839.0933431441889,1085.6423809428122
1731652645.3237824,998.7025933747834,835.1738930176181,840.2248700570476,1094.298112679911
1731652645.3253806,971.8624140829146,838.3302302731975,840.9675708649997,1086.062490966921
1731652645.3292797,950.0454724057098,841.0596602159654,840.6623980448296,1069.7655087037072
1731652645.3327692,950.0463462844174,841.7920784149127,839.0612306226336,1059.354151856195
1731652645.332816,971.8071244809084,839.9818470793987,836.6133244898301,1063.9653751119363
1731652645.3331788,999.5390435087697,836.7903247028878,834.1287808185735,1081.9104512703677
1731652645.337078,1015.0001564808799,834.475770783342,832.0724696883066,1102.6519096434133
1731652645.33936,1012.2062151409566,834.8932515771284,830.1935267548599,1114.9261022398518
1731652645.3409772,1001.7230803682482,838.1687159283377,827.8943714368795,1114.7397214735424
1731652645.3448763,1000.9346269011803,842.5548728526484,824.9727884622844,1107.1836093022519
1731652645.3487754,1018.2609780408081,845.6592250027791,821.9573953354343,1100.9115394332484
1731652645.3516152,1044.7585101324173,846.1743281921475,819.6644790591199,1100.1197989088885
1731652645.3526745,1060.7095885900567,844.7965183183435,818.4209759499041,1100.9958194267724
1731652645.3549373,1052.1505229985992,843.6538127784926,817.766707786169,1095.8066696383185
1731652645.3565736,1023.5813597866808,844.768797925503,816.9682483702343,1081.0974618123134
1731652645.360473,995.9582464075911,848.7792352788586,815.8241446322731,1062.64308696725
1731652645.3643718,991.1269008270095,854.751378820456,814.9003730136315,1052.3152786995774
1731652645.3677354,1014.9708693409025,860.9330977878482,814.9019892578459,1058.9038627506243
1731652645.3682709,1052.6180082931896,865.6793057636914,815.8212536597111,1080.3487567709822
1731652645.3704617,1079.475416825151,867.9823613909406,816.8211858696935,1104.1159554758815
1731652645.3705149,1079.4881128862203,867.6144309821073,817.1096885534696,1115.9883511099442
1731652645.37217,1056.440994265122,865.1354859560194,816.9933109555542,1110.5053324821872
1731652645.3760693,1029.5436945377458,861.7918575146805,817.98024652813,1094.5264352449358
1731652645.3799682,1016.9839127171074,859.1086506084818,821.6415196085122,1080.7807100867055
1731652645.3838673,1021.0420397706665,858.1868241023592,828.1602186848877,1076.7162441609473
1731652645.3860922,1027.3146585121092,859.1420412346945,835.873319676202,1078.224870690295
1731652645.3877664,1018.6808081844888,861.1858025207447,842.241008996837,1073.7288911307382
1731652645.3893075,991.7393141708553,863.3455560194071,845.4293617985329,1054.9901953719755
1731652645.3916657,961.0842492384039,865.213891203538,845.2499981069587,1025.004974337316
1731652645.3955646,947.3221754659689,867.0397479219321,842.8546608387184,995.8878923792712
1731652645.3994637,958.9023439727006,869.0531206133116,839.6063859567802,978.4201479934527
1731652645.4016695,983.316184457894,870.6441096444555,836.0832245696109,972.2605589517601
1731652645.402655,995.5411804388802,870.2336293288805,831.9418650951175,965.4612730759277
1731652645.4033628,977.3598174881508,866.142699907601,826.6655357419913,944.1695111458569
1731652645.4072618,932.0450900145042,857.9044342656111,820.542696300818,904.6461664850735
1731652645.4081538,882.2609544528968,846.9981523085376,815.0161752644709,857.3428879468341
1731652645.4111607,852.3918703200187,836.3335929677157,811.9875602383414,819.0315221990411
1731652645.41506,849.3138503148659,828.7103750086086,812.5002772315617,798.9927714330111
1731652645.4172473,857.280546831157,825.2311700210381,815.8335135290386,790.7405714503509
1731652645.4189591,851.2848197489492,824.7133530435797,819.8496555316957,776.730190538638
1731652645.4228582,818.011763695532,824.48728946252,822.4612601598078,742.7896289569152
1731652645.426757,767.1217324130903,822.0368469939707,823.0773351885376,690.4528206140164
1731652645.4269998,723.6432797147124,816.3871318967203,822.8142420927812,636.5882537114722
1731652645.4306564,707.8912592088564,808.3971787650115,823.3122193739094,600.1594585928633
1731652645.4328246,719.2824310722441,799.956831107491,825.2415510892106,586.8245404915367
1731652645.4345555,736.7210966231304,792.8005053599413,827.7979728794204,584.0099711061996
1731652645.4375746,734.6680097723176,787.7086309819397,829.4880217114128,570.497982009397
1731652645.4384546,701.9579473385961,784.4108932774897,829.337269257129,532.7979159956785
1731652645.4423535,649.0432570615523,782.0421080740575,827.4385168028792,475.3142315179372
1731652645.445846,598.9146981455242,779.8070799582745,824.5446257346714,416.5905279167532
1731652645.4462528,569.6088587886782,777.5013951009139,821.2955660606808,375.11674952357106
1731652645.448402,562.1852692358725,775.5949672266391,817.8364552441403,356.17036147756625
1731652645.450152,562.9842940648283,774.7634627332009,814.0523834495026,349.70259169407973
1731652645.454051,557.1627231523912,775.1024963371212,810.0562455936301,340.00087982243224
1731652645.45795,541.5743007996077,775.6153980811594,806.4408765158333,318.57777395223394
1731652645.4618492,526.268354154646,774.5772509843699,804.1107830596222,289.9121945125772
1731652645.4639795,524.0158664736048,770.8254662463489,803.8436667824838,266.3392200911315
1731652645.464692,537.5514699480832,765.1654822587789,805.8350715096,257.478550459743
1731652645.4657483,555.8816542461618,760.6266578235848,809.4338660720238,263.35084987115357
1731652645.4696474,562.9513815176268,760.8854974764305,813.2483388342882,276.1635924064359
1731652645.472494,551.336543671041,767.6158306611006,815.734616338762,288.0611046673688
1731652645.4735465,529.3490919188503,778.7183625513728,816.1032161335386,297.6851612607421
1731652645.4774456,515.342585611629,789.1038218350902,814.9938070099244,310.25662565574066
1731652645.4795568,523.5335572699363,793.8464371639856,814.288925539175,331.65212793671753
1731652645.4813447,552.7334975688041,791.5006507326775,815.9496876896646,361.70496625644654
1731652645.4835384,587.2437218807456,785.0181623791814,820.5714294158839,392.3942238392928
1731652645.485244,609.3975256755327,779.5163544038276,826.7513158434383,412.7933385850593
1731652645.4891431,613.6424281476874,778.6686582758274,831.854287937123,417.40837725482476
1731652645.4930422,610.5738620819823,782.5402456643084,833.680759030078,411.53649143516924
1731652645.4951344,617.4977205093141,788.3803621447,831.8067027440164,408.97102994743364
1731652645.496941,643.3125770037962,793.3903774469986,827.6539389365349,422.9826954263093
1731652645.5008404,680.2952571065209,796.9843111598273,823.3875366457435,456.9205617538735
1731652645.5023844,709.6953948723913,800.7539944022834,820.585139999978,501.58099672402363
1731652645.5047395,716.7821857815416,806.4798478231917,819.6027221438131,541.7045729566536
1731652645.5074136,703.3635439975038,814.1455181793538,819.8487297880858,567.0206233015085
1731652645.5086386,687.6081823461892,821.6830333634208,820.4928506844269,579.4462170681816
1731652645.5107117,690.6914405916378,826.4931655949798,821.0037448861914,590.6022556140521
1731652645.5125377,720.2062352880753,827.2841354385803,821.2617086799675,611.3562223877962
1731652645.5164368,763.5421970402433,824.736491972493,821.3819770228645,641.9842452261792
1731652645.520336,797.261088263394,820.7436892579215,821.5033141577968,671.6599568152071
1731652645.5212307,805.5744259877328,817.1777721289623,821.6861280331054,688.2430501477949
1731652645.524235,792.8444691992912,815.2164189710522,821.9188347877654,689.9541385409557
1731652645.5262892,779.4224325441029,815.4031884021721,822.1659664422255,688.2268585453204
1731652645.528134,784.2103478564553,817.855362003351,822.403898760236,698.6120709524972
1731652645.5320332,808.8350400801598,822.1446334455511,822.6288486130826,727.4153208324774
1731652645.5359323,836.8184590532402,827.0686829494645,822.8479273365465,765.7360942949339
1731652645.5398314,848.0582678140532,830.9046576858501,823.068492279437,796.1193688695936
1731652645.5400767,836.1048815538867,832.3209779012385,823.2934174321737,806.2657582507342
1731652645.5418663,813.9744326591461,831.3674683961459,823.5218622961665,798.719279520246
1731652645.5423331,804.0582574338334,829.6816745474578,823.7519232445347,789.1529759579568
1731652645.5437305,820.3134221975223,829.5691069041172,823.9824372190726,794.8017094868504
1731652645.5476296,856.6963268884398,832.5083695204819,824.2132940837353,821.6750478663837
1731652645.5515287,891.0151879530513,838.1467613818531,824.4449129683182,859.9078070700378
1731652645.5554278,901.6402405441614,844.5339996587883,824.6776867068608,890.8437656086327
1731652645.557444,884.2595284106758,849.3989167523282,824.9117597035242,900.8540862208089
1731652645.558923,855.2120863463481,851.4707741985964,825.1470873671678,891.4318063689526
1731652645.559327,838.3179958174604,850.899181854088,825.3835783890352,877.5292088689816
1731652645.563226,845.7444102932876,848.6957882198923,825.6211830270976,875.3621705937544
1731652645.567125,868.718524792489,845.9552218143984,825.8599041309926,889.6104035899801
1731652645.5710242,885.7514020808143,843.5821859366574,826.0997717774434,910.4331944654305
1731652645.5730214,881.2495146328237,842.4602976613235,826.3408224652875,922.3970606449437
1731652645.5749233,858.8443790310783,843.3979366613896,826.5830927905442,917.5599143705034
1731652645.5772526,838.6028188785392,846.5005041672953,826.8266122693173,901.9462472417424
1731652645.577769,840.73970867087,850.497485551639,827.0713807360609,890.4960091643973
1731652645.5788224,869.1141151543773,852.9570845296681,827.3173422869306,894.9503250894307
1731652645.5827217,907.6491024931146,851.6837458652345,827.5643989803888,914.5757474198251
1731652645.5866206,932.6204918996743,846.4439179867555,827.8125052810325,937.205327012336
1731652645.588599,931.2658165774209,839.5998149223803,828.0618153697733,949.7058740390167
1731652645.5905197,911.7730166062722,834.8705342920945,828.3127376527542,949.072884734642
1731652645.5944188,896.1637532885804,834.8732668399043,828.5656918032083,944.5188640234276
1731652645.5966153,901.5389567906692,839.1953648262689,828.8205257634071,948.4962924759558
1731652645.598318,925.2505452849532,844.534725807803,829.0759891968612,964.4793488084487
1731652645.602217,946.7116380454678,846.9285800182572,829.3301042585449,982.6174868630461
1731652645.6041763,944.6177207156542,844.4198552683926,829.5820854133445,987.6286407093689
1731652645.606116,915.1939667308101,838.130123291779,829.8350723607573,972.305462074193
1731652645.6100152,876.1442011592833,831.0302421255539,830.0967814909649,944.725749485163
1731652645.612172,853.0104538157241,825.5912734403435,830.3743667933745,922.5541229023021
1731652645.6139145,859.2393904173779,822.2889012964447,830.6632769815358,918.9806081626347
1731652645.615461,886.1903324688029,820.0083670426366,830.9383352719226,932.061485391951
1731652645.617813,910.9371611631354,817.7087387435454,831.162933916773,946.4375564043618
1731652645.6197538,915.2156513642519,815.7558540446462,831.3269346204507,946.1572392521367
1731652645.6217124,899.9259902238311,815.7884542090468,831.4960349101019,928.1484945292606
1731652645.6256115,883.3105938612958,819.2824678490234,831.8153586949055,905.2081533195249
1731652645.6295106,884.4679398004952,826.0260166704362,832.3992111473144,895.8107172525706
1731652645.6334095,906.2607177403684,833.7659990544491,833.1097406145589,908.8262094786228
1731652645.6343076,932.3015663195135,839.3715240422741,833.3788606713546,935.5372270819057
1731652645.6353312,940.6721478618641,840.694933723119,832.3325612544812,955.5519376291392
1731652645.6373093,922.6713394490473,837.7881584681359,829.3328764234093,952.084464736668
1731652645.6412082,890.6583026388428,832.6495012998339,824.6593875159593,924.6751646379076
1731652645.6451073,868.382277441217,827.7942856364944,819.7718765269765,889.5463562215825
1731652645.647092,871.8201109747708,824.7418652568396,816.7848741878332,867.509247312908
1731652645.6490064,896.2063415577927,823.3976053312658,817.3318288925152,868.8750316140967
1731652645.6509087,919.718073236242,822.5131231832078,821.462188823833,886.7902514083773
1731652645.6529057,920.8407275952487,820.6858908366303,827.2820812835968,903.5416867233959
1731652645.6531537,895.601546147504,817.2234969419746,831.6898743500182,904.3186436424879
1731652645.6568046,860.9680592677468,812.5187240652081,831.9490104933581,887.6098285142856
1731652645.6607037,841.5980864344306,807.9074754793553,827.2743855862693,864.7237647102995
1731652645.6646028,850.3385335346411,805.0964385785472,819.4277669786027,849.7742328501281
1731652645.666486,877.9289306447654,805.3092551436957,811.7786768924879,848.6064532345289
1731652645.668502,900.0692551636272,808.4953490987539,807.2840987473581,855.1784041754934
1731652645.672,896.2006757331269,813.1339845669523,806.7282162135023,857.4871150643755
1731652645.672401,865.234056185773,816.9730633656187,808.5187163101875,847.7355926021289
1731652645.6763,826.1997933105433,818.3725543908072,810.1854785943366,828.6306015945324
1731652645.6801991,803.7543152474244,817.2982942770267,810.3616885577588,811.100775047717
1731652645.6820114,809.957627336732,815.1507226689071,809.6790981956068,805.4483602964386
1731652645.6820636,836.0595949118017,813.5602001411609,809.9949743508025,812.9940870893897
1731652645.6840982,860.0124002626724,813.1793393236476,812.7393097595186,824.921962689341
1731652645.687997,863.5011119363088,813.4541752194248,817.7218456181187,829.4007739393579
1731652645.690846,845.2975235658824,813.4112343294844,823.1826210698938,821.3039432373456
1731652645.6918964,820.7733794020343,812.6041071171022,826.8949491566599,806.4197028055859
1731652645.6957955,808.3394553003361,811.3594245870838,827.5228921393386,796.3821263031175
1731652645.697641,814.1300583932332,810.2574508141273,825.4265134933912,798.4604823569211
1731652645.6996946,827.719385865129,809.5229814910779,822.4866843194048,809.0299847037654
1731652645.7035935,832.2805310656586,808.972002515942,821.0433472830271,816.561674004379
1731652645.7074928,820.1109387803508,808.4879442453655,822.53363132097,811.6767759807815
1731652645.7096922,799.8391135984856,808.4531678608374,826.6465409035454,795.5601737427465
1731652645.711392,789.033766870958,809.6582343305707,831.5539261511212,779.3865280604425
1731652645.7132185,798.6797781398298,812.7259308402814,835.0996835147042,775.0990841255633
1731652645.715291,822.8916175262624,817.4660783783082,836.1666621223039,785.1983907500037
1731652645.7169309,842.6938721034012,822.6061628781968,835.2805805934565,800.0723381223636
1731652645.71919,840.9165104713431,826.1600940450975,834.0029838053798,805.2500992122066
1731652645.7230892,816.0421460226861,826.389583036354,833.5208583778785,792.8282253002263
1731652645.7269883,783.6276932365313,822.8903097707637,833.5010011693998,767.8154872737825
1731652645.7285385,764.0650545197827,817.0460413151544,832.2172521023609,744.2410086748127
1731652645.7287958,766.6928475205627,811.3411382161646,828.0518623368511,734.2607581782752
1731652645.7308874,783.2946408377211,807.8192983394858,821.2673817630342,739.165784697435
1731652645.7347865,796.1857237106351,806.7292270551287,814.4711372423747,749.4287319786223
1731652645.7386856,793.8526749727594,806.4115204131687,811.1097744386456,753.3555149108481
1731652645.7425847,780.7560466420439,804.6378276330281,813.050601765649,746.9518376837394
1731652645.744373,772.9227523264948,800.512864600327,819.2413977403861,736.9301550175874
1731652645.7464838,783.1578785367019,795.5368676466769,826.5504146059757,734.635347755433
1731652645.7473843,808.6428496944192,792.9393733136483,831.952996910838,746.0204107997034
1731652645.750383,831.7591296450504,795.6203895041602,834.1596033264801,765.8202973076953
1731652645.7518504,833.9483518618865,804.096093691605,833.5628363105616,780.7328205646331
1731652645.754282,811.4803690841655,815.916935626006,831.0676632555046,779.455642185337
1731652645.758181,779.9762194460633,826.978273537778,827.2114950805956,761.9270144107766
1731652645.7599506,763.1896014137913,833.7555605310228,822.3110272200107,740.2151616073735
1731652645.7620802,774.3511012649576,834.9032460715619,817.1265735222817,729.6635447081417
1731652645.7659793,805.0891388931701,831.3343882623491,813.0601303880655,736.8633421365448
1731652645.7662306,831.5016711388802,825.151427253753,811.5316245491168,754.222935558133
1731652645.7698784,833.0944779385394,818.4573256985265,813.0742966683132,765.9483047925066
1731652645.7737775,809.3760195654695,812.7229486498273,816.9342371450123,760.7865810054313
1731652645.7755282,780.4391874449179,808.6739802920986,821.4744977887632,741.0833757743945
1731652645.7776766,770.9073338881907,806.3846181397687,825.0668755707326,720.7985590439417
1731652645.7815757,790.226045566879,805.4567174278974,826.896486884727,714.3737112740465
1731652645.7850769,825.107683517183,805.307732300435,827.2354054242833,725.6653879788154
1731652645.785475,849.9757522291268,805.4715831412327,827.064533940747,745.6076480046769
1731652645.78677,846.9466524033486,805.7284347302706,827.2790080433448,759.8860581531301
1731652645.789374,819.5879222144615,806.0330978419088,827.9782354335002,760.0523847409602
1731652645.7911055,789.7699367235183,806.3881245021248,828.3607828235829,749.2735899699477
1731652645.7932732,780.2191848808346,806.7818251536642,827.4029240801785,738.6158836870991
1731652645.7971723,796.6298065998019,807.190180006902,824.9027440491222,737.4325582365774
1731652645.8010714,823.5919508399061,807.5944600556056,822.0327602698076,745.9374596186271
1731652645.803923,837.5546009810698,807.9884649349575,820.7592141127575,755.8356155755985
1731652645.8049705,826.1931465946544,808.3747715627394,822.3971318495029,757.8839222268819
1731652645.8066833,798.2769043715886,808.7579519526529,826.4578888167541,749.5004485112973
1731652645.8088696,776.0174249099059,809.1405143069084,830.8676878698703,736.0250039130242
1731652645.8127687,776.446395076366,809.5224819639283,833.4764247495727,725.3743973403517
1731652645.8166678,797.3798254497509,809.9027767159553,833.5853946064201,721.7321359222723
1731652645.820567,819.4685654604825,810.2805060858562,832.2061735344232,723.798987861924
1731652645.8216894,822.3658362879937,810.6554026197018,830.9585464475396,727.7134825086417
1731652645.8222604,801.5744901760794,811.0276234143425,830.7070882046855,730.6122168262297
1731652645.8227692,772.2880788822835,811.3973996463402,831.075391214785,731.8554184425934
1731652645.824466,757.1947918701178,811.7648405629967,830.9858751355073,732.1876069006955
1731652645.828365,768.0618705750177,812.1299264326329,829.4890462153757,732.4923411168289
1731652645.8322642,796.01795159191,812.492587272204,826.2017144536126,733.1637553447383
1731652645.8361633,818.715454310044,812.8527692743612,821.3562604883051,734.1401765927707
1731652645.837838,818.8216594162285,813.2104541128349,815.8343193973899,735.2027087640596
1731652645.8400624,798.5035454055278,813.5656452602097,811.230771513355,736.2015939515635
1731652645.8416152,777.4406566202589,813.9183481820418,809.5433805075572,737.1102401048056
1731652645.8439617,775.7201070484721,814.2685609075652,812.2435821408361,737.971465158558
1731652645.8478606,796.0591596720127,814.6162772837275,819.1825182340856,738.8310171181996
1731652645.8517597,820.6438428478657,814.9614965357866,828.2263663806003,739.7071691078085
1731652645.8534153,825.6099804755399,815.3042295436564,836.1274231327442,740.5948206299993
1731652645.8556588,801.3525655511716,815.6444930186508,840.2091436125536,741.4818693070533
1731652645.856609,761.8876701750531,815.9822894870572,839.7804702308327,742.3606276620536
1731652645.859558,735.240197409042,816.3175857570352,836.3417270451026,743.229975132797
1731652645.8604617,741.9772320866751,816.650318726163,832.4728922129012,744.092179855966
1731652645.863457,778.6081518038102,816.9804549615934,830.1868090092794,744.9494125090487
1731652645.867356,819.2376282363763,817.3080878253523,829.8513850357338,745.8023089111443
1731652645.8689928,834.8847162838334,817.6334805836278,830.316853314784,746.6503231902137
1731652645.8712552,815.734399185565,817.9569214313196,829.9891250388455,747.4926455187509
1731652645.8751545,778.6216540270419,818.2783519467223,827.9685606180456,748.3287908966511
1731652645.8790534,753.4709283843715,818.5970086278852,824.4906204765559,749.1586458159308
1731652645.8793075,759.4808719901283,818.9116159043754,820.5676669215551,749.9821871180006
1731652645.8829525,790.2944603929607,819.2215814942025,817.2979433691563,750.7991891623476
1731652645.88457,819.9024885300337,819.5287859877502,815.3522524351658,751.609174703946
1731652645.8868515,823.9878023698543,819.8381533513754,814.8236497996813,752.4117325200652
1731652645.8907506,799.1921603272892,820.1545557460471,815.347457563098,753.2070744627658
1731652645.8915286,765.1206337594521,820.4756891080183,816.3462221950608,753.9963341351798
1731652645.8946495,748.1736806715185,820.7859302489942,817.2973181392458,754.780891152224
1731652645.8981538,760.6145232711846,821.0614042148425,817.9255179587018,755.5604621770769
1731652645.8985488,791.5163303751573,821.2937566022099,818.2332545534593,756.3311131576527
1731652645.9001477,816.4078956906575,821.5228561421354,818.3773489519178,757.0859680403476
1731652645.902448,817.4913281316364,821.842642709177,818.5102772583105,757.8211462380807
1731652645.906347,797.8795051216152,822.3357142243996,818.6987450831102,758.5452262953006
1731652645.910246,778.1801192648383,822.9363458378335,818.9345996080615,759.2831562831143
1731652645.9141452,778.3717240063727,823.3234656316555,819.1837969069016,760.0615629462658
1731652645.915725,800.3355596390204,823.0307017586654,819.4228152917862,760.8721422374417
1731652645.9169998,825.8948630084076,821.8637371492684,819.6474682804934,761.6372726008866
1731652645.9180443,831.9955601849434,820.3367813075079,819.8645257311593,762.2307792025397
1731652645.9219434,810.1580005165987,819.5272010782704,820.0812388048323,762.5968001063566
1731652645.9258423,773.9677949784664,820.1600181136997,820.3005279185894,762.9240238580462
1731652645.926448,748.6494969356544,821.7264667528127,820.5216176407016,763.6952448080477
1731652645.9297416,751.5570685687304,822.7326382618359,820.7426181005582,765.3741329476187
1731652645.9313023,779.3807849707897,822.071251486964,820.9623307442387,767.7012508434177
1731652645.933641,811.8657424907019,820.1760716212871,821.1805925985346,769.0980064875032
1731652645.935846,828.3930598198378,818.6957243300527,821.3977773303648,767.1686900439456
1731652645.93754,823.7805713588485,818.9273817201808,821.6142457318449,760.967437662877
1731652645.9414392,810.7411070228474,820.5429250783611,821.8301179480686,753.8913249735443
1731652645.9453382,807.5321870996244,821.8406007346599,822.0453263719361,753.7291289555519
1731652645.94688,821.5341057394509,821.2361577656412,822.2597559610009,767.1453038675728
1731652645.949237,842.7387982088721,818.567239823133,822.4733340353079,791.7512386798278
1731652645.9531364,852.54989921102,815.0959929528692,822.6860418613086,814.1094885631152
1731652645.954692,840.1652282957691,812.3973148942772,822.8978856370397,818.2509504188808
1731652645.9570355,812.4464980811437,811.252209868191,823.1088695589957,798.7478347713892
1731652645.9609346,788.8731780845752,811.4101326817208,823.3189886503035,766.6007982891965
1731652645.9613676,785.7664242719284,812.1256368555759,823.5282351269503,741.7637927170196
1731652645.9624574,802.821110435232,812.7928880852386,823.736602927691,737.8458068386215
1731652645.9648335,823.0949312674036,813.2015646521072,823.9440804361028,751.654606470182
1731652645.9687328,826.7504383361529,813.4287896229632,824.1506359043278,766.4716266308601
1731652645.972632,807.6171500877686,813.6225253443705,824.3562152259983,766.4127459118362
1731652645.9735384,778.9150130237575,813.8672802324043,824.5607741148015,749.7147358852266
1731652645.976531,762.853983508031,814.1670329049745,824.7643420230177,729.5990076923064
1731652645.9780347,772.1133739371403,814.4885347753049,824.9670647167663,722.1028221826879
1731652645.98043,798.5467983367671,814.803288845338,825.1691341422085,731.6609427972891
1731652645.9843292,819.0946539388435,815.1026585895106,825.3705580717797,747.1033064258244
1731652645.9882283,814.6192110245008,815.3919638151048,825.5708924031793,751.42431560081
1731652645.9921274,786.181001205728,815.6792261284148,825.7692761496687,736.6588241174541
1731652645.9923844,755.0273025197148,815.968644356325,825.9651198982816,711.1431469581084
1731652645.9936123,745.9714284647774,816.2601790036273,826.1593136756125,693.3618302646487
1731652645.9960265,767.5019230912906,816.5520220751146,826.3548871963222,697.7618834487068
1731652645.996287,804.6140088666672,816.8427640511454,826.5554360221689,723.8970796045488
1731652645.9999256,830.21327630071,817.1320767526132,826.760637326786,757.0299358670322
1731652646.0038247,826.246057798139,817.4203311433886,826.961511390974,779.2719920128263
1731652646.0077238,797.8769154738222,817.7079950565733,827.1419740988122,782.4854146080025
1731652646.0091896,769.2817926066991,817.9953116782107,827.292750979484,773.0838447574574
1731652646.0112307,764.1926244115353,818.2823003147544,827.4337691554081,765.3012960207973
1731652646.011623,786.7523719033711,818.5688987770247,827.6235534782684,768.6667624416372
1731652646.015522,818.2314238427194,818.8550826766882,827.924208667889,780.1077350793863
1731652646.019421,832.3579272302447,819.1409013132655,828.31237721031,787.2776375688956
1731652646.0233202,816.7744431790352,819.4264455906091,828.5890294988615,780.2791832352906
1731652646.0247672,783.1235940965338,819.7117861350762,828.4025439805998,761.7918635624044
1731652646.0272193,757.7164017180813,819.9969211747082,827.4552623602711,746.8142990461408
1731652646.0300767,760.6341525673132,820.2817790119972,825.7594395358477,751.7561265219915
1731652646.0311184,790.1879696547275,820.5663132442434,823.6588628056222,781.311682012257
1731652646.0312066,824.8620917513285,820.8506694974004,821.5427980471388,823.4656891545858
1731652646.0350175,840.7023123493989,821.1352846190209,819.5647317525156,856.8207919882353
1731652646.0389166,830.0344975339318,821.420693845185,817.7018805734527,865.0197392682262
1731652646.0403445,806.6412171856342,821.7069427174375,816.0956403568756,847.5051693889556
1731652646.0428157,793.5117422865684,821.992933402522,815.2780972634232,818.5638708307223
1731652646.0467148,803.3867667846944,822.2765662344397,815.9527386173844,795.6829869141238
1731652646.048923,828.1862096570451,822.5565240414369,818.3872523735072,786.6178536748519
1731652646.050614,846.0188832574447,822.8352843388022,821.8914198444833,785.3943862325383
1731652646.054513,839.7894983962278,823.1206097542934,824.9427944032961,779.960723942039
1731652646.055922,811.7830028960446,823.4213315313177,826.0836594300715,764.5416604530988
1731652646.058412,782.2090965703142,823.7359843437779,824.9648947092477,745.9904735921768
1731652646.0623112,773.3541549258964,824.0413277997272,822.581065971623,738.7004586239984
1731652646.0661263,792.8704892073656,824.2972809905349,820.42148215565,752.4237682708301
1731652646.0662105,829.6768988090379,824.4828402215452,819.3700354641755,783.3493892882066
1731652646.0677693,864.3640191304848,824.6517778306362,819.350995891069,816.0425307736969
1731652646.0701094,883.6494515476456,824.9531197313771,819.7806020086323,834.7938234106048
1731652646.071499,886.7744549993544,825.5390694964642,820.1577460587893,835.132897630704
1731652646.0740085,881.2668088311872,826.342333121874,820.3092424109892,826.1087035825587
1731652646.0779076,874.9622796139902,826.8653338597501,820.3043388270114,821.5734446122603
1731652646.081807,871.4770289388581,826.2789957550491,820.2710374944054,827.8866935020507
1731652646.085706,870.52362344086,824.0227452375916,820.2819117947636,838.4751407360056
1731652646.086615,870.3715475367388,820.5694232377468,820.340141974929,839.85525745499
1731652646.087077,869.769284234112,817.5075727489043,820.4170284436946,823.9502667443386
1731652646.089605,868.4590875585919,816.4672628726755,820.4880864412885,796.1734324842058
1731652646.0935042,866.773372888055,817.6531270064826,820.5459435090355,772.3150019330927
1731652646.0974033,865.091205044406,819.457088036778,820.5951963090728,766.615060537652
1731652646.1010458,863.5751188527136,819.7423536855572,820.6427232186209,780.6665751949262
1731652646.1013024,862.1931567451929,817.7125528217597,820.6920957795362,802.0934554511188
1731652646.1026542,860.8498211453061,814.5959040085179,820.7432437428572,814.0673885976943
1731652646.1052015,859.4820474062892,812.4616667970835,820.7945873552708,808.1352437610047
1731652646.1054614,858.0801834134971,812.2765060786561,820.8448970064828,790.2867181934432
1731652646.1091006,856.6636276296941,813.0222958449938,820.8938723887641,775.5525369043876
1731652646.1129997,855.2521997720874,812.6808170332482,820.9418086702376,775.4834646781944
1731652646.1168988,853.8535676647512,810.1891249675432,820.9890805428407,788.5916207318884
1731652646.1182318,852.4654382043227,806.6524850875074,821.0358752462165,801.60075459881
1731652646.120798,851.0827339638051,804.7700321787996,821.0822045540493,800.6600852332167
1731652646.1243076,849.7024293463161,806.8848076247955,821.1280274329487,783.4244759561961
1731652646.124697,848.3243402732533,813.1400510046293,821.1733284148046,761.9588400448728
1731652646.128596,846.949644303501,821.1629612529788,821.2181035100402,753.7434049163874
1731652646.1324952,845.5793242962461,827.566862882814,821.2623047672125,767.7034799691022
1731652646.133809,844.2135894281464,830.1715840148776,821.3058390730483,796.334882744121
1731652646.135965,842.8522083566617,829.2830856390706,821.3486852262849,820.3941300449302
1731652646.1363945,841.4951823781004,827.1563549115563,821.3910781691346,822.9449042942853
1731652646.1402934,840.1431333172293,826.2278821857641,821.4335553383488,802.2010643088628
1731652646.1431537,838.7969430128512,827.5510199880412,821.4766099132161,773.154767348555
1731652646.1441925,837.4566033910895,830.4508788775505,821.519940880752,756.2854249193331
1731652646.1480916,836.120039914905,833.3144399421935,821.5618632486731,761.7643024477438
1731652646.1493866,834.7835109516215,834.7023660966147,821.5999514840541,781.6151160091628
1731652646.151991,833.4449752049441,834.0460303577592,821.6336158971053,796.4188666540821
1731652646.1558895,832.1094055705825,831.6935240781432,821.6674286908326,791.4268420575326
1731652646.1597888,830.7909061012663,828.4732197931999,821.7113576146182,768.9404032788033
1731652646.162,829.504340805827,825.124098249039,821.7734648278966,746.6427489224022
1731652646.163688,828.2447525558389,821.9777352461861,821.8456887267657,743.1815508346479
1731652646.164964,826.9683002587532,819.113811628078,821.894198928722,762.8990169810861
1731652646.167587,825.6044362227206,816.8062537651374,821.8744015327713,792.2418553104287
1731652646.1708848,824.1230591910646,815.7325859892061,821.7814491324586,810.6645900173642
1731652646.171486,822.6319553477515,816.586124634901,821.7098297633352,806.9319225878442
1731652646.1753852,821.4030812942009,819.3742387250884,821.8471530634469,787.4056727044735
1731652646.1792843,820.6951666303572,823.1269478800486,822.3229507421772,769.6844142928531
1731652646.1805415,820.3605666531789,826.4000495296,822.9371112143162,767.2474778006848
1731652646.180846,819.5224102405684,828.1471043316282,822.9942861008141,778.2549579357744
1731652646.1831834,816.8868614842702,828.1738421168651,821.5986002383186,787.9787948086905
1731652646.1870823,812.085958965598,826.88488744801,818.5079004839642,782.5772015424976
1731652646.1909816,807.4872691160025,824.7729698842795,814.9417315631472,762.1438636004783
1731652646.1948807,808.5241861516536,822.2391328715097,813.3242736537492,741.597870601358
1731652646.1961188,820.3050968762875,819.8099860713485,815.7534877447517,738.4950306106984
1731652646.1987798,841.1121107665384,818.3095189920183,822.4003911501854,758.0909746028178
1731652646.1996922,858.8210975381618,818.575939327136,831.2631880637385,788.2517761178475
1731652646.202679,857.4034199855051,820.7810516035771,839.4005732919967,808.4018029829296
1731652646.2058043,831.2994902794132,823.8668613386058,844.5255430051348,805.1191649947028
1731652646.206578,794.032050142603,825.7071361003581,845.8596678918698,781.8945350862381
1731652646.210477,770.0563756538038,824.1949042167143,844.0297712762555,755.6395986775248
1731652646.2116964,775.1323689315685,818.7119209859316,840.4589740097416,743.182801299726
1731652646.2143762,802.6334580840329,810.9037303872101,836.6967662443566,748.6805975799712
1731652646.2182753,828.5912358131578,803.9841754739547,833.8376934252942,761.7638641101502
1731652646.2185383,831.6888483387366,800.8948330248788,832.0989932971262,767.4015256877865
1731652646.2221744,811.0830652196987,802.6286884829403,830.7466541997019,758.9963513168358
1731652646.2260735,786.6821580533286,807.9215155450199,828.5308058255846,743.8037372688264
1731652646.2272737,781.727850959323,814.3768885937054,824.4982390629377,736.3681816420133
1731652646.2299726,802.7077337870878,820.0002210783986,818.743633079662,745.7327882858979
1731652646.233872,833.5902102410823,824.0268288892044,812.6318053706182,767.2386285066767
1731652646.2373846,848.9626268815985,826.7295341888623,808.3059040452104,785.753412205557
1731652646.237771,834.957000618425,828.6945344604412,807.6914924223179,787.7512940862028
1731652646.2407238,800.8250602073214,830.2142685442775,811.4783961808904,772.5529056436742
1731652646.24167,771.8789449543862,831.1001428385664,818.590948330146,753.6687409703437
1731652646.2428513,769.4662685245978,830.8789712865705,826.4541778408352,748.8661644967899
1731652646.2455692,793.9962657507914,829.2213845181249,832.0125150141143,766.4250340572509
1731652646.2494683,824.7813865894727,826.390458850708,833.0904578134297,798.298799199085
1731652646.2533674,837.0381745227925,823.3931554684052,829.4745530560447,825.7527449707077
1731652646.2562306,822.1811199657795,821.572197676954,823.1697116424103,833.1890851035516
1731652646.2572663,794.4573384676506,821.7681850837408,817.616295582621,819.2282064244715
1731652646.2584286,778.3196095425354,823.6481225872036,816.1159026186773,796.4464520834
1731652646.2611656,787.3879394163494,825.8114903449509,820.1600922226567,780.6160744658465
1731652646.2650647,812.9694534263162,826.6953473341509,828.5759435694775,778.7034824470928
1731652646.2689638,831.599690666405,825.6139369048005,838.1000072531485,785.1749512446801
1731652646.272863,824.7529479423703,823.1557782873333,845.1349058629683,788.6105621990935
1731652646.274006,794.1296935551028,820.7168819850901,847.598197266431,782.1519863192702
1731652646.2750769,760.3817281565424,819.6072370213666,845.7158848560979,768.9061779897194
1731652646.2756436,746.8281508752349,820.3548385014308,841.4444851880919,758.3286571796601
1731652646.276762,761.1952189126016,822.5294057421979,837.1556709151272,757.1881862536471
1731652646.280661,789.5771664774,825.0181460189671,834.4920632222801,762.9877683983931
1731652646.2845602,807.5004176082937,826.5162562342508,833.8897397497676,765.6858181820265
1731652646.2884593,799.7757104690297,826.0326346567597,834.7360975477477,756.743601090293
1731652646.2895834,773.3220770195704,823.2928903329349,835.8968565712322,738.0064189919394
1731652646.2923584,751.9583109343406,818.9438185982551,836.3376151644019,722.2117341521725
1731652646.293923,756.6855383768609,814.4401402755121,835.577610402884,723.4293612021141
1731652646.2962575,787.5567585078643,811.5279457603378,833.754475949661,744.6066946785668
1731652646.3001566,822.548907273226,811.4293470180469,831.2902398288758,772.8780648949769
1731652646.3040557,834.7974601876188,814.118934343851,828.4719017728175,787.6886213483076
1731652646.305161,814.0788467422401,818.201799172192,825.3637573221373,776.2602574862115
1731652646.3079548,774.9375281882627,821.6206007044703,822.1355376591802,744.3243321635063
1731652646.310563,745.1084136645189,822.8358023676743,819.4011498831359,713.1717153531126
1731652646.311854,743.9423536748754,821.6873991908661,818.0769100836808,704.6193779545353
1731652646.3127692,768.1387960110704,819.2962162817303,818.7524132323392,725.0867091782112
1731652646.315753,795.7754229064536,817.0854732702733,821.1273768378963,761.044073168134
1731652646.319652,804.994810357473,815.7263065959412,824.0837861017363,789.5862599087678
1731652646.3207383,792.1327663112239,814.8515764377728,826.3861548870674,796.0407111875436
1731652646.3235512,774.4533089835213,813.6547494855502,827.4161834580258,784.6588462788136
1731652646.3274505,775.0732654187829,811.6969934802117,827.3560847604496,773.8390545944394
1731652646.3313494,802.4985637716856,809.1739354207112,826.8009465512807,780.0650983908246
1731652646.3316152,842.0040460568204,806.5493126179379,826.2570246987934,804.0540176794443
1731652646.3352485,866.366676597556,804.0897289054568,825.9162217626587,830.3775708134073
1731652646.336316,857.3504278910207,801.8002344777558,825.7282024357621,840.2563261292698
1731652646.3391476,820.5628621452906,799.7154583545166,825.5741148249805,826.5925668432834
1731652646.343047,781.8968343838759,798.1024160422629,825.3812647577918,799.2575757565428
1731652646.3454826,768.5058322113721,797.2838331554079,825.1426522723812,777.0927443708644
1731652646.3469458,789.0598664142059,797.2791446136265,824.8840243117617,773.5393023739385
1731652646.3504615,828.1319644778339,797.7357700211927,824.6291553265503,787.2342731339381
1731652646.3508449,858.5885548181338,798.3589881091236,824.3861250560733,804.5219808320722
1731652646.3518932,862.278900514294,799.4624879398814,824.151216631101,811.3508809530849
1731652646.354744,843.0929528755988,801.956371726319,823.9179595208844,804.6866099986895
1731652646.3586433,822.3131119055656,806.4954361705634,823.6827357729644,794.0843583353524
1731652646.3625422,820.1107700283437,812.3764433642244,823.4454068823711,792.2784787081567
1731652646.3664412,838.3595385009199,817.2699709711596,823.2074090389157,803.0300509909345
1731652646.3674707,859.1239995545288,818.3755281423231,822.9699505275729,816.9656120587349
1731652646.3693075,860.2659748236421,814.3941554882529,822.7333793536044,819.2994760751053
1731652646.3703403,835.1412705709159,806.8616919125185,822.4974487750351,803.005624994091
1731652646.3742394,799.6761317427723,799.6980543576875,822.2618025426402,776.210524306751
1731652646.3781383,780.5127563808611,797.1144235527845,822.0262513034065,757.3325261201808
1731652646.380402,793.7136080043255,801.2361130781934,821.7907871571304,761.5314007624216
1731652646.382038,831.4823924290454,810.9708876417159,821.5554779347108,789.0118511858298
1731652646.383048,867.8870669869076,822.7202864567299,821.3203769627858,824.3133911970016
1731652646.385937,879.0595850128957,832.3175434909524,821.0854948161532,847.3060054522155
1731652646.3881538,861.5254070773833,836.9618589358086,820.8508107908161,847.6095784709181
1731652646.389836,833.8157063974292,836.1431411427776,820.6162881751887,831.3018564283745
1731652646.3937352,820.227658724874,831.2725384805377,820.3818808302436,814.5932824489577
1731652646.3976345,830.4126505092974,824.4901058042568,820.1475446779905,809.6481959700681
1731652646.3986256,851.9587618818842,817.5366253921057,819.9132698417204,814.4654931894779
1731652646.4015334,862.0193670432874,811.3878486474982,819.679120087131,815.4382360547897
1731652646.4054325,847.688824860813,806.6268744424688,819.4452255892876,800.2160330554343
1731652646.4069998,817.4746720493355,803.8580056457478,819.2116699759797,769.5204433962533
1731652646.4093316,794.1818037653126,803.5195653645413,818.9782921764822,737.6790869125201
1731652646.413231,795.5397700264876,805.2344603768414,818.7445786491197,721.5193640649669
1731652646.4142027,819.0498907661886,807.5314154215285,818.5099244585423,726.9510677684731
1731652646.4153216,843.6506959976334,808.5708848826722,818.2743742810679,744.1589614663529
1731652646.4171298,846.7642055277574,807.5218030972618,818.0394030158031,755.2314079434875
1731652646.4210289,822.7593685635107,805.4273818878212,817.8076533678673,748.2311026952444
1731652646.424928,787.7423374758986,804.6432063242655,817.580627753926,726.6126982056811
1731652646.425846,766.6555256859257,807.1085499446629,817.3549756141807,706.3969929758572
1731652646.428827,773.1423377457556,812.7683082637164,817.120908943264,703.2212956650515
1731652646.4297805,798.7341317788431,819.4034866786235,816.8678692496367,719.7539107002951
1731652646.432726,820.3408549865491,823.9899951026897,816.598816855213,743.8406648521284
1731652646.4366252,819.8000153210784,824.521695370255,816.3437761231316,758.8129707901156
1731652646.4405243,799.1175875617481,821.015323936108,816.1518605443114,757.1542331814624
1731652646.4444234,778.6828066890286,815.2136894553355,816.0445208241316,746.110373136498
1731652646.444692,780.0220120782236,809.487652310155,815.9456086617434,740.9257813084572
1731652646.4453578,807.3634561889326,805.7881563914071,815.6563025424687,751.699238427575
1731652646.4483223,843.0059884397442,805.1302916921736,814.9620440182184,774.6871833025627
1731652646.450241,860.267232915889,807.542220969308,813.8640377097165,794.9187905675088
1731652646.4522216,843.9948171344593,812.2067176467059,812.7366707885421,797.9972165954919
1731652646.4561207,802.7618729905951,817.698290401801,812.1819590630395,781.8247806309898
1731652646.4600198,763.1044975985255,822.4056240162522,812.6716071324835,758.8207987843963
1731652646.4609354,749.8811601665469,825.12496423416,814.3508559427574,746.3413288952792
1731652646.4635384,767.7635006338908,825.5385611759344,817.148303210282,752.4994931990364
1731652646.4639187,798.353355642442,824.2420535384398,820.908264546657,768.9877210558759
1731652646.467818,815.3677204612065,822.2965382950651,825.2748697400717,777.5261417464633
1731652646.4717171,805.9200734181086,820.6398966118963,829.4567273809574,765.3944422392193
1731652646.4756162,780.762002656516,819.7286069557653,832.2361371961874,737.2822424620119
1731652646.476513,765.0743781207672,819.5291528645045,832.4098945930962,713.0077959787308
1731652646.4795153,777.27571120648,819.7399589675788,829.4821163619671,712.23090267063
1731652646.4823844,813.264196643114,820.0509069229971,824.1905814907437,738.368052978694
1731652646.4834144,849.1409596704568,820.2942108885024,818.4761002505863,774.9354925344193
1731652646.4851608,860.3334535271969,820.449216418495,814.7727936666172,797.6483750924335
1731652646.4873135,841.5370675599393,820.5652862572723,814.8881456515062,792.9586782424311
1731652646.4912126,811.0170821202553,820.689052176763,819.055974942405,768.4019502743454
1731652646.4920902,795.4924235398717,820.8362002790133,825.7494326229504,746.4031246940021
1731652646.4951117,807.9958222029504,820.9991175717686,832.4329985803556,746.3704645301801
1731652646.4990108,837.3074146484108,821.1648790179275,836.8170918446194,769.5106030059055
1731652646.5012307,858.0365572521293,821.3263441348173,837.8189036488766,798.6369780873281
1731652646.50291,852.8030144430969,821.4833271334146,835.6813419220985,812.7585197674154
1731652646.506809,827.4146354423613,821.6387591120713,831.3987810617796,804.0096711010281
1731652646.5076675,805.901723188751,821.7950923871495,826.1137462471439,783.0400102693591
1731652646.510708,809.6924677976795,821.9530545097633,820.9734552662044,769.1835857098669
1731652646.5146072,838.8254348291705,822.112190402903,817.2619590230843,774.2953948747289
1731652646.5185063,871.1402372933935,822.2718341840359,816.217108777918,793.5361174404319
1731652646.5200768,880.0035029500588,822.4316583558058,818.3118426275523,809.9165973375711
1731652646.5200803,855.8076857371717,822.5916981204499,822.5516123104226,808.3087541243058
1731652646.5224054,813.7710065531014,822.7521349030268,826.6189554420289,787.6964126395656
1731652646.523245,781.9152002118691,822.9131117611266,828.0737532749657,762.2454397830758
1731652646.5263045,778.9634900337701,823.0746780266795,825.8568522531967,750.4197964510216
1731652646.5302038,799.9121943028747,823.2368241299031,820.9881357420777,760.5526068412305
1731652646.534103,820.9626015225936,823.3995330533378,815.942709006734,784.2477301491945
1731652646.538002,819.8177521042688,823.5628059606812,813.174506464693,803.0307891135385
1731652646.5388224,794.547729641994,823.726660021529,813.7957077494938,802.9937095041845
1731652646.538923,765.2410178550066,823.8911162511806,817.186350550606,785.5309648309843
1731652646.541901,757.0445643412735,824.0561933840443,821.6312732803383,765.5171103921963
1731652646.5458002,778.8089257521552,824.2219118512924,825.4685830536521,758.7452922442942
1731652646.5496993,815.141383601514,824.3883001561882,827.9835835388784,769.2003908453643
1731652646.5535984,838.4308329379899,824.5553907288507,829.4945447745246,786.5683507641776
1731652646.5544,830.9938496061839,824.7231984102987,830.6715223248189,795.7265474566617
1731652646.5549998,799.4019176563379,824.8916935977303,831.71998979674,790.0707471158732
1731652646.5574975,769.4765483734577,825.0608045933124,832.1310406745857,777.3955077006906
1731652646.5577693,765.8457699905366,825.2304849255726,831.1558078901674,773.1581078296233
1731652646.5613966,792.1819138369654,825.4008332093034,828.5337252736426,786.5330521829543
1731652646.5652957,827.9373988149679,825.5721601954516,824.8812606266146,811.2015973719341
1731652646.5691948,844.6113626892144,825.744835165629,821.5266851781699,829.4900652543166
1731652646.5699773,828.8648395810062,825.9188423486777,819.9650663099392,827.2052787132153
1731652646.573094,793.716473148616,826.0933077448802,821.1911951839112,806.6022776886437
1731652646.576615,768.2892020276869,826.2666451105965,825.1227102895432,785.642585271643
1731652646.576993,774.1758369236261,826.4379303083304,830.4012954405825,783.329784662236
1731652646.580892,807.7491696376593,826.609135759865,834.8922934038557,803.3464263701605
1731652646.5847912,842.9198354938002,826.7861182871093,836.8341623961212,830.0813020261395
1731652646.5855548,851.9804493830418,826.9752723886719,835.9442860663219,840.6398511113458
1731652646.5886903,827.5413447793459,827.1749694813848,833.569740937526,822.9886839364694
1731652646.589919,788.1218891283212,827.3673276921135,831.6368273854638,785.5868494414584
1731652646.5925894,763.4164383860398,827.5227654584996,831.1965490972876,751.1237472484273
1731652646.5954614,771.2437274900257,827.627833070381,831.7593382426821,739.6118987154161
1731652646.5964885,804.2794306412869,827.7272209513618,831.9424004962137,753.989421643215
1731652646.6003876,836.7142651406281,827.9391549178757,830.8405133277396,779.0679801697632
1731652646.6011322,845.2908615780739,828.3910219536637,828.95364891996,794.2705105225589
1731652646.604287,827.7304977104764,829.0769150874413,827.8918048401478,789.8816139772355
1731652646.6081858,803.5628996842864,829.7470459757762,829.0732882827601,773.7222729100585
1731652646.6120849,796.7956875606833,829.9537086025504,832.4667685235444,762.9751521388823
1731652646.6143076,815.0882728552093,829.2340866853124,836.4388183921301,768.3908072685347
1731652646.615984,843.0816693637099,827.3267420386373,838.8779663007257,784.662808026205
1731652646.6167097,855.5084242466072,824.3860597355042,838.6709268445317,795.3520689863577
1731652646.6198833,838.980939490035,821.0999595540504,836.3076040305571,787.9598827469889
1731652646.6237822,804.1395422271142,818.4377943698686,833.2150796292269,765.8697824490299
1731652646.6248388,777.9318095746914,816.9201888256922,830.5688674335588,746.5910318974409
1731652646.6276813,782.1845256891074,815.8798164183294,828.6643085059272,747.4807560270141
1731652646.6315804,815.8464867614106,813.5341184782723,827.2096939088032,770.7942390007539
1731652646.632287,855.3916467358772,808.2373134772839,825.996702579832,800.7076993585422
1731652646.6331537,873.3024279100705,800.2246875170512,825.2388775992549,815.3472121687531
1731652646.6354797,859.8860496753238,792.4062817862226,825.4097676086666,804.5208514074849
1731652646.6393783,830.6711038170163,789.1575550533215,826.8881164777723,778.6210366484704
1731652646.6432776,813.1256494888067,793.5619187478494,829.6669811722787,760.7010883314123
1731652646.6471767,823.5416632812883,805.0382353667901,833.131607317808,767.5094655965432
1731652646.6478646,853.3849009667327,819.2992949890975,835.9547770661113,795.082244276919
1731652646.6510758,876.5656611919983,830.8487764089883,836.4011252839629,821.3410161246428
1731652646.652,871.3846435856318,836.1574474959045,833.2246545257477,823.926783074205
1731652646.6549747,838.6593086688291,835.1575715108052,826.7260885152654,798.4463177265449
1731652646.658874,801.1108454637687,830.2258226863286,819.027756772442,762.0037519399021
1731652646.6597583,784.9198781424723,823.9404036790054,812.9938325641367,739.4442002783475
1731652646.6627731,798.8489136618871,817.6640055402382,810.4189533587231,743.9606318410447
1731652646.663442,827.8485638799082,811.8514108621802,810.9921183868063,767.658593501479
1731652646.6666722,845.9878586267496,807.1733949395662,812.9311140881839,788.8663675752534
1731652646.670571,837.8941748063537,804.8925313044937,814.533693900366,789.4732527449638
1731652646.670846,811.129031930065,805.9745088049553,815.158547626426,768.3262144190014
1731652646.6744704,789.4228242725975,809.9493140338933,815.0857627124326,740.756584221237
1731652646.6783695,792.4521832658137,814.8815195557714,814.8535650118862,725.6252137720521
1731652646.6790197,818.9938320911784,818.6505719191761,814.7868971669185,730.7009021528685
1731652646.6822689,847.4965114980172,820.3981302901192,814.9199156984723,747.6924807544716
1731652646.686168,853.6327222428858,820.8877908829687,815.141724653699,760.0559815833271
1731652646.6896925,830.3651076870489,821.6240733577206,815.34878870922,756.6367175422716
1731652646.6900673,794.1342123065464,823.6368912731882,815.5055652805985,740.1497183886536
1731652646.6939662,772.2224061335652,826.8688001460464,815.6279908302353,724.1945753838693
1731652646.6945968,781.4373184738994,830.3390399418575,815.7441877155378,721.7239774236272
1731652646.694678,814.898954256525,832.6385881982588,815.8699514477377,734.303122064583
1731652646.6978652,847.2031081124221,832.3636555527905,816.0059137427609,750.5720936847797
1731652646.7017643,854.0154462222838,828.5142111787432,816.1457970630361,755.200786179796
1731652646.7056634,830.9562491716932,821.038133261016,816.284279563651,741.5670374119893
1731652646.7085383,796.8691739983263,811.3675859006747,816.4197786300853,718.1356991612673
1731652646.7095623,778.5323135387044,802.3712613340239,816.5533112522061,702.8133483387554
1731652646.7101743,788.8216916739715,797.2413994562527,816.6863802361377,708.8976149882674
1731652646.7134616,816.1835090984443,797.6303044465175,816.8197622211445,733.63704522766
1731652646.7173607,834.3835290425301,802.2725258230465,816.9534401282673,759.2639113767752
1731652646.7212598,824.6072407244967,807.3973756344391,817.0870694174193,766.545120289763
1731652646.7251587,791.4229285439612,809.036403719636,817.2203829945724,750.1821768516502
1731652646.7257516,759.2764418151841,805.7132679777557,817.3533184728286,723.2695247503264
1731652646.7273846,752.6345659475126,799.491421253119,817.4859485537899,706.8527627050855
1731652646.729058,776.3688360460823,794.5705669470833,817.618369980194,713.0161514970273
1731652646.7295976,812.3604502075322,794.5179845095099,817.7506388987607,735.3535067545554
1731652646.7329571,834.7525964506581,800.1269345641684,817.8827575867122,754.6762867754289
1731652646.7368562,831.0529022916683,809.1855519201252,818.0146867684003,755.2921410266695
1731652646.740755,811.4977017008783,817.9580420487516,818.1463731503276,738.2500866228021
1731652646.7413292,798.7806946636038,823.1997958392637,818.2777997244467,720.1651021556881
1731652646.7446544,806.975652695456,823.5728936754612,818.4090493111273,718.3761730562738
1731652646.7462306,828.2029404155954,819.9689743673233,818.5403216330484,735.2605342749033
1731652646.7485535,839.2307134264963,814.8171310437334,818.6718152488959,755.6911534623645
1731652646.7524526,822.6436803394317,810.7596728551259,818.8034584313276,760.2332937427154
1731652646.7563517,783.9785835880555,809.3051301084478,818.9346741003676,742.6172952960842
1731652646.7569065,749.4408124784886,810.1892042409012,819.0645646343274,716.0477168576506
1731652646.7602508,745.6519607725022,811.8588713226845,819.1928064654754,702.6745158104375
1731652646.76415,778.2051605248066,812.7316619034405,819.3208972533865,715.1610323362104
1731652646.7645173,826.5192862740486,812.2882234112094,819.4524109776642,745.836240672033
1731652646.7650769,858.9571483836864,811.229386786359,819.5905737585839,772.3256753483771
1731652646.768049,856.2930498961016,810.7178126353728,819.7331293952088,775.0821288519695
1731652646.771948,825.6020184360304,811.4152429935509,819.8683617314807,752.914042697925
1731652646.772484,794.1636894653137,813.0856854231353,819.9795868547861,724.2587506193722
1731652646.7758472,788.0635193127521,814.9867357640513,820.0628088768466,712.9898643598216
1731652646.7797463,811.8781434825629,816.5773952929045,820.1492996728211,729.7028570303772
1731652646.7836454,845.2948225339558,817.8272158151078,820.3067010606444,763.3340916515921
1731652646.783923,859.524985234228,818.8903229831885,820.588220190928,790.0544177489041
1731652646.7875445,840.6471583997627,819.6544421084353,820.9338819217775,792.4549607125043
1731652646.7880614,801.258716288927,819.8295014258775,821.1006068488582,773.5009581652223
1731652646.7914436,771.0591430166699,819.548740098785,820.7512095013071,753.9756595630945
1731652646.7953427,773.8364489390024,819.7182288848986,819.7536403843841,755.7012684098719
1731652646.7992418,809.0453544951131,821.5087425893497,818.4969842640355,784.2157805159019
1731652646.7994366,852.2836895237471,825.3180774917904,817.865290688448,824.5186567024208
1731652646.8027692,874.0429439582288,830.1782066907062,818.7371534533768,852.7086990536667
1731652646.8031409,862.0807707158277,834.217179099377,821.3341689667191,854.0186191554869
1731652646.8036387,830.1589526260447,835.8309574910094,824.9345623259535,833.3021485401761
1731652646.80704,806.3804429782126,834.6556317756716,828.2382257526554,810.1869412887874
1731652646.8109393,810.2298422685368,831.696041888123,830.187013473031,802.9821236080394
1731652646.8148382,836.7478066850751,828.6491936463416,830.6079862847039,814.2226319478237
1731652646.8187373,861.0707186581127,826.9205675961356,830.137205977138,829.5330704118227
1731652646.8192165,859.8970330650651,826.8699243143751,829.5784298209779,830.7011245545307
1731652646.8216152,831.8067428780051,827.6537587024585,829.358748789017,811.983064130664
1731652646.8226364,798.8744717160677,827.7962426368556,829.4653736227195,785.847863527647
1731652646.8265357,787.9507603682582,826.2344183883478,829.6940675810997,773.2205805734577
1731652646.8304348,807.6018454304001,823.1307764408359,829.8825518826808,786.2518551750176
1731652646.834334,840.4942465672066,819.7398247557037,829.9868877623248,817.7368244778264
1731652646.834356,857.7418156296897,817.3983778205908,830.0411041885263,845.7313375745588
1731652646.8347938,843.0713633363126,816.5873937699463,830.0913683633472,849.7107638024461
1731652646.838233,806.5303404420605,816.8647554986416,830.1601841631285,825.7663082597492
1731652646.8404615,776.3069687118605,817.4785312595474,830.2458144966564,789.3671036386174
1731652646.842132,775.3674941595866,817.933732427569,830.3371875245144,763.7581179175054
1731652646.8460312,802.2357239895912,818.1291769075834,830.426138762892,762.8479157178635
1731652646.8499303,832.1178487627452,818.1877428527862,830.5108570107877,781.6580280918042
1731652646.8503711,837.8631106211159,818.2490926827431,830.5933957019618,801.7206657115395
1731652646.8538294,813.3951385377535,818.3719414266055,830.6761881199651,807.0422729719161
1731652646.8577285,779.6748660730143,818.5432283880347,830.7603116905814,797.5302358065911
1731652646.8593075,767.7342113800656,818.7271022082667,830.8455886217926,788.6353681723265
1731652646.8616276,792.6611968291706,818.9002794304906,830.9314132691779,797.3502928998823
1731652646.865527,840.0426543755694,819.0594100314299,831.0173753538817,826.2315061022314
1731652646.865949,876.0920664490209,819.2117947055165,831.1034061460078,859.0742271361128
1731652646.8692756,873.528269963784,819.3647419735955,831.1896274210127,872.5414988347012
1731652646.8694258,832.8409258286872,819.5209893241115,831.2761651636966,854.8874227428537
1731652646.8733249,782.2751782403471,819.6795915305746,831.3630629731689,816.4911296416476
1731652646.877224,756.4578478732873,819.8386037385887,831.450293878128,782.8389374087424
1731652646.8781538,770.3013375088062,819.9968591687934,831.5378133843236,774.8277809621709
1731652646.8811233,808.6746687915727,820.1542462319445,831.6256055519349,792.3618228376483
1731652646.881526,839.8835115734378,820.3111669680072,831.7136984221594,815.1959661204231
1731652646.8850222,841.7955378880353,820.4679825097844,831.8021390906805,820.6173805131777
1731652646.8889213,819.160687843426,820.6248016994962,831.8909315214037,802.963714457104
1731652646.8928204,798.1531552516786,820.7815522561569,831.9799715439003,778.2505726232943
1731652646.8967197,803.274157077079,820.9381293019626,832.0690557776743,770.1146412230707
1731652646.8969998,836.2277840979441,821.0944781351348,832.1580411082791,789.3444310418625
1731652646.8971035,874.1178559612171,821.2505845400867,832.2471218136197,824.3489115364396
1731652646.9006186,887.9233088029291,821.4064224740489,832.3369805694658,850.2044549506265
1731652646.9041953,865.8629156338931,821.5619284385499,832.4284292941428,848.465341207647
1731652646.9045177,822.9094327060418,821.7170472089407,832.5213861413505,821.5926731788577
1731652646.9084167,789.1231763883037,821.8718331897375,832.6137947437686,790.6379176024781
1731652646.9123158,786.214664930102,822.026510539136,832.7019794571544,778.2592244030195
1731652646.9126809,810.9308886499372,822.1813500975973,832.7838246781831,790.6898280518681
1731652646.915846,838.492828405922,822.3363091549675,832.8639026465539,813.1043654707006
1731652646.9162147,843.4040908471146,822.4906512477556,832.9556801445619,822.2205602825734
1731652646.920114,820.8468808153004,822.6430743942173,833.0737206283428,806.0609546222718
1731652646.9240131,791.0342267296496,822.7928341051423,833.2139435920913,774.6811712335146
1731652646.9279122,782.5414203286194,822.9415459410687,833.3347875502104,752.6777599297881
1731652646.9282584,808.0242036271964,823.0939475152958,833.3678340378659,759.1509239119994
1731652646.931811,852.3887369579786,823.2551317633373,833.2814541947458,791.3722909672758
1731652646.934692,883.5863172416199,823.423592270125,833.1750594589274,825.7351903351218
1731652646.9357104,877.8082506027982,823.5846331600212,833.3068279550835,835.6582981631341
1731652646.9391148,838.9561148986216,823.7141997206702,833.9241568479235,812.3049218055105
1731652646.9396095,796.4054642940557,823.8013613357708,834.8748604294467,771.4724762088432
1731652646.9435086,782.1337662290852,823.881434694766,835.2543191616116,740.9368912855114
1731652646.9438355,805.0583337152289,824.0454907359465,833.5819392295848,738.3431277495501
1731652646.9474075,843.4615433696366,824.380419882623,828.7684862741247,757.6628846256241
1731652646.9513068,862.3824934675805,824.8324813005704,821.3194023393496,775.4141046031704
1731652646.9535384,842.3591931929504,825.0847806924595,813.6097436714548,771.3827632844835
1731652646.955206,795.8612152919837,824.6255377012071,808.6519671622608,746.1982713751598
1731652646.959105,757.4130593422701,823.1003107031879,808.2098720688866,720.6848150688339
1731652646.9594133,755.3551136996659,820.7195890193361,811.8261940707873,717.6087406008475
1731652646.963004,788.7633357281214,818.2717839088654,817.4897542494969,741.6732519660262
1731652646.9669032,828.6483803845248,816.6197437340925,823.1809776166347,774.9637575399908
1731652646.9708023,842.0164881370615,816.1299576362051,827.9088716321181,791.4984029518332
1731652646.9723845,818.5034318422539,816.5105010224357,831.5548476826928,778.2807724250641
1731652646.9740343,777.8339645628554,817.0302447441154,834.0198561358783,745.3239225614527
1731652646.9747014,752.6798828266726,816.8047610601341,834.6983923066898,716.9570162963788
1731652646.9749906,761.527493062389,815.0373928165747,832.8159814932661,712.2001461572679
1731652646.9786007,793.8773988244466,811.3515173570411,828.2495896733461,730.3053871949616
1731652646.9824998,819.7651292640111,806.2295449304676,821.9880547308223,752.7179039621192
1731652646.9863987,815.511152051911,801.2230000791318,815.7615316178411,759.2070942105989
1731652646.990298,783.9708416934342,798.4961429182106,811.1490938276296,744.6177577472287
1731652646.9905682,752.0375492531754,799.6670996938735,808.8879139435844,722.5492961265811
1731652646.9912307,747.5144924119438,804.561826940974,808.8152526744097,713.2890420439836
1731652646.9941971,775.1551549722493,810.849419613453,810.2707590239368,726.3094193923445
1731652646.9980962,812.2207319928083,815.1492648860828,812.5065271021747,751.8588073194164
1731652647.001995,827.0881504150134,815.1496028211816,814.870786693141,768.4714056343391
1731652647.0058944,805.1741772498036,811.2835368231134,816.8633376561154,760.2943580408954
1731652647.0061457,760.9824084722496,806.5602210252455,818.2056880356483,730.466120015691
1731652647.0089538,727.0317472606007,804.4884050188708,818.8772074811703,700.0328576086516
1731652647.0097935,728.9270221841581,806.6188967633881,818.9928863723237,692.9761212383802
1731652647.0100768,766.072057257749,811.6075545301017,818.5831703191091,718.3165401435866
1731652647.0136926,812.5937401515753,816.4511998555362,817.524728583075,762.6295023489587
1731652647.0175917,837.4918537753603,818.7713722325921,815.7572830391999,799.0563627622348
1731652647.0214908,828.3390287659413,818.2722616704514,813.5829512727971,806.753223752976
1731652647.021723,799.9009460756715,816.3700285196206,811.6856587971057,786.2678085622114
1731652647.02539,780.7442092085156,814.6223854129171,810.7624996804036,758.6411046893231
1731652647.028923,788.7695627845595,813.497754662456,811.0674084595823,748.4929598372893
1731652647.029289,816.0514903762011,812.4702325700548,812.2723625540087,764.4924221943793
1731652647.033188,835.8359420173335,811.0586723875471,813.7516416238134,793.1748740377095
1731652647.0370872,825.8990899321013,809.602408915161,815.0387567647483,811.1578109867593
1731652647.0373003,788.5445816237576,809.0004991023419,816.126967559572,805.354659167759
1731652647.0409863,750.2803424306486,809.7681875324337,817.448230049935,784.1267259203058
1731652647.0438733,741.182793024443,811.416055796511,819.5531099698875,770.2028058944492
1731652647.0448854,770.6832527448751,812.7757286112263,822.6480830594011,781.6082186313206
1731652647.0477693,819.3943246289842,812.9702422763391,826.2597039968059,816.5882294108378
1731652647.0487845,853.8136307820502,812.1616039434772,829.3124296511343,854.8583724867215
1731652647.0526836,852.5916348804312,811.4485185810704,830.6892503465998,873.9843239566194
1731652647.052878,823.5033762552649,812.0303200500331,829.9555525391835,867.3166569261662
1731652647.0565827,797.0029428974872,814.323575408242,827.693869896367,848.5307367601524
1731652647.0604818,800.8452563705055,817.680598463645,825.1131784159056,838.7912665269564
1731652647.064381,836.2852662803563,820.8469172065984,823.1784667540694,847.2881803250029
1731652647.066615,875.9900825233683,822.7869238015445,821.9793231927725,862.0588746834184
1731652647.06828,886.186726174044,823.3333681670862,820.9290695098889,859.7729688878303
1731652647.0684552,855.0963071220859,823.2589476516634,819.6486228065918,826.8799317397777
1731652647.0721793,803.9943067203776,823.6879544373127,818.6638828230265,774.0652620542897
1731652647.0760782,771.4080045488599,825.1794070545592,819.099017354365,730.7797045535458
1731652647.0787928,783.0586804604286,827.1419029626057,821.4879846211239,723.143870736408
1731652647.0799773,831.7265074237727,828.1384377145928,824.8136378493837,752.8876406203083
1731652647.0838764,883.0116986918154,826.9744010186826,826.8599637249301,794.8137529999145
1731652647.0840328,902.1168233617678,823.7146361018878,825.7945742477762,815.4884156976465
1731652647.0854614,880.2359627897421,819.7238514536294,821.6681949310624,798.6501241683981
1731652647.0877757,839.8202375589183,816.6622213953791,816.4851316019993,757.2507981946179
1731652647.0916746,815.009250620337,815.3236532436388,812.7640824395623,722.5703249810826
1731652647.0955737,823.375137115127,815.2976581747441,811.8515627158424,719.1220466849862
1731652647.0994728,852.0934277656169,815.5904641558124,813.3656165558732,745.5504379456578
1731652647.09961,869.8661713849925,815.491761580828,815.9899212722875,776.9281625428116
1731652647.103372,854.576084204785,814.9672669001558,818.6398428325361,786.2786475698617
1731652647.1043077,813.3410073243786,814.501507169169,820.9481523595471,767.195437083691
1731652647.107271,777.7730338255691,814.7610098227143,822.9445536489037,738.6279171643569
1731652647.11117,777.9185861731066,816.3107683525072,824.5908895881669,728.0214860394839
1731652647.1137123,816.3309294197757,819.3203923611517,825.7097701697502,747.2313724731167
1731652647.1150692,864.0746009251701,823.2388650900309,826.1898765130105,781.6791017822991
1731652647.1151876,882.8065162459582,826.6997882594254,826.0506299613526,802.1403323043932
1731652647.1189682,855.6299048505866,827.9686500001606,825.2680203538472,789.5439285179652
1731652647.122867,801.5903121304505,825.865611094399,823.6562543921905,751.9424538327532
1731652647.1231537,761.3255035057009,820.6134484354454,821.0283170169205,718.9204755983047
1731652647.1267664,764.8424040163059,813.9596526492425,817.475242876785,717.492487582906
1731652647.1306658,807.5154302910215,808.3747216311316,813.4615492096336,749.4267235850741
1731652647.130765,854.1086013421458,805.8090506741077,809.6954110436764,789.1845465577693
1731652647.1345649,867.6143321997921,806.829341981614,806.975451371784,804.5162996875251
1731652647.138464,839.1878815515086,810.634938863826,806.0850210398437,782.7405455096012
1731652647.142,794.7544201137944,815.7389974581097,807.5526665942513,741.1017102875679
1731652647.1423633,773.3188637900639,820.6471891874971,811.2109167811113,712.9900877249804
1731652647.1462622,795.0207068762627,824.1048808476806,815.912631932659,721.4798609832947
1731652647.1463425,844.7357104035221,825.1241941735495,819.896444381696,761.3433221063889
1731652647.148632,884.048006264256,823.2803305556415,821.7880823686845,803.3729826959573
1731652647.1501613,881.752148294184,819.2898519768472,821.5385216619243,817.1720610553305
1731652647.1540604,838.5180512498347,815.187499746232,820.4939624306394,794.4407411660912
1731652647.1579597,786.062831075001,813.4461433947021,820.4515274234307,754.6669612838615
1731652647.160846,761.5557365575876,815.3360253204829,822.3816075323783,728.9676273181225
1731652647.1618586,778.080909064762,819.7651559357091,825.7523053991254,735.0902554568245
1731652647.1619198,815.3279536344655,823.715297561723,828.9052050010497,763.7025767477484
1731652647.1657577,837.9898531219856,824.1893224866153,830.1749162478902,787.0119526561022
1731652647.1696568,826.247582652752,820.359295958408,828.9958381003042,782.5007738048782
1731652647.173556,792.7040020369176,814.3565723930643,826.3093825558725,752.1340861997359
1731652647.1774547,771.6909925570816,810.0375779689437,824.0207352133452,721.231361236132
1731652647.1774974,790.0176018596342,810.4636913496604,823.7980038090795,718.0136726220998
1731652647.1796925,843.3989487485263,815.8084522441521,825.9205321285204,750.4800960700471
1731652647.181354,897.9229551866775,823.2181124836774,828.9445062917708,799.1355504513227
1731652647.1835515,915.7198802528258,828.7931681924089,830.5355006365046,831.382290633085
1731652647.1852531,884.7176989962404,830.2426535489664,829.05867219418,826.4550462332722
1731652647.1891522,828.7134371405537,828.1953538825273,824.8775204814239,791.4160775802507
1731652647.193051,789.0430158179571,825.2347778214717,820.3357135457296,755.3070572735205
1731652647.1930747,791.9399003805581,823.6249505945009,818.2504561187187,745.6775873944234
1731652647.1969504,828.0952930535351,823.7176290354442,819.911210974538,766.3340990434149
1731652647.1985383,861.6381012267952,824.2377680594145,824.1144757783195,794.8477765988259
1731652647.2008495,861.2807459749865,823.8548945839325,828.0838515327888,802.2534110362506
1731652647.2047486,827.3310544179338,822.4123734510802,829.6213347831695,778.4831488820715
1731652647.2086475,791.5898515144324,820.7800362328454,828.7404292646779,741.8485842193712
1731652647.2086525,790.3419957648523,819.7481948524945,827.4029784713099,724.3497328378991
1731652647.2125468,833.4286767344389,819.2187623563145,827.62437800965,745.1791081061785
1731652647.216446,895.0606753287874,818.4730165731125,829.6649444174004,794.5300885154863
1731652647.2173846,933.2568253262195,817.1235549616706,831.9061067997192,840.737032009852
1731652647.2184713,921.641617824805,815.6923416564277,832.4306705891701,854.5040764517248
1731652647.220345,868.7076646444807,815.204888211931,830.8008947857828,830.8053723064738
1731652647.2242296,810.5970884325458,816.2367156817679,828.4493179602567,791.6598224513567
1731652647.224244,783.8979068488555,818.4055129965374,827.4293285443474,768.2330220248205
1731652647.2281432,799.5148329818988,820.8018047048953,828.7100783465149,776.6806900735234
1731652647.2320423,837.1800917431553,822.8294871771416,831.4641049887814,806.7947440447219
1731652647.2359414,863.677284069412,824.4992600861191,833.7863572711694,831.9185778023486
1731652647.2362306,858.876490576433,825.8814680094167,834.0677269062726,830.9079927662438
1731652647.2398071,828.120219951584,826.450988469814,831.9253986422104,803.2755013781377
1731652647.2398405,792.8364260962773,825.2423912060844,828.2236521308905,766.0106749504065
1731652647.2437396,771.122726807258,821.8006383148744,824.4637709930744,737.8161511692922
1731652647.2476387,766.5962245489112,816.9181248468498,822.0305579067434,726.3144940995444
1731652647.2515378,771.796147449821,812.2884973013237,821.6014255528237,727.3498105391495
1731652647.2533906,777.868872768123,809.3558345259545,822.8957180980942,732.5186360296576
1731652647.255077,780.5621277782667,808.4525808329854,824.9067034120976,736.0372594981059
1731652647.2553844,780.1925055452576,808.9044287678229,826.5445770441,736.5846733214586
1731652647.255437,778.8212138848353,809.7685407811018,827.2630764395451,735.4934539983877
1731652647.259336,777.964514547575,810.450160815138,827.2033090397717,734.3749610649022
1731652647.263235,777.9548163550902,810.8300854433746,826.8416420521978,733.9441787377394
1731652647.2671342,778.407295900714,811.053155050947,826.5577051474608,734.0811203747809
1731652647.270962,778.8691096315474,811.28238451731,826.4643236410468,734.3810304591078
1731652647.2710333,779.141104358551,811.5851853372437,826.4907254613184,734.5694890468856
1731652647.2739227,779.2576357938156,811.945256281931,826.5319647995891,734.5996189585359
1731652647.2749324,779.3320084006994,812.3203447311797,826.5341565712928,734.5517658961468
1731652647.2788315,779.4407187528706,812.6834007601758,826.4990956894925,734.5109113203603
1731652647.2827308,779.5967023439309,813.0308030893116,826.4514151722827,734.5110949382921
1731652647.2865393,779.7775512932101,813.3712673421334,826.4101877353369,734.5433609973303
1731652647.28663,779.9597281745484,813.7133736035184,826.3801895094176,734.5860418368175
1731652647.28831,780.1339791215373,814.0602911225074,826.3570763114169,734.6257198106521
1731652647.290529,780.303035297447,814.4108918536463,826.3353064011233,734.6610846411496
1731652647.2927692,780.4731376672761,814.7629139939597,826.3122936088147,734.6970285086599
1731652647.294428,780.6482024924485,815.1150298301851,826.2883452448564,734.7382345982653
1731652647.2983272,780.8287675233342,815.4671505059748,826.2648270222609,734.7865539675462
1731652647.3021169,781.0136515938607,815.8197825978234,826.2427125616051,734.8416497126243
1731652647.3022263,781.2017435641292,816.1733793700727,826.2222045952814,734.9026429296971
1731652647.3061254,781.392728924677,816.5280953408527,826.2030535722416,734.9691606556611
1731652647.3100245,781.586905431086,816.8838675288881,826.1849769037746,735.0414717239786
1731652647.3116152,781.7847220661438,817.2405857333017,826.1678592536671,735.1201454934966
1731652647.3139236,781.9864873555749,817.5981935892102,826.1517331924359,735.2057188176418
1731652647.3176942,782.1923338165101,817.9566961033158,826.1366774250874,735.2985751417502
1731652647.3178227,782.4023162460772,818.3161236635767,826.1227438506038,735.3989909168791
1731652647.3217218,782.6165064322641,818.6765038570406,826.1099441006288,735.5072247338015
1731652647.3232298,782.8350241123729,819.0378585833989,826.098271327781,735.6235672150376
1731652647.325621,783.0580147299772,819.4002125771433,826.0877224020553,735.7483395742504
1731652647.32952,783.2856131382063,819.7635890544875,826.0783013405005,735.881869114753
1731652647.3304615,783.5179293719933,820.1279821661038,826.0700056566353,736.0244740439649
1731652647.3332715,783.7550747224649,820.4933274942081,826.0628128364228,736.1764733387746
1731652647.333419,783.9972171931206,820.8595203261615,826.0566893213554,736.3382135409756
1731652647.3373182,784.2446169316964,821.226520969838,826.0516322513606,736.5100820710304
1731652647.3412173,784.4975686033429,821.5945073918509,826.0477203828727,736.6924700084718
1731652647.3451164,784.7562183219757,821.9639133277782,826.045110033503,736.8856773146256
1731652647.3488493,785.0203584593297,822.3351432291025,826.0439099131244,737.089826358684
1731652647.3490157,785.2894689175226,822.7079498593013,826.0439578486079,737.3049212570519
1731652647.3493075,785.5632698584457,823.0809324726984,826.0446948373494,737.5311586662672
1731652647.3529146,785.84265930894,823.452045500055,826.0454487049827,737.7693699662193
1731652647.3568137,786.1301826611942,823.8207188272529,826.0462580036899,738.0211252438319
1731652647.3581493,786.4287306900276,824.1906450996833,826.0487547633488,738.2878989187384
1731652647.3607128,786.738008993261,824.5700667248822,826.0559007450034,738.5692650588546
1731652647.3644266,787.0509548541639,824.965828153167,826.0694395527418,738.8614584673904
1731652647.364612,787.355240274979,825.3715677682804,826.0857377800181,739.1588780534402
1731652647.3681538,787.6444228267728,825.7594368721917,826.0939215282324,739.4602495273425
1731652647.368511,787.9353321501068,826.0920505988317,826.0820546737576,739.7766689324791
1731652647.37241,788.2746887773868,826.3640990344369,826.0530222725193,740.1323286535807
1731652647.3763092,788.7110489693365,826.6523598287748,826.0398330755372,740.5471631132305
1731652647.380004,789.2268608081757,827.1122028715986,826.097108161625,741.0026575419779
1731652647.3802085,789.6764813719533,827.8536073436012,826.2488702824403,741.4181887785952
1731652647.3841074,789.828148762153,828.713768703369,826.408507356613,741.686263998371
1731652647.3869998,789.5867400491181,829.1094505575176,826.3440209960717,741.7935672077681
1731652647.3880064,789.3131462551045,828.2414272197215,825.7796903093117,741.9656957115882
1731652647.3919055,789.9036474235111,825.6885457966619,824.6249863678102,742.6566716529717
1731652647.3930688,792.1939660208517,821.9521795387016,823.1403422594635,744.1927563181246
1731652647.3955815,795.6536660675633,818.3744508205272,821.8219536318892,746.1303641866014
1731652647.3958046,797.3126368092536,816.3659829949479,821.0596445834318,746.8840369575348
1731652647.3997035,792.7424908517016,816.5151006351714,820.8938368471008,744.5291352669104
1731652647.4036028,780.2518555243118,818.2644156243788,821.0816533808776,739.1879195284445
1731652647.405846,766.0286751013737,820.3825499505299,821.3401422046901,735.6838342941185
1731652647.407502,763.7290443511356,821.8204136470409,821.5176903225522,743.1243824491976
1731652647.4111588,784.0173542668464,822.2592273701589,821.604686994332,768.5991175973037
1731652647.411401,821.0866081587433,822.0175903401497,821.6555718959004,807.8405861563292
1731652647.4153,851.7222336876371,821.5894833330392,821.7173215592383,842.5265436252795
1731652647.4191992,852.7809208857492,821.2811079519444,821.80402846043,851.3710944407883
1731652647.4230983,822.8447770866645,821.1422284192352,821.9067339916874,828.2977580269962
1731652647.4246922,786.9203806929579,821.0863548362854,822.0121268907466,790.8273668876587
1731652647.4267364,777.8534248421593,821.0241116211952,822.1133222330844,768.9295709302153
1731652647.4269977,809.4256734441975,820.9212518959591,822.2104862546163,782.4004048468481
1731652647.4279883,863.8540637219251,820.7887850500115,822.3067013360527,825.382675564898
1731652647.4308968,904.600174414537,820.6503378004564,822.404367155714,870.7531239916457
1731652647.434796,904.6989802050996,820.5202029326794,822.5040804043427,890.9195668582472
1731652647.438695,868.0747363849761,820.399723534585,822.6052796500662,878.6378547064991
1731652647.4423137,826.5755682000608,820.283825905457,822.707246022581,851.5939919227459
1731652647.442594,814.7769511613741,820.1678353580711,822.8096318043688,837.3435796117168
1731652647.4435384,842.6781372316494,820.0501557619933,822.9124560529915,850.7899597110502
1731652647.4464931,888.3611084091704,819.9314972614826,823.0158737582351,882.384773416295
1731652647.4503922,916.5045751222062,819.8131030160015,823.1199911486221,906.5890925324667
1731652647.454291,907.464210937458,819.695653810812,823.2248151192505,903.5668640699505
1731652647.4578912,873.0131011546786,819.5791485310641,823.3302915693984,876.1297790452669
1731652647.4581904,846.005066604457,819.4632786713953,823.4363599809961,847.8479227436952
1731652647.4620895,852.7748315107943,819.3477808909732,823.5429853831818,843.830828624816
1731652647.4623845,891.0396977143254,819.2325595378685,823.6501644739263,869.9144233873621
1731652647.4629078,931.2518832913602,819.1176338809112,823.7579135443549,907.2041964866097
1731652647.4659886,940.2722175465747,819.0030439564861,823.8662410702008,926.5384766609908
1731652647.4698875,908.3706099286867,818.8887990075432,823.9751102481471,911.5907245303958
1731652647.4734683,857.78341469124,818.774877069262,824.084417098813,872.3137401812891
1731652647.4737868,825.5459140013932,818.6612443749934,824.1940302678324,837.6573185069458
1731652647.477686,834.0385661363025,818.5478651893918,824.3039180751823,832.775735395353
1731652647.4812307,873.1575762741397,818.4346958640418,824.4142978612915,858.7898900273528
1731652647.481585,909.0404655996597,818.3216793907313,824.5256226659494,891.8137381904744
1731652647.485484,912.417319089851,818.2087631077476,824.6382091765992,902.5459622137967
1731652647.489046,883.0488781360276,818.0959436075493,824.7515711239226,880.545755738483
1731652647.4893832,849.8130076888384,817.9833028713256,824.8640356403134,843.0532892364221
1731652647.4932823,846.4336387409746,817.870966426829,824.9735753529212,820.9353020303292
1731652647.4971814,883.0882232084227,817.7589397936297,825.0802594113126,833.3353294858874
1731652647.4978275,937.1521307512843,817.6469007991228,825.1889081051789,871.8057395415196
1731652647.5000768,970.3852287175532,817.5341926677006,825.3083619482267,906.7542491376212
1731652647.5010805,958.7221193124586,817.4202949622136,825.4439357103246,910.9862427794204
1731652647.5046234,911.1445721316511,817.3057215781412,825.584983262229,881.5223595883299
1731652647.5049796,862.7061016256561,817.1926065121324,825.6991544869808,842.1236130765155
1731652647.5088787,846.9419912634966,817.0837113875398,825.7505395880098,824.1417348901787
1731652647.5127778,869.4724190249447,816.9792036141793,825.7469178055736,840.933132764924
1731652647.516677,904.2498265086003,816.8729306977727,825.7857436144939,876.9090329374885
1731652647.518923,915.7821151456046,816.7529359037001,826.0294542730408,900.6129797942401
1731652647.520201,889.0476806723199,816.6110842062621,826.5494936251939,891.017896900638
1731652647.520576,842.1437392634178,816.4598664331254,827.0832038433234,854.8170532052445
1731652647.524475,811.1221076525233,816.3414017136485,826.9154499107286,820.1313669887082
1731652647.5283742,819.7769319055994,816.3049747395427,825.1426708581279,812.26692266995
1731652647.5322733,859.5305666752209,816.3433223104706,821.3001938367466,832.3135905536495
1731652647.532747,895.8921925728746,816.3234156033901,815.9132900541343,856.5533325900517
1731652647.5357783,896.046567383779,815.9984348572908,810.4753038681854,856.799854197411
1731652647.5361724,855.204999852094,815.1708588664328,806.7638933649166,824.4263090614498
1731652647.5377693,800.6016554039326,813.9362360222535,805.8694013543713,778.1338887413432
1731652647.5400715,769.8707385564142,812.7782546764827,807.5522191922905,749.025165059994
1731652647.5439706,781.0394751614524,812.3458307028329,810.4549911437731,755.1529679584239
1731652647.5478697,818.5677273471174,813.0537225045626,813.143047626927,786.6298013961003
1731652647.5513558,847.270678634856,814.8712126452805,815.2149917251307,814.0711705229398
1731652647.5517688,842.720866388478,817.4786878895437,817.5314261438355,813.6753113868789
1731652647.555668,812.218455993251,820.5429256452262,821.2976961760053,787.7398828687761
1731652647.5566154,788.0586285374116,823.7244663451111,826.7555936814946,762.8799304562326
1731652647.559567,798.7170883722043,826.4231880671052,832.633827879824,767.1917883903311
1731652647.563466,842.7602995774581,827.7134971636162,836.8758138881732,805.605640365475
1731652647.5669332,887.9301005398785,826.77985492098,838.061826054866,854.1083372395586
1731652647.5673652,896.4370861484477,823.542513629067,836.356975604267,877.672035442715
1731652647.5676663,855.6934263768338,818.8453473249092,833.2536324435108,857.4348208796195
1731652647.5712645,789.4605347043972,813.9914284907028,830.4157237932922,805.5968675622426
1731652647.5751636,740.3645405470955,810.0620512635476,828.6280386451191,756.4802883267752
1731652647.5754614,737.5482347592385,807.5822391278118,827.6238650101577,740.787614637558
1731652647.5790627,774.8712451987858,806.6327359999044,826.7159717609202,762.9485994709402
1731652647.5825107,816.7166966397506,807.0748170677496,825.5275072288023,798.9876408178645
1731652647.5829618,826.7123161584369,808.6084756971344,824.2200912031349,816.4009257382336
1731652647.586861,796.4751479733773,810.7138496363631,823.189586257969,800.1739105530273
1731652647.59076,751.4050449313837,812.6681010580755,822.6280170972044,764.0464675207477
1731652647.5943077,729.095421708168,813.7120625296049,822.3338406270177,738.017205413688
1731652647.594659,748.2412099090783,813.3250777828914,821.8753367397293,742.5650421055917
1731652647.598088,793.5138830179257,811.5363091724329,820.9631464323207,770.9644904376682
1731652647.5985582,828.4505279286013,809.1055659499439,819.7685864754974,794.2166363929092
1731652647.6024573,825.3740945631996,807.3074745368208,818.9305058988988,784.4655963629169
1731652647.602586,787.7905216366084,807.2567171372654,819.1576162893246,737.9249139699208
1731652647.6063564,747.259192487632,809.1889669741746,820.6355588940472,679.0578714795299
1731652647.6102557,737.5400148291259,812.3102110681517,822.6926955036555,642.7644755983264
1731652647.6131537,767.0070805380341,815.3859545932346,824.1055492605675,648.395665850186
1731652647.6136656,811.6261439637245,817.5750815591744,823.9715814993632,685.5314106648956
1731652647.6141546,834.3794356899025,818.8276537520135,822.5259410661076,722.3921354968485
1731652647.6180537,815.743922798598,819.602771105696,821.1302767598016,730.4551412709636
1731652647.6219528,770.493447012711,820.2356493803841,821.2236772988878,706.2472571589035
1731652647.625852,736.6339537106907,820.5138474852477,822.9768508789192,673.2244989984911
1731652647.629243,744.838754597732,819.8267105771465,824.8623885505007,662.2412742904048
1731652647.629751,793.0175151799008,817.8091223849135,824.7306857070125,686.3008944655808
1731652647.632,846.9095477433664,814.9765691587817,821.6660378524172,729.9607112449467
1731652647.63365,866.7072324229711,812.7477329438244,817.0728669491776,761.8779162511305
1731652647.6375055,838.676609105725,812.6454646164574,813.9465916919961,760.2303303142311
1731652647.6375492,786.3860889478664,815.1389456418253,814.766810295931,730.3196267296576
1731652647.6414485,752.0376426746427,818.9907561781788,819.6465273068907,699.8887133133765
1731652647.6448205,762.374827661106,821.7028965771984,826.2146696950246,695.7566758975238
1731652647.6453474,806.7625528874119,820.8896411257343,831.2999072540835,721.0029719314396
1731652647.6492465,845.911657441473,815.7570250366824,833.039988241925,752.0959449437091
1731652647.650846,844.6420429749396,807.8094120007422,831.8125219642664,759.0393858116677
1731652647.6531456,801.5465521588502,800.3700590894246,829.4947119422535,731.8756972074245
1731652647.6570446,750.4627506184856,797.1067954645924,827.926211251317,690.7773011349398
1731652647.6603978,732.3493313434075,800.2179715025734,827.8671698161303,670.470748924294
1731652647.6609435,761.2771005208864,809.1607494500241,829.0211660341259,691.63543302764
1731652647.6648428,812.9550352764734,820.6669924388748,830.6864547891428,743.2045720785223
1731652647.668742,844.7716455791793,830.190985282251,832.2420640265187,790.3679075881813
1731652647.6696925,830.0785145235031,834.1101875467195,833.1148362401051,801.6060498370487
1731652647.672425,778.6433124348051,831.5094021402206,832.5277990922909,772.6808010752782
1731652647.672641,727.6581086277042,824.5803068076073,829.5737856706517,728.6079845889652
1731652647.675975,711.7305734467028,817.4065677854963,823.8295207257479,702.794899948452
1731652647.67654,736.3176018554069,813.7471445333917,816.1303993396411,710.591701498337
1731652647.6804392,775.3390429500595,814.9985380612472,808.770538751092,738.4109412082048
1731652647.6843383,793.9911810960103,819.5168707914854,804.6532622280365,756.6630608672365
1731652647.6882374,777.6718621916065,823.7598541621546,805.712184343337,745.3661525047404
1731652647.6885383,743.3535746182548,824.5627633781393,811.6355910502485,711.0655043510264
1731652647.6915526,724.493289430496,821.0773822034308,819.8727997937883,681.2018541032464
1731652647.6921363,742.5024272780515,815.140547512757,827.0236309962252,681.0321911214373
1731652647.6960356,788.5794168916482,809.9574120547446,830.7102457676074,712.5142005080812
1731652647.6999347,830.5729969364525,808.1109212558187,830.71076575984,752.3783884147477
1731652647.7038338,838.7097721283682,810.2086134195255,828.6967955475761,770.4583459550153
1731652647.7071302,809.0538585278421,814.8467174735162,826.8786254896529,753.1381114381129
1731652647.7073448,766.1571722728801,819.639145902357,826.5303006592216,713.4215883431299
1731652647.7073846,743.2854792546707,822.5429326525095,827.3475046891318,680.2892967094145
1731652647.707733,755.994653100941,822.787011437292,827.9752869148754,676.1529955012613
1731652647.711632,789.8342511156875,821.0572367844451,827.2582294432361,700.1058795038366
1731652647.715531,812.2395990552101,818.9318320629143,825.2907744564491,730.021729133049
1731652647.7194302,799.7606109485638,817.8887635515614,823.4773135276803,741.7211079631752
1731652647.7227075,758.6940960322257,818.4672358500898,823.5137505088288,729.4400877768928
1731652647.7233293,721.2856528373813,820.1040759855645,826.0294811005974,710.2546526518101
1731652647.7262306,719.4043705441829,821.6835593247118,829.927229148403,708.3272383814495
1731652647.7272286,757.1863431340697,822.2955877061022,832.918212046835,732.3161511493014
1731652647.7311275,806.1235323390603,821.6023403675158,832.820921892959,765.7203700007979
1731652647.7350268,827.6176482093392,819.664466901309,828.7214315088576,779.1980594720575
1731652647.7382853,804.6484099172995,816.626980603827,821.418444282463,755.1180209530957
1731652647.738926,756.2432932506309,812.7515405434134,813.1644648243866,704.0084523690225
1731652647.7422645,722.7001083998736,808.7889449245025,806.9060364305061,658.9762385387271
1731652647.742825,733.5664435271657,806.1150079506987,805.1120718619031,651.8242116352299
1731652647.745077,784.1589523551963,806.0947954966625,808.4502653461086,689.0990971161095
1731652647.746724,839.304932811114,808.9325653062556,815.0765110716978,746.6621966221863
1731652647.7506232,861.2637626131541,813.0731163286857,821.380075485094,787.4987601457591
1731652647.7538624,839.5148664452082,816.0496362576403,824.1183398699711,789.4744930951057
1731652647.7545223,798.3722572074274,816.3901829214991,822.5834825998031,761.2781339217706
1731652647.7584214,776.1210843814251,814.9566560469258,819.0928143413431,733.5427022170284
1731652647.7623205,792.8165198857255,814.3200085484142,817.2772368889437,732.3744570536702
1731652647.7639227,833.5584266544782,816.5322420360675,819.4320227827798,757.5759161758776
1731652647.7662196,861.2725045613012,821.28259970173,824.9763913055008,784.0449859746799
1731652647.76944,848.3250958226823,826.183681332604,831.1338787760952,784.8564195399146
1731652647.7701187,800.605043236319,828.9368400041442,835.1490644974232,755.8650169036327
1731652647.7740178,754.0511403390983,829.3296691572987,836.2318159337535,720.573627989965
1731652647.7771838,746.3090781113824,829.202758210079,835.7929990208371,710.9792151287497
1731652647.777917,786.4232854401029,830.4843417362645,835.9599318707955,740.3198883841955
1731652647.781816,847.0112323515447,833.2071337681904,837.6511149148904,790.3841001268632
1731652647.7827692,885.3393590552824,835.3863333044602,839.7000181674515,824.2808949986904
1731652647.7850173,876.6308683476877,834.8578264085018,839.6088333219984,815.0315062484431
1731652647.785715,833.0547154252664,831.3542941893155,835.2969087079458,767.292592705101
1731652647.7896142,793.1215994807061,826.8925784082741,826.6182100520097,714.4171065186932
1731652647.7935133,790.0466126299161,824.098332167828,815.7418004554481,692.6109611783843
1731652647.7974124,824.9577484295467,823.9646520958713,806.2553158746128,712.8316842486942
1731652647.8005948,866.9516258023461,825.031955279026,801.465406033216,753.3545116848787
1731652647.8013115,879.589762610098,824.673280625869,802.6844345551737,778.8804902740106
1731652647.8016152,851.4381199860422,821.3134341242517,808.4551568339812,769.940667723457
1731652647.8052106,805.4744409140702,815.6974623480063,815.4300373523674,738.2448158079778
1731652647.8091097,780.3265647171893,810.2928140626667,820.5079589731916,716.0303246931828
