timestamps,eeg_1,eeg_2,eeg_3,eeg_4
1731652964.1666968,732.2234863743722,806.386074702011,802.3240674476917,738.8535377166785
1731652964.1696997,556.967106744981,813.5900295908091,804.5848280717568,657.0022448732943
1731652964.173601,449.6333334160694,817.9239629372497,805.9116759437002,606.6525025027819
1731652964.1775022,437.81252565007924,818.1621093634652,805.6517280084394,600.1364161258625
1731652964.1814036,493.05026164440727,815.3316180174261,803.7079273894858,623.5623533035184
1731652964.1853049,552.885004543943,811.9017416299054,800.6460063130863,647.7361912376974
1731652964.1856058,568.6256691692782,810.1424892625284,797.449365667705,650.5756026431859
1731652964.189206,542.526720534988,810.8393807085617,795.0025102273594,633.7765285647656
1731652964.1931074,521.0495549470072,813.2090253703557,793.6863689345519,619.0062808095079
1731652964.1970086,547.7694321283421,815.8264895319107,793.4158867226549,626.2416120962974
1731652964.20091,618.7035240359385,817.6216972632532,794.0172892897904,653.9975101196428
1731652964.2029407,683.3940532641259,818.2199128200496,795.4812976643634,680.3491935077328
1731652964.2045145,692.2659322070505,817.7318204253371,797.7728310662671,684.0737842966054
1731652964.204811,645.2401570279362,816.5600931438479,800.4077014912268,665.5537878250387
1731652964.2087126,593.9827149431605,815.4329978172544,802.3429478590178,646.8802986809037
1731652964.2126138,594.2925555001691,815.2936296823693,802.4766384196823,650.5708665938045
1731652964.2165153,653.4233635556109,816.7206406220031,800.452209066018,677.2544649773367
1731652964.218485,722.5973184921922,819.2342568286901,797.1142945557921,704.1079805214445
1731652964.2204163,742.2407527328538,821.2661283113076,794.1979987015876,706.1184618162537
1731652964.2234235,697.5796686518152,821.0927938525771,793.4177528276584,680.2744439622817
1731652964.2243178,632.3597930397796,818.0830429863546,795.5513998260975,649.5700553774645
1731652964.228219,607.4667246189587,813.2216841830794,800.0819756756483,642.3431604198906
1731652964.2321205,642.7897006683185,808.4858614495146,805.5399498399836,665.6656766704443
1731652964.2340295,697.1870140432984,805.6347966676112,810.2249899566618,697.7449790847976
1731652964.2360218,706.8591705921378,805.3547283258944,812.831823345984,707.3519592746361
1731652964.239923,647.6779259728155,807.2043209459677,812.7437445369607,683.1896338558048
1731652964.2423322,563.0666742193348,810.0685807166982,810.1024708713181,646.0834621675809
1731652964.2438242,529.5213462804616,812.6079863396978,805.833589325646,631.8789958887361
1731652964.2477255,589.1153875398661,813.5407334315901,801.5660812412863,659.5806673902896
1731652964.2495737,708.9819058028528,811.951714117517,799.197467590144,712.9561089242809
1731652964.2516267,804.0626021465262,807.741962592444,800.0497531329763,752.1212492405451
1731652964.254083,804.3453626130002,801.969451422597,804.0151417141757,745.5735062660558
1731652964.2555282,710.6815029281261,796.6645354252673,809.3401477234196,695.9591122582528
1731652964.2594297,594.0414789143251,793.9836041347817,813.4076906593481,638.5465930329599
1731652964.2612412,539.7547057387565,795.0842163744999,814.1875361999048,613.9436023815246
1731652964.2633307,581.8058309244591,799.4110134677255,811.4595396105144,637.0977110259098
1731652964.265118,679.0580221845809,804.8863022025447,806.9566789011384,687.0682082916645
1731652964.267232,751.2598183819731,808.9310648753071,803.263739237028,725.1215833953629
1731652964.2711334,744.9145828865447,809.7302167034991,802.1710758765327,726.0557435839572
1731652964.275035,675.5177075825611,807.0569104405467,803.5833141957482,697.402458702193
1731652964.278936,612.6106009728528,802.2913479497015,805.7072299012422,671.5522820860681
1731652964.28015,621.2039356153199,797.724526004823,806.3601727664733,678.1599174895746
1731652964.2806623,708.0588942860846,795.5376695589188,804.4950051482699,719.7897672298692
1731652964.2828372,815.8412825682585,796.9097234943893,800.9371045482484,770.2118794889452
1731652964.2867384,868.7433412224036,801.6025670913709,797.8837666879563,795.9971579853777
1731652964.289,832.6784758582193,808.1729672518181,797.5180664366051,783.7143249346
1731652964.29064,742.5206176877034,814.6815296952034,800.6415445752425,751.0745145975486
1731652964.2945411,674.96282626796,819.500493116975,806.2119356223291,733.210312260868
1731652964.2962065,688.2499758434831,821.7645217378848,812.0727393251947,754.8941907840506
1731652964.2984424,776.4426684445386,821.2921031267251,816.3320268839572,810.6821572797604
1731652964.299059,874.434937672861,818.2537904277258,818.3697815238077,868.6257398647549
1731652964.3023436,908.946603558691,813.0504567095085,818.7464155138667,894.2309180119466
1731652964.3062449,853.8347862238937,806.542971996479,818.1949934533112,875.4051035884518
1731652964.3101463,746.4080118714519,800.2483857511394,816.675031796286,829.4056806792129
1731652964.311751,655.4332904521127,796.0043010151245,813.4126876684328,788.3186380133701
1731652964.3140476,630.3848664868312,795.1147887720034,807.929841516709,776.3439579176611
1731652964.3179488,672.0925229831626,797.5997191359918,801.0883997261177,796.2594540154656
1731652964.3179677,742.1841527492645,802.1793318878716,795.0747377856177,832.48292335508
1731652964.32185,796.7230153068431,807.0063689597429,792.1533516242048,864.7816751374637
1731652964.3239172,815.3626642088825,810.5752368800953,793.1150325519974,881.0148386177777
1731652964.3257515,807.4933572133718,812.246800305764,796.6568646596548,881.3670429849337
1731652964.3272953,797.2224543556015,812.267345626242,800.2085823100738,874.2719401099806
1731652964.3296528,802.5433495419281,811.4742274444494,801.592428593115,869.0583320887478
1731652964.333554,823.9203784282238,810.8531945132131,800.288534876426,870.3820262619811
1731652964.3368766,847.8141964396266,811.031920407889,797.4425844824876,876.814027356556
1731652964.3374553,859.724458276626,811.9091670860417,794.7767695658937,883.1891835272047
1731652964.3413565,855.8683673551251,812.72906707184,793.3826687587788,884.6547140394755
1731652964.3428392,845.0777440274095,812.6871782074194,793.2881374207109,879.8587756677761
1731652964.345258,840.5212633772051,811.6907321181217,793.8677834136356,871.4023626301873
1731652964.3491592,848.6192397196728,810.6516086665132,794.4957799257651,863.4975534551679
1731652964.3530605,864.2655593443997,810.9476801542816,794.8934653170592,858.8028333061076
1731652964.3557854,875.8870517694015,813.2778245824417,795.0913156335849,856.9897429263888
1731652964.3569615,875.6050036183736,816.6748499977549,795.2290252265728,856.000523802261
1731652964.3583834,865.7925213508029,818.5691266593265,795.404449356991,854.5311482068014
1731652964.3588345,856.81034606475,816.2554880237236,795.6358315089295,853.2973698125202
1731652964.360863,858.2706238942753,809.0170857838064,795.8956412166209,853.9718001038011
1731652964.3647645,871.252015926824,799.2844802496292,796.1538266557418,856.9384565256379
1731652964.3686657,887.6030821764375,791.5740311447349,796.3980160987765,860.0907806091842
1731652964.3725667,896.4824801934978,789.6402228563578,796.6311654410189,859.9472308960242
1731652964.3739278,892.6834910887162,793.9245043536739,796.8609737603174,854.3165072995964
1731652964.3746943,880.2619359581274,801.3445338144888,797.0923715836873,844.3496647822287
1731652964.3764682,868.9164998316451,807.5987787101949,797.3260226652839,834.1943654609647
1731652964.3803697,866.2312393863485,810.1033329815796,797.560346474685,828.3353766189072
1731652964.384271,871.9753692419314,809.262833845504,797.7937902817754,828.5924429917931
1731652964.388172,878.8535115295473,807.3066731928651,798.0257888443361,833.0807582316166
1731652964.389472,878.8540180036723,805.9820580256155,798.2565601235758,837.8710293786357
1731652964.3920734,869.8987238927091,805.1942584261881,798.4865278836453,839.9306706879944
1731652964.393603,857.4603656948944,803.6244988962783,798.7159443577915,839.0395507417192
1731652964.3937516,850.035210997118,800.5006542788863,798.9448351032447,837.3899629116611
1731652964.3959746,852.2418253762492,796.7346923831095,799.1731183757901,837.4437837383898
1731652964.399876,861.0860914524072,794.3451313670139,799.4007268937131,839.81110924524
1731652964.4037774,868.430297799082,794.7091425383693,799.6276545519223,842.7493846046641
1731652964.4050162,867.789282844066,797.2586597962427,799.8539371218502,843.6293686900017
1731652964.4076786,859.8719566537892,799.8368930297967,800.0796080649493,841.176496725183
1731652964.4115798,851.981062079616,800.4480561027868,800.304665826718,836.5690967163592
1731652964.412512,851.497940821608,798.8877584053463,800.5290762626922,832.3582632082175
1731652964.415481,859.0799193115688,796.8520275847372,800.752819561021,830.142918824967
1731652964.4193826,867.7659507576977,796.4838331754221,800.975962146031,829.1570702742787
1731652964.4205604,868.9989815011286,798.6712464254206,801.1986883404835,827.0797467128273
1731652964.4232838,860.3440784634431,802.5310059344168,801.4212017716831,822.2749744971807
1731652964.4271853,848.1927851779644,806.350026557813,801.6434719592439,815.4402322822077
1731652964.428669,843.1177771368588,808.9556891327026,801.8649889937324,809.347587480824
1731652964.4310863,851.58771015743,810.2487956925266,802.0848914600856,807.02834466086
1731652964.431421,870.4820294455658,810.6004782513082,802.3027750265452,809.7902510222615
1731652964.4349878,888.662423392823,809.973821995964,802.5199087167865,816.3303664738901
1731652964.4361048,894.7382637546954,807.8283469092039,802.7396319383339,823.4156870299687
1731652964.438889,885.5210819881388,803.942762146069,802.9652688142078,827.6981962175637
1731652964.4427905,868.644670665113,799.2332043052454,803.1952985185114,827.5282629879771
1731652964.4466915,856.7955421445322,795.5601754012453,803.4191622459982,823.552871790924
1731652964.4503298,857.6998837091538,794.497366610656,803.6206460413629,817.7320678171293
1731652964.4505928,868.006094385442,796.0863125555853,803.7939697929668,811.6663318475413
1731652964.451649,876.3725571281135,798.7019970375819,803.9660440460576,805.6569193241598
1731652964.4544942,873.3061633621622,800.245318776092,804.200706485758,799.1590860796817
1731652964.4583955,859.4314051799571,799.7848870781716,804.554827602622,791.9732608945658
1731652964.4622967,845.2209052370099,798.3707421691702,804.986101550924,784.9280019762989
1731652964.463586,842.4981165451301,798.3162577826877,805.2820265046886,779.4357729591993
1731652964.466198,854.788989995759,801.3930956171503,805.1400449413162,776.4419833195377
1731652964.4671931,874.3020724764299,807.2931617594746,804.4786212996904,775.796592286689
1731652964.4692388,887.8126095523589,813.6197619041255,803.820342297622,776.5276180046517
1731652964.4700992,886.6887958605175,817.49109763789,804.2965812029587,777.5962512897004
1731652964.4740007,873.1634806558176,817.4712556968727,806.9328634044255,778.4309751606859
1731652964.477902,858.028490405451,814.2610973705151,811.6111460134977,778.9627285370137
1731652964.4818032,851.8228814071099,809.7554929070692,816.7232551604773,779.3635831216272
1731652964.4827375,856.7841198316542,805.5714907589377,820.0462019683584,779.7959442615991
1731652964.4857044,865.9738991127683,802.4178224547751,820.1604385622906,780.3147513708853
1731652964.4881475,869.8232385982224,800.5110881009173,817.2123695164657,780.8938738881504
1731652964.4896057,864.2540006698509,800.0896547027075,812.5433971349873,781.48852669005
1731652964.4935071,853.6523072686472,801.2598161843514,807.7588961792029,782.0738857076856
1731652964.4974084,846.6490679283854,803.5217909616073,804.0824491841158,782.6492536864041
1731652964.4982817,848.6241617993937,805.8415094522153,802.255781089487,783.2247857971756
1731652964.4985034,857.2231477605535,807.4210339345467,802.622356921036,783.8090035562105
1731652964.5013096,864.4136815612708,808.3623354123705,805.0311667388121,784.4044460880407
1731652964.5052109,863.2368590426233,809.4506339309603,808.652614223315,785.0095353244084
1731652964.5070565,853.6831300393022,811.2393390407257,812.0769196378079,785.621946672737
1731652964.5091124,842.840929073028,813.3501415380291,813.8425097652781,786.2405210040428
1731652964.5130136,839.0668947015039,814.6421592649634,813.0998011840135,786.8653550447945
1731652964.513826,844.8671294639216,814.0486519701184,809.9485903698122,787.4970514919069
1731652964.5169148,854.4492196583042,811.3398703645364,805.2535365443017,788.1360748148376
1731652964.520816,858.2217231656157,807.2525904549244,800.1478453370813,788.7825537862789
1731652964.524717,850.7112008597637,803.0048851351288,795.5920554591083,789.4364011174237
1731652964.5259652,835.3201605622867,799.641920859126,792.186386478627,790.0975006971282
1731652964.5286188,821.8089611491667,797.6586232075006,790.197356503486,790.7658143132049
1731652964.5293703,818.3807266505818,797.0135727509754,789.6842390759781,791.4413869225474
1731652964.53252,824.7550708684404,797.3089418038534,790.6437012471054,792.1242875051756
1731652964.5334206,831.9371307086247,797.876117384397,793.0730038293077,792.8145267905217
1731652964.5364213,829.1255036127044,797.8050309521628,796.8381201227791,793.5119965683436
1731652964.5403223,812.5094020531683,796.230952752005,801.3974700382875,794.2164943711981
1731652964.5442238,789.0058057233398,793.0132402533533,805.6871172067977,794.9278872147796
1731652964.5448742,771.7240994901339,789.3518523816922,808.4636891711177,795.6463646170262
1731652964.5449145,770.395482492858,787.5559950524616,808.9951405722281,796.3725447770305
1731652964.5481253,784.1269482500397,789.7109592619279,807.5692458781438,797.1070938598608
1731652964.5520265,802.1779643714216,796.062319381304,805.3547406208257,797.849767599756
1731652964.5559278,812.1323862715295,804.4408560807359,803.6982897883986,798.5984995821768
1731652964.559829,808.941682640801,811.3265414416989,803.4209965223558,799.3499207631643
1731652964.560459,797.7885431361367,813.8399557748389,804.5989129531679,800.1024525146184
1731652964.5637305,788.9721297410384,811.2977430283984,806.7927678575597,800.8608910228289
1731652964.5637827,789.4497880143954,805.4340075687782,809.3192723623455,801.6377976550793
1731652964.5676315,797.9076429266723,799.3409866388472,811.3140356954475,802.4454370689244
1731652964.568338,806.8594363139067,795.8284983926857,811.7826966078809,803.2774421602619
1731652964.571533,809.489648695376,796.0371444128607,809.9886092450101,804.0932260659946
1731652964.5754342,805.3700075743072,798.9474592550775,806.1229459178079,804.8314283075111
1731652964.5760033,800.3317045397748,802.0256845652752,801.6519440782553,805.4713107902394
1731652964.5793357,800.6909627439823,802.696701987593,798.7322843707119,806.1162983574947
1731652964.582692,806.9001871994769,799.8522910197606,798.8389885556779,807.0071001323511
1731652964.5832367,812.4511369418925,794.5137248382033,801.6154706955277,808.3503947441625
1731652964.5871382,809.4523064403917,789.2300073067202,804.9934652397435,809.9627537888009
1731652964.5910394,796.2204022100227,786.5891323050051,806.6288724152105,810.9878656805415
1731652964.5915473,779.9626731124042,787.8088373188248,805.5330705018104,810.1508473437673
1731652964.594941,771.6499116508571,792.2748087227708,802.5922385558035,806.7554672101248
1731652964.598842,777.1283712707891,798.1679844140621,799.6682043376949,801.7499713186596
1731652964.6016006,792.0555678938455,803.5891609637899,798.1770275453484,797.5751549379862
1731652964.6027434,805.1062554047536,807.4267615632534,798.3047825332545,796.4246288262531
1731652964.603255,806.9319210123572,809.6009943979385,799.242474580647,798.3577194798708
1731652964.6066446,797.6215035050209,810.7780033953833,799.9339569558833,801.1471809059508
1731652964.6070914,786.6725199988922,811.8273219519474,799.6642686103274,802.1593676066773
1731652964.610546,785.4494088790705,813.2498346247186,798.2608807258497,800.6812741128268
1731652964.614447,798.0078954987448,814.7727105236966,796.0540879601774,798.6529689121014
1731652964.6183486,817.5137978232246,815.3620336577349,793.7164790448008,799.0201729063649
1731652964.6205096,831.2166553462447,813.8441003191676,791.9615353066749,802.9568062411686
1731652964.6222498,830.2111399676533,809.9474341898855,791.1617099012236,808.4187244324833
1731652964.6226358,816.2938332673363,805.050792991646,791.1426156256337,811.6073819604512
1731652964.626151,800.4389805794492,801.8203569215616,791.3838989516863,810.347916067294
1731652964.6300523,794.1907619759651,802.639026318703,791.5317648460891,806.3691223414252
1731652964.6339536,801.0247184036134,807.8410548114101,791.8063973248134,804.1740537441664
1731652964.6378553,814.5621799417946,815.1960185817295,792.9167735603332,807.2601733345509
1731652964.6381724,824.6323943018633,821.2265153993379,795.4958843032412,815.0090442792431
1731652964.63818,825.7521605444136,823.4416139444148,799.4997057596798,823.0671599267662
1731652964.6394184,821.0294430432142,821.7765982826272,804.0819604372824,826.9249946521055
1731652964.6417563,818.6842380420234,818.1959010026115,808.0842962171217,825.5948558032208
1731652964.6456575,824.450812319038,814.9845662069272,810.7776462034176,822.2666803803718
1731652964.6495588,836.21053975348,813.2761125135393,812.2797483618275,821.4685570998361
1731652964.65346,845.219659119547,812.8533400254536,813.3257640936423,825.2265427653397
1731652964.6537242,843.0101334665809,812.912114246484,814.5639305906118,831.48776753732
1731652964.6573615,828.5008008236537,812.8357470517464,815.8909685017348,836.0185735168167
1731652964.658327,809.5282951724491,812.4530561754884,816.3051981960585,835.9501293970824
1731652964.6612628,797.2736673992625,811.8846806097232,814.4154935669119,831.8351424125952
1731652964.665164,797.7404887901499,811.2991575631941,809.3422673974759,826.6014503881419
1731652964.6690652,807.0255227714456,810.7796044997008,801.5015512402089,822.619685953929
1731652964.6692686,814.3278526515857,810.3202617727032,792.790606065975,819.628770958125
1731652964.6729667,810.4898037500758,809.8806936776404,785.9811207580461,815.2536917202599
1731652964.6730895,795.3130041173185,809.4308022022251,783.5384143549311,807.4459681381599
1731652964.676868,777.7832815751684,808.9637321183453,786.4276168401484,796.6138110542355
1731652964.6772363,769.0304738859381,808.4869005553587,793.5630550652708,785.695193238944
1731652964.6807692,773.6726547831275,808.0092254127718,802.2934975473332,778.24824643834
1731652964.6846704,786.3942330291176,807.5346988404311,809.7386224243326,776.1301919500035
1731652964.6848128,796.3131356741092,807.0627029854533,814.208781064011,778.4727058253352
1731652964.6885717,795.5114741429961,806.5910261942981,815.8126315507292,782.57180360202
1731652964.6924732,785.0028347030235,806.1181553099988,815.9004197645986,785.8371116771298
1731652964.6961453,773.6519368919116,805.643824846549,815.8503615703011,787.2055386957263
1731652964.6963744,771.1063507460871,805.1684743389643,816.1677800003348,787.1202823341323
1731652964.7002757,780.2586167340538,804.6925757088496,816.5094111595338,786.5664119323519
1731652964.700357,794.9316468139443,804.2163241996199,816.3894929503772,786.2214432043104
1731652964.704177,804.4907438505302,803.7396765470047,815.7674084392456,786.2316474740053
1731652964.7080069,801.9178654448706,803.2625124833887,814.9617644692113,786.4313431324827
1731652964.708078,789.2498381926407,802.7847494691397,814.0936457551473,786.6267070541077
1731652964.7119796,776.186442165064,802.3063725491257,812.7562782449844,786.7336037277469
1731652964.715054,772.8847634501203,801.8274193998158,810.3622601270076,786.7677244344436
1731652964.7158809,782.5419939565306,801.347958704304,806.8993124603601,786.7777896982242
1731652964.7159014,799.5411967180031,800.8680612191303,803.3418535878327,786.7961406535835
1731652964.719782,814.3397488750218,800.3877446027252,801.1997384901666,786.8277172265894
1731652964.7236834,820.7270041400352,799.9069060860052,801.4636082404534,786.8624359803447
1731652964.7275848,819.4206014127441,799.4253215673888,803.8276024263369,786.8898960722373
1731652964.7314456,815.5929673258267,798.9428114675958,806.8957554625841,786.9058986192358
1731652964.731486,813.3055916536651,798.459563587841,809.1908519657022,786.911374120322
1731652964.7339628,812.0319605496113,797.9763553676005,810.0616639780269,786.9087167585478
1731652964.735387,807.9195789114835,797.49421742355,809.7964076298024,786.8992945038265
1731652964.7392886,798.0667417424261,797.0132835661483,809.0846598716449,786.8830209072856
1731652964.742924,783.8279021945762,796.5314183315918,808.4508702497541,786.8590819881045
1731652964.7431898,770.4131930078387,796.0443220920448,808.0554177963306,786.8267069113343
1731652964.7469895,763.2092488548192,795.5489219953621,807.8132251740769,786.7854756831252
1731652964.7470913,763.7504122936423,795.0494798381352,807.590517821537,786.7352317767586
1731652964.7509923,768.50509644532,794.5611459152827,807.3173549798148,786.675873146124
1731652964.7528718,771.5826627111915,794.102416158025,806.9953103227735,786.6072185644252
1731652964.7548938,769.4516919826494,793.6727730580933,806.6558277742544,786.5289992757226
1731652964.758795,763.9320658142902,793.2284695407628,806.3235729751325,786.4409344369437
1731652964.762534,760.7842887652182,792.6895342988678,806.0048884101179,786.3428199240933
1731652964.7626965,764.7611744779638,792.0102747128255,805.6942709554569,786.2345558840776
1731652964.7665975,775.160021588824,791.2982292909311,805.3845546572863,786.1160523346417
1731652964.770499,785.7372395804791,790.8827936994716,805.0723255955164,785.9870213793807
1731652964.7717805,789.2616761760484,791.1973765440656,804.7579045208674,785.8468084017496
1731652964.7744002,783.1248362658016,792.4624124494129,804.4430053137988,785.694545794684
1731652964.777841,771.5893858891347,794.4070971062594,804.1288572614644,785.5298225047427
1731652964.7780783,762.9112006883086,796.3673774450441,803.8157001437501,785.3535773181308
1731652964.7783017,763.4185161347357,797.8229268498654,803.5031859733313,785.1682165835408
1731652964.7822027,772.8766120682175,798.9819360162602,803.1909210961267,784.9757598060805
1731652964.7861042,784.645871397272,800.844296345179,802.878730507559,784.7740945323665
1731652964.7900054,790.6992744108828,804.5070674994699,802.5666348655429,784.5542768108729
1731652964.7906897,787.7592661750994,810.114556198151,802.2547118244898,784.3041881016768
1731652964.7936225,779.658914034267,816.2873519426769,801.9429884348257,784.0216648166637
1731652964.7939067,773.9173440217431,820.6525564938206,801.6314184174194,783.7305817430911
1731652964.797808,775.3684883507086,821.2919739679129,801.3199317902879,783.4804332295141
1731652964.8017094,782.2695439093775,818.1247534000172,801.0085152048111,783.3081475218441
1731652964.805611,788.1620598514932,813.1401688946225,800.697262223364,783.1675980962843
1731652964.809167,787.7151553444238,809.1784031553153,800.3863210325084,782.886591207948
1731652964.809512,781.4052410785338,808.0688100336628,800.0757055572999,782.2508008183353
1731652964.8095982,775.1094755891722,809.4816213599725,799.765066917576,781.2625613605525
1731652964.8127584,775.165813785799,811.3357046127584,799.4536965493434,780.4349624413036
1731652964.8134131,783.1476242903251,811.4031785387562,799.1410555626774,780.7549927575634
1731652964.8173144,794.6061958810817,808.8480921293263,798.8277558590675,783.0091470845899
1731652964.821216,802.7107235738495,804.6006584619543,798.5161671428938,786.8259348875034
1731652964.824711,803.8247086278318,800.5211122594802,798.2092733602472,790.5503316611484
1731652964.825117,800.5082803945014,798.2408191393936,797.9071200937734,792.6247792019037
1731652964.8285072,799.4047446439654,798.5549741425143,797.602821849073,793.4340703418585
1731652964.8290184,805.5834955936135,801.4890804862697,797.2833494536894,795.6213453996206
1731652964.8329196,817.9566372891121,806.5781827158194,796.9402944918432,802.161298771898
1731652964.8368208,829.6662722024279,812.9847278818978,796.5882003922655,813.6818056939388
1731652964.8402553,833.2060304992242,819.4909521896124,796.2738592933428,827.3185089682023
1731652964.8407223,826.0303450987993,824.5915175475402,796.0511047365227,838.0992948070204
1731652964.8446236,812.1385191649451,826.8086945207074,795.9120619653568,841.8344763837765
1731652964.847416,798.7466378595313,825.1966850592053,795.717310072,837.4735401343687
1731652964.8476758,791.2189020081581,819.8826645288165,795.2258774148356,827.4800986812864
1731652964.8485248,790.3715122401084,812.3536855596419,794.3164889889263,816.2532589357887
1731652964.852426,793.7157654090952,805.1464036170919,793.3401116897124,807.8102360937766
1731652964.8557994,798.7848810759942,800.8529574604083,793.2899926527095,804.1209844710176
1731652964.8563275,805.268982906469,800.8646244009979,795.3753264238383,804.7578436582966
1731652964.8602288,814.1400443001809,804.5997536078504,799.9823819977789,807.5989399936759
1731652964.86413,824.8434929423327,809.7444986307008,805.7912186541275,809.8947160958301
1731652964.866325,833.5004769740759,813.4193106721387,810.1078425052971,809.2037404125473
1731652964.8680313,834.3219008190325,813.6466646469335,810.5679542008348,804.099130938254
1731652964.871344,823.6587846650115,810.3449587768921,806.9861594236405,794.6717327798191
1731652964.8719325,803.6147281752017,805.3007958457534,801.7698752902115,782.6766998927
1731652964.875834,782.0691840449944,801.0737447227361,798.4386253279104,771.0523981636456
1731652964.8797352,768.4942403174393,799.4311515307124,799.3258846408647,762.7894936987689
1731652964.882593,768.1664462172714,800.3383046984804,804.1422027344192,759.6065028351434
1731652964.8836365,778.802598990506,802.2586774747098,810.3235298843775,761.1512429956141
1731652964.8852336,792.186285396592,803.5292529198997,814.7156317610439,765.2419545334036
1731652964.886888,799.9733049106367,803.6404519541619,815.314557547429,769.1416671158768
1731652964.8875377,799.7902828397794,803.315045928089,812.0312108176539,771.2930934260236
1731652964.891439,797.0979161021553,803.4091265090605,806.3251774402789,772.4940549769376
1731652964.8953404,800.9277809551604,803.800503521214,800.2394649768908,775.4567897463379
1731652964.8992417,816.1803491641953,803.4295605027057,795.4785905734471,782.5218688123919
1731652964.9024322,838.3611469590896,801.4787212625013,792.9034273159576,792.8800496352688
1731652964.9031427,855.3964329246998,798.4981131165896,792.5095631086905,801.7236022508098
1731652964.9041426,855.8138112395674,796.2971372218968,793.7451044500951,802.7872566750216
1731652964.9070442,837.2515925941748,796.5985691416043,795.8971581050256,792.9341204271983
1731652964.9109457,808.6328871421372,799.6173047624451,798.2868120843578,775.2078825420524
1731652964.914847,784.2291460575905,803.7839434105133,800.2341687739159,757.5513942293908
1731652964.9175105,774.213269890118,806.8108312506777,801.0432405569081,747.8626705516976
1731652964.9179766,778.8186805158566,807.1963447358557,800.2719853357454,749.1290286148038
1731652964.918748,789.9900125098935,805.0275888623838,798.1806290887482,758.2384317917459
1731652964.9226494,798.4432957443707,801.639960805005,795.8733726306307,768.9410673386092
1731652964.9230514,800.275943809796,798.6044500409635,794.7718204990226,776.2026797872663
1731652964.9265506,798.340841914426,796.8785229106074,795.6727193575995,778.6123353685825
1731652964.930452,798.192110073492,796.602296514014,798.1412029894909,777.7400357834484
1731652964.9335208,802.6779268315777,797.399890699121,800.8155450228768,775.9349928030346
1731652964.9343534,809.8827724717229,798.7470669614781,802.4523356366153,774.652875256594
1731652964.9382546,815.7976737159374,800.1660094254406,802.8809408550526,774.1432695574389
1731652964.9419603,818.771468449078,801.3456691931293,803.0515510600663,774.0099766283088
1731652964.9421558,821.2899361452368,802.3180040144372,804.0805983420913,773.8361849188415
1731652964.946057,827.2801153742523,803.5562025624605,806.0739164297181,773.4598386480402
1731652964.949065,837.4745380738432,805.7301828088291,807.7965546470151,772.930798368959
1731652964.9499586,847.352078386916,809.1350617501677,807.5979074091758,772.3593628144886
1731652964.9524274,849.9707144464229,813.235191920127,804.8568284364786,771.813188015839
1731652964.9538598,841.6284347990181,816.8140553817979,800.6387234095748,771.2995614361743
1731652964.957761,825.6067437751843,818.7240128499215,796.9160100568815,770.7954864253445
1731652964.9608693,810.5843017622775,818.6338156450284,795.0465111956473,770.2795342647144
1731652964.9616623,804.5757548807258,817.1066240938433,794.896771860789,769.7445586778638
1731652964.9646094,808.9767907098355,814.9435710423443,795.3217464118799,769.1942414879753
1731652964.9655638,817.4341214006515,812.4294026543618,795.388465884367,768.6348470436767
1731652964.969465,820.6061463667191,809.2024641811291,795.1315853774568,768.0700693713312
1731652964.9733665,813.2675666279541,804.8511213484561,795.272206112449,767.5004289036638
1731652964.9772675,798.3156256202874,799.6503949714364,796.4037365524542,766.925002975732
1731652964.979778,784.6204991224467,794.7560592593726,798.5192739089474,766.3430792785457
1731652964.9801536,780.4261271562549,791.6752884371492,801.202385203961,765.7547420733703
1731652964.9811687,787.3517820434488,791.4020495549867,804.076938704843,765.1606288584412
1731652964.9850702,799.4439650877125,793.803859780469,806.9669688355959,764.5614762451844
1731652964.9873447,807.8154992573174,797.6539242144879,809.6587022830894,763.9578576918809
1731652964.9889717,807.2048784145416,801.3173618864663,811.6235970793824,763.3501796480745
1731652964.9928727,799.4070803507544,803.7012920075636,812.102572263642,762.7388166824101
1731652964.9956975,791.0446652742875,804.8474642081774,810.5896375915067,762.1242414724126
1731652964.996774,787.7234383786167,805.6946874385396,807.3463866787076,761.5070485291766
1731652964.998687,789.5896744283068,807.1057796489015,803.4919312279875,760.8878290270577
1731652965.0006752,792.0461703405039,808.8973745170807,800.5370777228595,760.2669472801354
1731652965.0045767,790.7892990777433,809.7620990527619,799.6809739685883,759.6444093010606
1731652965.008478,786.4136269539545,808.3442387468612,801.3295581290084,759.0201048591437
1731652965.0112422,784.2324723343539,804.7115099147179,805.0165737520741,758.3945425837867
1731652965.0123792,789.3991612845302,800.9320257797076,809.583348383793,757.7696576955161
1731652965.0162804,801.7500412537299,800.0244165952116,813.4831869853775,757.1486199676465
1731652965.0175958,815.0145748334214,803.8688360535814,815.2732348757924,756.5336015854447
1731652965.020182,821.1381303735029,811.6340202593648,814.2914403870436,755.9220464084023
1731652965.022262,816.1614757349173,819.9890248010762,811.1525116864775,755.3048754343697
1731652965.0240831,803.0429189916318,825.0248575050095,807.5508910942845,754.6718040569076
1731652965.0267863,789.435717461092,824.5426822165173,805.3028352389257,754.025475535349
1731652965.0279844,782.2694565633562,819.1828628290878,805.2467811641794,753.3955642731045
1731652965.0318856,783.1455938099382,811.8043603106295,806.8259385503088,752.8323220566926
1731652965.0357869,787.7681976927349,805.7353254349808,808.6324065651928,752.3617258038532
1731652965.0365047,789.627672197058,803.0987274766483,809.4115520235479,751.9166338059557
1731652965.0396883,785.0394901433705,804.1038104373938,808.7488112723412,751.3126412563719
1731652965.0423305,775.683120853594,807.4177459700651,807.0705791231694,750.3643791179217
1731652965.0435896,766.8493541443393,811.1383028187022,805.1778746977441,749.1636513136425
1731652965.0474908,763.1265847634724,813.7685973968455,803.7420842302612,748.3425512567908
1731652965.051392,765.2254216308195,814.7652309575853,803.0279525264156,748.9584673764306
1731652965.055293,770.2871499902245,814.479082104304,802.9016405129903,751.7875464264288
1731652965.0554135,774.7287663106526,813.642301373262,803.0440825122655,756.4724942785257
1731652965.0571792,776.747170799859,812.8312711963099,803.1902329877759,761.4825338117412
1731652965.057875,776.6894083119234,812.2510021494207,803.2366753970639,765.1752113158418
1731652965.0591948,775.8450266783989,811.8368914904195,803.205244357745,766.9416708712057
1731652965.063096,775.2116761394725,811.4546972218346,803.1550968863235,767.3303574469915
1731652965.0669973,775.075722931899,811.0260299419077,803.1235383131193,767.2923122075534
1731652965.0708983,775.2512763905692,810.5461017574686,803.1148720837134,767.4613417393091
1731652965.073419,775.4698366778697,810.0449466441805,803.1164327299629,767.9729196537527
1731652965.0743225,775.5967349080729,809.5488577136539,803.116146541089,768.6749931045669
1731652965.0747998,775.6396788903289,809.0661050936435,803.1097314308538,769.3908599728009
1731652965.0787013,775.6631840417751,808.59204408191,803.0989301569601,770.045159248913
1731652965.0826025,775.7162071740208,808.11937570794,803.0869886515814,770.653921990367
1731652965.0865035,775.8107333951383,807.6442139631945,803.0757739762929,771.2629353859719
1731652965.0889633,775.935663365171,807.1665606637382,803.0653973210851,771.9025736900163
1731652965.090405,776.0772026607555,806.6880801986538,803.0551491325255,772.5779855126825
1731652965.0920966,776.2293079491191,806.2101042232833,803.0444138774571,773.2806272529751
1731652965.0932312,776.3933327790342,805.7329819792147,803.0330044647782,774.0017707770862
1731652965.0943065,776.5732525055242,805.2564150000001,803.021038261487,774.7384212950719
1731652965.0982077,776.7719725670618,804.780005846923,803.0086935444742,775.4922756416246
1731652965.102109,776.9904090020729,804.303555956179,802.9960667390342,776.2663399952082
1731652965.1045077,777.2283349272544,803.8270694083645,802.9831621818224,777.0626547175908
1731652965.1060102,777.4854570020141,803.3506277374537,802.9699452444779,777.8819163830576
1731652965.1099114,777.7619179378172,802.8742874772392,802.9563894999068,778.7241511367296
1731652965.1121402,778.0582380914614,802.3980518771042,802.9424918590202,779.5894189190692
1731652965.1138127,778.3750522454989,801.9218930214838,802.9282644845393,780.4780907059485
1731652965.1177142,778.7129227202989,801.4457825128114,802.9137217775756,781.3907688255008
1731652965.120052,779.0723021170925,800.969706040946,802.898873379583,782.3281034672525
1731652965.1216154,779.453583727129,800.4936590916367,802.8837241344479,783.2906788625213
1731652965.125517,779.8571578833539,800.0176333834963,802.8682770678364,784.2789998681512
1731652965.1270137,780.2834347684467,799.5416071867625,802.8525358037267,785.2935292782292
1731652965.129418,780.7328371788134,799.0655511765094,802.8365052309467,786.3347232330918
1731652965.131049,781.2057841069253,798.5894533652098,802.8201910028821,787.4030444207369
1731652965.1333194,781.7026820721485,798.1133485532866,802.8035988501192,788.4989593596529
1731652965.135596,782.2239294369729,797.637316239874,802.7867342440576,789.6229319230079
1731652965.1372206,782.7699279089136,797.161410366314,802.7696024233722,790.7754171081488
1731652965.141122,783.3410878411478,796.6855340218813,802.7522085614322,791.9568510696272
1731652965.145023,783.9378133073799,796.209368453697,802.7345578908374,793.167635953988
1731652965.1489246,784.5604657097955,795.732531171899,802.7166557326963,794.4081311624562
1731652965.149958,785.2093323486408,795.2550367655466,802.698507468204,795.678673741055
1731652965.1511402,785.8846518486251,794.777791924081,802.6801185060331,796.9796391778287
1731652965.1528258,786.5867334191422,794.3024504783385,802.6614942722464,798.3115086168015
1731652965.1567273,787.316119698968,793.8299903483318,802.6426402190529,799.6748525315539
1731652965.1606283,788.0736134952075,793.358385742278,802.6235618343828,801.0701424084268
1731652965.161931,788.8599486215011,792.8815584576383,802.6042646377164,802.4974348605157
1731652965.1645296,789.675110920578,792.3928299155265,802.584754163453,803.9562173745603
1731652965.1666846,790.5178320365999,791.8938273543957,802.5650359527846,805.4458538181706
1731652965.168431,791.3862204498467,791.4031363988499,802.5451155837309,806.9667771913864
1731652965.1688666,792.2801204593562,790.9517976578014,802.5249987473873,808.5216864110611
1731652965.1723323,793.2040614689678,790.5547799077249,802.5046913203158,810.1150121040047
1731652965.1762335,794.1672927281159,790.1681476787302,802.4841993231346,811.7491311863557
1731652965.1801348,795.1769862869606,789.6755699094467,802.4635286762821,813.4185198551695
1731652965.1822288,796.2254260087329,788.963806340898,802.4426848412256,815.1076102253298
1731652965.184036,797.2818281542425,788.098861240479,802.4216727187501,816.8003814714978
1731652965.1877756,798.306828897208,787.4907035088381,802.4004972946553,818.5033166963815
1731652965.1879375,799.298651260965,787.824031564803,802.3791650866394,820.26610791706
1731652965.1918387,800.3458775848617,789.6441235179462,802.3576853525195,822.1670999987133
1731652965.19574,801.6189218415385,792.9110942660509,802.3360689873209,824.2380958458563
1731652965.1968482,803.2314269719432,797.1019160265282,802.3143236470846,826.3581247065076
1731652965.197773,805.0009721719148,801.9037257020326,802.2924471826323,828.2316804527297
1731652965.1996412,806.3247591636258,807.6694387365848,802.2704266865582,829.6020400365845
1731652965.2035427,806.5077603727367,814.8844438470254,802.2482519845638,830.722702925807
1731652965.2066846,805.6795696239242,823.0199553928142,802.2259431191001,832.8095514731659
1731652965.207444,805.7882513363377,829.9806451464751,802.2035704328445,837.9924224178026
1731652965.2113452,810.4521899094875,832.9517184270281,802.1812282389818,848.5453380784284
1731652965.2133174,822.750674301669,830.2191416152112,802.1589387834066,865.6878660226323
1731652965.2152464,842.0912753175454,822.5696346889578,802.1365336363673,888.449899363814
1731652965.2191477,863.3748921679894,813.0229510134084,802.1136549909645,913.1919439366352
1731652965.2230492,880.3910844909831,804.9216154493907,802.0900340389724,934.6220056158147
1731652965.225593,890.9893672964686,799.8464099659355,802.0660093007292,948.5736226001688
1731652965.2269504,899.1197050373092,797.111023949558,802.0428497207389,955.0315840004539
1731652965.2288616,911.4235027062534,795.2368157306138,802.022153859101,958.7406022947599
1731652965.2308517,931.0239723313006,793.9366510594806,802.0039729770594,966.0507605732764
1731652965.2317655,953.8276459478983,794.6028173240245,801.9846936757673,979.7930069655813
1731652965.234753,970.7865276315648,798.7718665780583,801.9574391270921,996.2383418453286
1731652965.238654,974.67473754242,806.1130427183956,801.9177466559061,1007.2093438130195
1731652965.2425556,965.9576351254916,814.0146965730157,801.8732675664429,1006.4059073799486
1731652965.2444055,952.7537498786835,819.264709635208,801.8487245884471,995.1192332619271
1731652965.2445023,944.6928410003906,820.2973676838914,801.8726303527513,982.3699803645154
1731652965.2464569,945.6912649346677,818.0580019399903,801.9408824583991,978.7766690527529
1731652965.250358,951.6409758040438,814.9664452289885,801.9794917299004,988.7509713180339
1731652965.254259,954.753810537988,813.1329998105525,801.8595031455807,1007.2838333605846
1731652965.2581608,950.6033388939265,813.3201801100228,801.5117394347184,1023.9646245787791
1731652965.2599502,941.8241634289097,815.1241838141572,801.1072453187791,1030.957742605534
1731652965.262062,935.5942243376791,817.6979511304244,801.1290813345744,1028.5110713298532
1731652965.263411,937.3562350753199,820.1370415517165,802.1142294772853,1023.7670453561747
1731652965.2659633,946.1093760055119,821.3793600951916,804.1129234486056,1024.1132912821843
1731652965.2666826,954.9944526931307,820.2064870376136,806.3691499255656,1030.4918851076525
1731652965.2698646,956.5501320753007,815.8489223777748,807.7284598064182,1035.9356401206935
1731652965.2737658,948.4378797138372,808.8875531776454,807.565290339104,1030.5554646347114
1731652965.2754943,935.1646079603441,801.5256348924551,806.3773510091578,1009.2884105241309
1731652965.2776673,924.4484149286477,796.6504317825775,805.4371677308077,976.4151261211078
1731652965.2815683,921.0647617560518,796.175485043676,805.7572470487709,943.0460334719298
1731652965.28232,923.1001572708209,799.896533765713,807.2339053809679,919.2180847091611
1731652965.2854698,923.7502873538136,805.7325508413429,808.6837376605739,906.8014481796267
1731652965.289371,917.3250645842918,811.0992885398992,808.7540113379441,899.0218322171613
1731652965.2910385,904.5312815656849,814.3467653181126,806.9772149433196,886.9551074835597
1731652965.2932725,892.5204727009891,815.3384691304565,804.1325909991756,867.4338591872546
1731652965.2971735,889.4342535717059,815.0263682843207,801.668005397232,845.7008695698557
1731652965.301075,897.7022881433562,814.5183216509456,800.7009434550979,830.7954942439623
1731652965.3012288,911.3804818879411,814.2779630833473,801.3826806417873,827.8127432923936
1731652965.3016,919.679015764364,813.8905352391507,803.0031032787352,833.5096019145334
1731652965.3049762,914.1880686877946,812.488596842815,804.5910639487978,838.637071571975
1731652965.3065827,894.6425713141185,809.54339530583,805.4892450714536,834.8623897432217
1731652965.3088777,869.1224721189752,805.4453051792133,805.579833583693,820.7397391609488
1731652965.3127787,848.5415616358348,801.3890386196592,805.1864239475068,802.2391885692199
1731652965.3166802,839.3941452868177,798.594094847733,804.8306196436195,787.6872205852677
1731652965.3201375,839.9897385065159,797.4437401403369,804.9514710133047,781.1911623994248
1731652965.3205814,842.711642424092,797.2233171393608,805.6301509340814,779.5929662341391
1731652965.322127,840.1977823100972,796.6828976861606,806.4389523372611,775.128242772186
1731652965.324483,830.4934997449158,795.0175818407214,806.6045689926427,761.5804490756003
1731652965.328384,817.4291943269305,792.5359021801241,805.5139071635037,739.1983149309955
1731652965.3322854,806.5384600488728,790.5015526745348,803.2510978475932,714.7753265143713
1731652965.3361866,800.2814897814542,790.2432038978475,800.6940654082782,697.020942422636
1731652965.336517,796.5029582060891,792.1962785473104,798.973235786832,690.7704200250851
1731652965.3376713,791.115980302843,795.6085818577745,798.6193870338125,694.1885842871962
1731652965.3390465,782.4841267271834,799.1117442583892,799.0396246688405,700.6792421933385
1731652965.340088,773.5960716032312,801.6581537023587,798.7776228246596,703.7368356888254
1731652965.3439891,769.9290688730888,803.0576668933703,796.4699252010989,701.0474260314771
1731652965.3478904,774.5676976467146,803.7490593559656,791.8994416503486,694.997938064594
1731652965.351792,784.766943010117,804.1304541385474,786.4250375472419,689.5963237772245
1731652965.3532157,793.2806454513103,804.119636934759,782.4280322166138,686.5257636262367
1731652965.355693,793.7796376282487,803.3350848898003,782.0415360826015,683.6533199963295
1731652965.3579557,785.9398628608205,801.6887545334462,785.9122752046072,677.2747833121799
1731652965.3595943,775.78630982827,799.8122516837071,792.7677895538558,666.1718437087741
1731652965.3634956,770.8229913578483,798.8779581206796,800.0974101385302,653.7664256864136
1731652965.3673968,773.9371351018087,799.8734908385696,805.5517308680212,646.0313840926458
1731652965.36876,781.1458789856881,802.8464975600233,808.136421688654,646.5358492486737
1731652965.3712983,785.0518783126404,806.6953692720482,808.3952441274051,652.8896287764352
1731652965.3714345,781.138146101894,809.677983353236,807.6124271404587,658.0465073822407
1731652965.3751996,771.7050458407059,810.2937864633997,806.8418154024574,655.8056634824169
1731652965.3768642,764.1687182057353,808.0219340779574,806.4805063476191,645.9972490751506
1731652965.3791008,764.9681818017857,803.6285585819713,806.4279459639904,634.7960841662432
1731652965.383002,773.8788112206261,799.009826765767,806.4431562350535,629.6008024165552
1731652965.384304,783.3787813225143,796.5620205785906,806.3788361705142,632.6087974378249
1731652965.3869035,783.9013005128504,798.1104626750023,806.2211159676624,638.5450349385192
1731652965.3908048,771.10707345853,803.7853202407724,806.0225130059457,638.6544223725055
1731652965.394706,749.451097497515,811.6205895990552,805.8313871190145,627.7969598451364
1731652965.3957732,729.1283256412535,818.4287425554303,805.6641363420243,608.882890613267
1731652965.3986073,718.9050249113956,821.5860137029296,805.5131906444813,591.2106865330604
1731652965.3998485,720.6740959727157,820.546573175957,805.3654153218107,584.291398543224
1731652965.4025085,729.7545913118116,817.0159609003587,805.2134953920969,591.9870958085365
1731652965.4063516,739.768344704708,813.6911368711493,805.0571916286382,610.8818821507778
1731652965.40641,747.3049889330858,812.4795635560125,804.8994590557462,633.2387873606273
1731652965.4103112,752.6314610262499,813.3917648746137,804.742782724939,651.8812269662137
1731652965.4142125,756.83521695431,814.7565111263607,804.5878963249752,663.7318328478182
1731652965.414682,758.8776165144637,814.4860527755346,804.4343252997273,670.2196343448995
1731652965.4153926,755.6060725799249,811.4505910444565,804.2813744738878,674.9688369765353
1731652965.4181137,744.796039919683,806.0515028623722,804.1286898039347,680.8227552803785
1731652965.422015,728.5333376248401,799.7740144206673,803.9762872032805,688.45766370457
1731652965.4259164,713.7762240716997,794.2762366051625,803.8243360042749,697.4006728333852
1731652965.4298177,708.9406614571387,790.7491267559061,803.6729728320616,708.0940268292434
1731652965.4309368,718.3588997008147,789.762072304923,803.5222419277336,722.5482054810174
1731652965.433591,738.3778261988963,791.2585212584254,803.3721202903547,742.3779109098734
1731652965.4337187,758.2729029405847,794.4623572800126,803.2225575736744,765.8135163226918
1731652965.4376202,766.192134501015,797.9861151758183,803.0735020258812,786.9510346034631
1731652965.4412687,756.7282318336486,800.5159224822751,802.924926822872,798.9817104332785
1731652965.4415216,734.9507766059917,801.7650634149991,802.7768716593314,799.4302003612163
1731652965.445423,713.5658223556477,802.7626392854511,802.6294713907553,793.0300776576785
1731652965.4464812,704.6088786881502,804.9404669149866,802.4828999518612,789.3221902190779
1731652965.449324,711.3891777113522,808.6706213780053,802.3371830782584,796.3069531427317
1731652965.4525,726.6759326346195,812.606202356251,802.1919710317434,814.8548996815206
1731652965.4532254,738.6428445941367,814.5414725195295,802.0465497156845,838.206535372045
1731652965.4571266,740.0753151605796,813.110565797548,801.900394103779,857.0182003428823
1731652965.461028,733.611303248366,808.8582846660171,801.7541814966745,866.0608601918672
1731652965.4620254,728.8422890869841,803.7860358098637,801.6104020749978,867.3491195740733
1731652965.464929,733.7547114824625,799.8339019256048,801.4721442246547,867.3999768746879
1731652965.4688306,747.747604334748,797.645011006957,801.339398379165,871.1890296743608
1731652965.4714086,762.1028138514828,796.6054758167014,801.2049604697577,878.021322466392
1731652965.4727318,767.337981575913,795.9440545534138,801.0553594525492,882.6473197067444
1731652965.476186,760.9807639361122,795.7386077348817,800.8821266429501,880.3076180143776
1731652965.4766333,749.1627771405081,796.8508384556637,800.700747489392,871.1703577518762
1731652965.4775696,741.0264631069477,799.8963168549376,800.5599487850227,860.4770117722783
1731652965.4805346,741.140468253404,804.3060663827711,800.5150372004634,854.5204421484722
1731652965.4844358,746.473982653904,808.4436675977008,800.5564735808879,855.8935432208513
1731652965.488337,750.0881552703135,810.7238799280058,800.5384836399658,861.6974739723034
1731652965.4903176,747.7853730200007,810.7489127564929,800.2126109392717,865.8137612892702
1731652965.4922383,741.7875261916398,809.5070980121808,799.4599667367501,863.2823536898583
1731652965.493114,738.6174542812934,808.5394476615702,798.6583507032485,853.5959168702279
1731652965.4961398,743.4851020796656,808.7926019525278,798.8608995974768,840.8679521374956
1731652965.500041,756.0549064319749,809.980908950233,801.3692348514404,831.1155108780225
1731652965.5039425,770.7711071232304,810.7910492107936,806.6880942751959,828.5916152275304
1731652965.5078435,781.0075681151447,809.7216619130157,813.5959046431573,833.3289151630847
1731652965.5086582,783.5660868415698,806.084714733902,819.3335777947585,841.0950142189396
1731652965.5092263,780.2572365390379,800.6560154142003,821.1505531800519,845.6101170768272
1731652965.5111034,775.7736187494837,795.5484053626815,818.240080583359,841.7466871649267
1731652965.5117447,773.7768349163736,793.1745475093848,812.5615916289311,827.8841963147484
1731652965.5156462,774.274603828902,794.7330683289534,807.7162905778454,806.033217924096
1731652965.5195477,774.289349761277,799.1952188674561,806.5041058668353,779.8783591681325
1731652965.5234487,771.1928153134207,803.7049525932223,808.9495450192985,752.5523336438797
1731652965.5242023,765.7725163213516,805.3872416131097,812.3735373283424,726.0703576129316
1731652965.52735,762.1325462479462,803.3815544503484,813.5044595723285,702.4628528564598
1731652965.5281353,764.2411870397534,799.5374216542954,810.9770682926278,684.6155669853554
1731652965.5312512,772.0974355542087,797.1242378486177,806.3092395324301,675.064830110506
1731652965.535153,781.0983176330615,798.4602779542289,802.7295128895859,673.4789469866269
1731652965.539054,785.4764400018869,803.2532221013838,802.8653968043745,675.5506741001265
1731652965.5397463,783.0487434226542,808.8838592040391,806.9884140076343,675.1538846745703
1731652965.5429552,777.2715201274827,812.3267889003515,812.9115233527917,668.6040322693636
1731652965.5460205,774.7899648728331,812.1898855462947,817.4102199871611,657.6769311736041
1731652965.5468564,780.317428932676,809.4137905990707,818.1135077652908,648.7249384821131
1731652965.547044,792.7745960067462,806.3137648487137,814.6829639856024,648.1606071795977
1731652965.550758,805.6544680510964,804.8660951065019,808.6841593226707,657.4579320349053
1731652965.5546591,811.4069299688695,805.5422055940843,802.4217082304532,671.5323273723598
1731652965.5552907,806.6138883597908,807.3985937939129,797.6314366286153,682.1546778066305
1731652965.5585604,794.1159854061626,809.0926276768862,794.9006849543632,684.1775116691692
1731652965.5624616,780.6174735427874,809.8648548549415,794.0211558667022,679.7519965883129
1731652965.565953,771.8276795124002,809.7865912876497,794.6960350357036,676.9436483324655
1731652965.5663629,768.9888718991699,809.3536642961321,796.824054445203,683.6456844368125
1731652965.5702643,769.2441432836711,808.9846948269458,800.1637378215238,701.6339790753404
1731652965.570835,769.0653517643634,808.8159945402402,803.938812271827,725.415157028877
1731652965.5741656,767.6696922937593,808.7799348486814,807.0262237628718,746.4242370877282
1731652965.5780668,767.6672574136312,808.7643184289923,808.6436109617523,758.9152838256116
1731652965.580938,772.5343568657895,808.7081625975783,808.8162786680072,763.0775926954253
1731652965.581968,783.0162573442476,808.610684566539,808.1757434871737,763.6282434146515
1731652965.5848618,795.4994684379103,808.4974887225953,807.3960669095171,765.6450770816929
1731652965.5858693,804.0525466749907,808.3895259580437,806.8196847048017,771.0076655538201
1731652965.5863793,804.9362512436612,808.2926528240073,806.4556849866133,777.8385396357958
1731652965.5897708,800.0202985263886,808.2025730198296,806.1717172639718,782.9256174334688
1731652965.593672,795.9423023548372,808.1133043617415,805.8597719002926,784.9573129018165
1731652965.5975733,799.2095071988059,808.0218711018933,805.4905748843162,785.8638364139396
1731652965.6014743,811.0770429379392,807.928442046229,805.0872344028853,789.0798265664478
1731652965.6019237,826.4819999614862,807.8344249140897,804.6810088745322,796.1574957627091
1731652965.6037707,837.8804871890793,807.7408729622432,804.2871457637153,804.751320222358
1731652965.605376,840.6212842918138,807.6480214254956,803.9044823532589,809.9843053321202
1731652965.6092772,835.4200235963915,807.5555992284578,803.525521982411,808.2838667932511
1731652965.6131785,826.4234598635229,807.463279160709,803.1447210310422,800.5295611431202
1731652965.615855,817.3193608055482,807.3709062832468,802.7608300356455,791.8361935605716
1731652965.6170795,809.2377664683796,807.2784882988442,802.3752163690812,788.0685071887219
1731652965.617468,801.9010462793337,807.18608962946,801.9895075115425,791.8250657801232
1731652965.620981,796.1331095998751,807.0937502957718,801.6044151029295,800.9772790721246
1731652965.6226797,794.6871312158962,807.0014661521881,801.2198025572354,810.7624187154179
1731652965.6248825,800.2746742103244,806.9092078460517,800.835246822171,817.6711340248895
1731652965.6287837,812.6179597806804,806.8169445646496,800.450462142111,822.0676874217744
1731652965.6326847,827.4822655480731,806.7246549821077,800.0653965151315,827.5475515498503
1731652965.633012,838.9846673157265,806.6323258565249,799.6801197646564,837.6102647824194
1731652965.6365862,843.5634046037536,806.5399462331773,799.294685536019,852.3332941033603
1731652965.6404874,842.4133179226685,806.4475034767064,798.9090735444399,867.7287354422587
1731652965.6415884,840.3314050024711,806.3549826666061,798.5232271903942,878.3265260843344
1731652965.644389,841.8232307688522,806.2623677842662,798.1371429224109,880.9704135427919
1731652965.6482902,847.5512376377804,806.1696426484907,797.7509325004111,876.9101133287731
1731652965.6485565,853.914121320334,806.0767907160518,797.3647671668372,870.6891260924459
1731652965.6507723,856.0261868499141,805.9837943500171,796.9786643408102,866.8182312597539
1731652965.6521914,851.7050258476164,805.8906350375592,796.5922318417855,866.8174341494496
1731652965.6560926,843.3584247504633,805.7972956322914,796.2046807301845,868.7976973039971
1731652965.659994,836.3511551765904,805.7037636794036,795.8154349470348,869.747006862803
1731652965.6604972,835.1394136796864,805.6100320828493,795.4252374520502,868.56802517886
1731652965.6638954,840.0909577058528,805.5160925100471,795.0368029463298,867.2745407772308
1731652965.6641006,847.2904369243346,805.4219215575315,794.6534688846966,869.2056033351574
1731652965.6677966,851.3635806814137,805.3274702985879,794.2751523662312,875.6599669942948
1731652965.671698,849.2138239707127,805.2326769648081,793.8939172928501,883.9100573471046
1731652965.675599,842.0496121165156,805.1375150333929,793.4950790288701,888.6376791284254
1731652965.6794062,834.3899815776182,805.0420537780864,793.0695875623428,885.9993390465366
1731652965.6795006,830.8265674660156,804.9464597931562,792.6346540380744,877.1074648719671
1731652965.6796448,832.7710068430292,804.8508589851974,792.2435870166782,867.8663057005663
1731652965.6834018,837.3782147671121,804.7550745806656,791.9562749745875,864.9033958507604
1731652965.6856897,839.4229050705562,804.6584575587092,791.7611711341175,870.6002204401926
1731652965.6873033,834.9737856797235,804.5601786329878,791.4983206516445,881.2182458136342
1731652965.6912043,824.4126483087001,804.460169607811,790.898134256645,889.8157039144014
1731652965.6951056,812.6187410306518,804.3602070980362,789.8374735061499,891.7517586366844
1731652965.6951892,806.0117278920807,804.2637520811293,788.7425501678739,888.3053081816171
1731652965.6983151,808.4144820539796,804.1731281035833,788.7892338869766,885.375874366978
1731652965.699007,818.6499502560332,804.0846097982508,791.4686037722423,888.3475451844331
1731652965.7029085,831.5834433906875,803.9857894230454,797.546101867503,897.5002315660771
1731652965.7068095,841.7558577921197,803.8620713972315,806.1735050985203,907.8867134003492
1731652965.7107108,846.7611378191026,803.7149619026814,814.9981765855715,913.6542785395592
1731652965.7107334,847.7730787646548,803.5812111599218,821.2871492859259,912.8527565280995
1731652965.714612,847.0817168420743,803.5261079080265,823.2665967919187,908.4229300096362
1731652965.717224,845.1436079119873,803.5863717622461,820.8574178658674,904.6249531364663
1731652965.7185135,840.0739054908514,803.6787568606679,815.5380961421732,902.3485715692461
1731652965.7206068,830.1817708666357,803.5616102276971,809.561679155879,897.7415107251772
1731652965.7224147,817.1257272035217,802.9751021538447,804.9288033493312,885.5773659782143
1731652965.7262776,806.3872486940556,801.9920259072267,802.5675837944492,864.4845085832736
1731652965.726316,804.0020668864455,801.344646676043,802.1654977790197,839.3143188155827
1731652965.7302172,811.941694414981,802.2561482030964,802.7295468210895,818.1629648763648
1731652965.7341187,826.0609159637243,805.5595647654521,803.3671974622146,806.1033166266701
1731652965.7361329,838.6047640534456,810.6947081784142,803.6934856352832,800.7549566132021
1731652965.73802,843.4758979369171,815.6118456749209,803.7518234664285,793.6772502231844
1731652965.741822,840.114226309224,817.8749446484826,803.7327661216655,776.902352340009
1731652965.7419212,833.008331275906,816.0921544979918,803.7678452676221,749.5290807400045
1731652965.7458224,827.5202403964912,810.5707657730585,803.8799965660525,719.0055921272165
1731652965.7497237,825.6806886888845,802.9204156057076,804.0308097019746,696.0005474640424
1731652965.7536252,825.3829579376883,795.1748781344146,804.179397189007,687.0236090460511
1731652965.7550416,823.295118613309,789.0910540143723,804.3093198386064,690.6389122091231
1731652965.7555242,818.6281016712151,785.8006506441005,804.4249081780569,699.8678471706503
1731652965.7573662,814.3662201800661,785.6212982541034,804.53671168306,708.2708756307621
1731652965.7575264,814.9440024474516,787.9407104878817,804.6513613177376,714.6269933291062
1731652965.7614276,822.3944487061058,791.3873745673365,804.7696614666858,722.791448907889
1731652965.765329,834.1431673689582,794.4709764552005,804.8894107669428,737.309378349719
1731652965.76923,844.1960099118205,796.4197748964951,805.0084929884249,758.4774381209447
1731652965.7729104,846.8833109272033,797.5778865515223,805.1261528740984,780.7574192792596
1731652965.7731316,840.5633974164346,798.9811462110866,805.2426946250401,795.8662802520992
1731652965.7739506,828.7645254171439,801.4361134566186,805.3586902560837,798.3610252543893
1731652965.7770329,817.9126246930048,804.8533090203592,805.4744709274304,789.5893346983345
1731652965.780934,813.0556861645031,808.3062554826594,805.5900571116217,776.9818634928148
1731652965.784835,814.5151653874432,810.6491502102972,805.7053221631185,769.1034699098295
1731652965.7884548,817.9708896362163,811.168539683091,805.8201576106949,770.0787098973676
1731652965.7887368,818.0491860067252,809.8828808809076,805.9345399923354,777.4700347772668
1731652965.7904413,812.7042689397788,807.4455291288098,806.0485128699465,785.0316600286582
1731652965.792638,804.9035536768577,804.8165649630818,806.1621327420197,788.0471809652621
1731652965.7928593,800.2221566218964,802.8887762277674,806.2754145776731,787.0513739475931
1731652965.7965393,802.3141834407779,802.1991680943086,806.3883015990688,787.0900854555467
1731652965.8004403,810.0339754760383,802.8059822915905,806.5006897569281,793.2312011222775
1731652965.8039987,818.5961214799886,804.3570459592746,806.6125303592711,806.0160910405631
1731652965.8043418,823.6583884457106,806.30649793342,806.7239740835489,820.5457381120796
1731652965.8082433,824.644177348452,808.1754214871049,806.8354147740752,829.9086815660507
1731652965.8117683,824.3969260319293,809.7329753875608,806.9472430120512,830.1495871086324
1731652965.8121445,825.7396155186649,811.0151529962858,807.0592824833677,822.8501979375415
1731652965.8160458,828.3962117704276,812.1807893229097,807.1703047131658,813.4783621502706
1731652965.8195431,829.2297259250854,813.2857781498741,807.2784292271232,807.0744314055457
1731652965.819947,825.4164586869979,814.1008634661613,807.3830013807967,804.7614258394905
1731652965.8238482,817.3511149692391,814.0986595007271,807.4871787020123,803.6378575222726
1731652965.8253586,808.5058114755707,812.6868170417399,807.5984062726778,799.8559535542739
1731652965.8277495,802.577517087224,809.639674324311,807.7232892795832,792.3207877240624
1731652965.830677,800.811468808761,805.4944963111287,807.8568813845162,784.075689306425
1731652965.831651,801.8101107327674,801.5706198552178,807.9745442035893,780.1711761325147
1731652965.8350875,803.3566063513574,799.4268949112869,808.0415964939768,783.4707902343926
1731652965.8355522,804.1169957056358,799.9875446425607,808.0502454047047,791.6378259335004
1731652965.8394537,803.983374899925,802.9278200682533,808.0660596522399,797.9926884006912
1731652965.8433547,803.461125231944,806.8371534018963,808.2283337748761,796.0585080421905
1731652965.8472562,803.0096094213445,810.1169727530745,808.6403390618049,784.4870894263921
1731652965.849586,802.7834045665078,811.9517429038564,809.1558276735624,768.4154406078554
1731652965.8506317,802.7101715635523,812.5958761595775,809.2126638213604,755.9944987354792
1731652965.8511574,802.6654706647514,812.8037842577829,807.9506988101458,752.7144188632058
1731652965.855059,802.5803113221592,812.9872276776329,804.6972628600718,757.9080089787186
1731652965.85896,802.4526849192158,812.8834122892379,799.579198284346,765.9547203600591
1731652965.8602755,802.3106522402185,811.9648834357093,793.842641832336,770.8538356800767
1731652965.8628614,802.1776823243432,810.0960232837418,789.5379271964428,770.2799196433622
1731652965.866176,802.0606197628396,807.7740703003835,788.4829952923086,766.1195812215431
1731652965.8667626,801.9548977866476,805.7794774605612,790.9353015902118,761.8556806901564
1731652965.8684947,801.8539071053101,804.6154556256142,794.9689745404936,759.6856249769819
1731652965.870664,801.7542972031001,804.1988136151591,797.4067456639555,759.6492223249927
1731652965.8745651,801.6562169782765,803.9428249932771,795.9829600408232,760.6011036579878
1731652965.8784664,801.5612298967613,803.087284094344,791.1572042363423,761.4922875521481
1731652965.88172,801.4705323316816,801.0888287920242,786.0124822043375,761.9329950117462
1731652965.8823678,801.3844155111643,797.929401846338,784.162694334911,762.0481613648841
1731652965.886269,801.3025982426033,794.1987183406093,787.2440481528072,762.102008580387
1731652965.8874035,801.224726071385,790.8641874399824,793.8665665972355,762.2523408743419
1731652965.8901703,801.1506301367012,788.8438614167885,800.6775086865135,762.5123045287389
1731652965.8940716,801.0803210472898,788.6674555775576,804.613672456431,762.8246235397238
1731652965.895193,801.0138727376489,790.418688171918,804.7391695771897,763.1376031615763
1731652965.8972645,800.951331653526,793.864359631053,802.5640516497572,763.4343414403008
1731652965.8979733,800.892693615601,798.513449921654,800.8331487765274,763.7235558192693
1731652965.9018743,800.8379242757335,803.5132049778351,801.6938627996583,764.0196362129027
1731652965.9057755,800.7869855744533,807.6071684353853,805.4141328156064,764.3305286844823
1731652965.9063125,800.7398482915544,809.4720044161571,810.3617166298283,764.6565548612289
1731652965.9096768,800.6964908215463,808.4346672918359,814.1098781892562,764.9946692136602
1731652965.912809,800.6568928370084,805.1000622827702,814.8656255630948,765.3423934783675
1731652965.913578,800.6210307568876,801.2730588850135,812.3392518209741,765.6991539051717
1731652965.9174795,800.5888768643126,798.9866049238194,807.6568296598882,766.0656665825679
1731652965.9213808,800.5604005856693,799.1808607516876,802.5564765858915,766.4428678114538
1731652965.9252214,800.535569940061,800.9999912814235,798.469370393467,766.8313172267002
1731652965.925282,800.5143521961904,802.3399667659621,795.9979225475091,767.2311770225176
1731652965.9283528,800.4967138172111,801.3666902266518,794.9333094000149,767.6424517345407
1731652965.9291832,800.482620172286,797.940172649169,794.6299414527876,768.0651901409033
1731652965.9301102,800.4720353656114,793.8724108242185,794.4684968599333,768.4995446720791
1731652965.9330845,800.4649222594882,791.7416402544874,794.2208266039203,768.9457323948524
1731652965.936986,800.4612426023185,793.0153905184179,794.2085982630791,769.4039780067151
1731652965.9408872,800.4609571568573,796.800544788581,795.1746699174491,769.8744846509815
1731652965.9438972,800.4640257827572,800.2395912822905,797.8488862658893,770.35743485616
1731652965.9441304,800.4704074813943,800.4995706275524,802.3599477228806,770.8530037636307
1731652965.9447885,800.4800604291811,797.0639025346044,807.8495342849434,771.3613692957974
1731652965.9486897,800.4929420170674,792.55113453932,812.6648877276198,771.8827145762392
1731652965.9525907,800.5090088992421,791.1587628412141,815.1686069153759,772.41722542462
1731652965.9564924,800.528217045802,795.655325656341,814.6742060856012,772.9650872139666
1731652965.9594414,800.550521793741,805.1804819489084,811.791765902341,773.5264833285967
1731652965.9603937,800.5758778937933,815.6437808564383,807.8855161862666,774.1015951816743
1731652965.9630392,800.6042395536068,822.4541223453044,804.1037709786792,774.69060279739
1731652965.964295,800.6355604791307,823.4343420135168,800.8178716397898,775.2936851745264
1731652965.9650276,800.6697939162838,819.7433913529519,797.8979985404243,775.911020228679
1731652965.9681962,800.7068926941529,814.3875046416308,795.4276564372226,776.5427844866928
1731652965.9720976,800.7468092688208,809.8223794465501,794.0236891330853,777.1891527602661
1731652965.9749856,800.7894957637412,806.6224664533936,794.3447318181286,777.850297906915
1731652965.9759989,800.8349040008558,804.0031192841284,796.2559144551225,778.5263906679426
1731652965.9799,800.8829855206527,801.317746555321,798.573277229511,779.2175995286789
1731652965.981948,800.9336916010876,798.9770367278037,799.8226952895756,779.9240905614962
1731652965.9838014,800.986973298128,798.0154263600884,799.4470350015837,780.6460272434709
1731652965.9877026,801.0427815275968,798.8957627188294,798.3627564132117,781.3835702592537
1731652965.99053,801.1010671722902,800.7917870267289,798.2685318026957,782.1368773012514
1731652965.991604,801.1617811386185,802.0278160704011,800.2262172433605,782.9061028723734
1731652965.995505,801.2248742581926,801.2700873218273,803.7301709702741,783.6913980903794
1731652965.9994066,801.2902970147087,798.4947720173662,807.0666279958745,784.4929104908921
1731652965.9999447,801.3579993026666,795.0672585977795,808.6061539388377,785.3107838274306
1731652966.0008569,801.4279306504386,792.974158627978,807.8792586873302,786.1451578689476
1731652966.0033078,801.5000412372492,793.7175931414375,805.5977710257488,786.9961681964576
1731652966.0060742,801.5742833150301,797.4533372393248,802.8165693959845,787.8639459996476
1731652966.0072093,801.6506115398414,802.8426194999491,800.130068560915,788.7486178722497
1731652966.0111103,801.728980317504,807.8151619246454,797.5716593332544,789.6503056030242
1731652966.0150118,801.809338092653,810.8301787084438,795.1093941322293,790.5691259601616
1731652966.018913,801.8916228582669,811.6739214103906,793.1175122376028,791.5051904726686
1731652966.019766,801.975767060631,811.1973730341911,792.346617320807,792.4586052206513
1731652966.0216184,802.0617172594395,810.4333999017031,793.4365550478828,793.4294706486613
1731652966.0228145,802.149459561629,809.954403439149,796.3925922608959,794.4178814011998
1731652966.0267158,802.2390215386646,809.811914214255,800.4330538908866,795.4239261461105
1731652966.030617,802.3304166668502,809.8126728297651,804.3338730199706,796.4476873241757
1731652966.0345182,802.423535833017,809.7826382774301,807.0619278173929,797.4892407895036
1731652966.034862,802.5180734228474,809.665982843372,808.2747332332096,798.5486554182619
1731652966.0371628,802.6136413298194,809.4929747717331,808.3413568962002,799.6259929137476
1731652966.0384195,802.7101544506407,809.3121164364084,807.9296408262815,800.7213080547086
1731652966.0386746,802.808287426891,809.1494973513907,807.5496529118426,801.8346493193106
1731652966.0423207,802.9094331964103,809.0052996709602,807.3764944494974,802.9660591840523
1731652966.0462222,803.0145627580243,808.8684748303522,807.3486439529536,804.1155729430241
1731652966.0501237,803.1221861464362,808.7300661474817,807.3467672712773,805.2832155157138
1731652966.052707,803.2271865029485,808.5876268957229,807.3030211053971,806.4689979340114
1731652966.0540247,803.3233804498195,808.443050974072,807.2146659030761,807.672917912401
1731652966.0575836,803.4110261656214,808.2989278572937,807.1088494388613,808.8949688163493
1731652966.057926,803.5049290068109,808.156541141589,807.0086689073881,810.1351548646188
1731652966.0618272,803.6321572814164,808.0158245836429,806.9210732518038,811.3934984735763
1731652966.065729,803.8089155510626,807.8761871376859,806.8417396559549,812.6700183872425
1731652966.0682511,804.0025749315633,807.7371952234597,806.7642079719823,813.9646713820056
1731652966.06963,804.114454899113,807.5987655106885,806.6851407907773,815.277293727302
1731652966.0697792,804.0361847416845,807.4610252430243,806.6046325227836,816.6076269413487
1731652966.0735312,803.796150717672,807.3241181240974,806.5241975288448,817.9555019936078
1731652966.0764923,803.7052022038717,807.1881140468255,806.4450176365035,819.3211241456693
1731652966.0774324,804.2966995045638,807.0530282298832,806.3673959951758,820.7051776488092
1731652966.081334,805.8994768067818,806.9188772282048,806.2910707848399,822.1083589320709
1731652966.0837955,808.0521024382389,806.7856996894404,806.2157030821738,823.5302585628036
1731652966.085235,809.476319767341,806.6535146072423,806.141135642218,824.9683532066358
1731652966.0891364,809.1362179089148,806.5222518599411,806.0673918190942,826.4187187083069
1731652966.0930376,807.5937891519158,806.3917437684551,805.9945619416574,827.8797106385576
1731652966.0954013,806.9489062608575,806.2618661095665,805.9227087461176,829.3571981576479
1731652966.0969388,808.8910374199836,806.132807449611,805.8518369505487,830.8658029704228
1731652966.0993395,812.6409411528082,806.0052359388825,805.7819118168273,832.4190422387312
1731652966.1008403,815.0072333778321,805.8799835662996,805.7128989701242,834.0079834959425
1731652966.1046965,812.8350285595078,805.757069648359,805.6448049661653,835.5841960766111
1731652966.1047416,805.86626773456,805.634609546663,805.5776962580712,837.077465308922
1731652966.1086428,797.5695487334723,805.5090439545866,805.511665069834,838.4685815276322
1731652966.112544,793.0886480594547,805.3781070651507,805.4467259439431,839.8842931189023
1731652966.11431,795.7083630522195,805.2458519057295,805.3826944455623,841.6053109575221
1731652966.114884,804.4263498980138,805.1251580107338,805.3191931149175,843.8589071368552
1731652966.1164453,814.5207977726704,805.0307425429603,805.2559417042572,846.4073074081728
1731652966.1203468,820.8701934607813,804.9602566627126,805.1932876425814,848.2453280786361
1731652966.124248,821.627262023859,804.8752019156186,805.1325262009653,847.9486063899391
1731652966.1281493,819.3128683606992,804.709353850564,805.075267206825,844.8966168822501
1731652966.1304283,818.240366063026,804.4295034387837,805.0215043030505,840.5384429722664
1731652966.1320505,820.2937442347471,804.1313615092397,804.9674719895289,838.0659649933766
1731652966.133219,822.8376820992344,804.0832184521809,804.9061239078035,839.9398889013927
1731652966.135952,820.989597652851,804.6010851216163,804.8330146184028,845.2535271450597
1731652966.1396136,812.5746897851036,805.7640293323192,804.7562040931433,849.863796938179
1731652966.1398532,801.2821102867571,807.23093182617,804.7011279751961,849.8060009265255
1731652966.1437545,794.7144665476188,808.4380669685956,804.6966904033775,845.049774201762
1731652966.1459725,798.4723608568291,809.0306351780016,804.7379324175092,839.9088587303347
1731652966.1476555,811.1960168352006,809.0698541272671,804.7486102193164,839.3631465169934
1731652966.151557,825.0124576361204,808.8595857214927,804.5983907164189,844.4445378724781
1731652966.1521275,831.3348529588313,808.6646193221679,804.2234334864237,850.9585222376095
1731652966.1554585,827.362230490389,808.5826130384202,803.8162593998918,852.9891014427659
1731652966.1593597,817.9767867203922,808.5832779328645,803.9132462859068,848.334841309136
1731652966.161517,811.549044804033,808.6018491433351,805.1587560376469,841.1036203719373
1731652966.1632607,813.1164146604716,808.5997252814017,807.7491686911746,838.9234637144422
1731652966.1671622,820.4050789994861,808.573834089151,810.9695047861633,846.7479292514979
1731652966.1710367,825.7673198209744,808.5383439498677,813.3500418791359,862.2163459420449
1731652966.1710634,822.3901316023416,808.5059930967742,813.5024745200187,876.4548448736483
1731652966.174531,809.8263003172427,808.4809456142785,811.0717401370207,879.9444569550822
1731652966.174965,794.5165597115287,808.4610738905596,807.1003627200388,869.1013009453372
1731652966.177061,784.9809408467216,808.4428693136533,803.5306707520238,848.680532094811
1731652966.178866,785.5735904122026,808.4244151368795,802.1448373450678,828.3719518866021
1731652966.1827674,793.7121433716999,808.4056690518241,803.5607549030588,816.351240940215
1731652966.1866686,802.4894320076373,808.3874127746708,806.838075507773,814.638449673658
1731652966.1899457,806.140556965412,808.3702849839608,809.9015510551908,819.3769987626489
1731652966.19057,803.7917944808723,808.3544546223853,810.5678848332864,825.1381083795311
1731652966.1926053,798.8595555272609,808.3397742439281,807.6822970352745,829.3742126877621
1731652966.1944714,795.3587496434213,808.3260444953868,801.8325378240037,833.4996233757414
1731652966.1983726,794.6494824104034,808.3131607189467,795.2746348651655,840.2446469608025
1731652966.2022738,795.1168405970482,808.3011151340512,791.0080829448497,850.1023411399577
1731652966.206175,794.3845381050421,808.2899324717176,791.3246125767724,860.1879295692169
1731652966.2081494,791.6718837562407,808.2796164185063,796.4983155621654,866.3985143806156
1731652966.2088544,788.2820405979504,808.2701399094994,804.3711560116943,866.7382514761834
1731652966.209448,786.1697556146305,808.2614729677067,811.2547995241216,862.7997447060516
1731652966.2100766,786.1541042150839,808.253619610038,813.8540402088668,858.2401307371146
1731652966.2139778,787.3571601889032,808.2466255462948,811.1424150902403,855.7414100877274
1731652966.2178793,788.1491809405288,808.2405257019318,804.8852310088048,855.0559636183633
1731652966.2217803,787.572702276864,808.2352418700492,798.2899958841449,853.641049956014
1731652966.2236938,785.997262705691,808.230516130844,793.725142547712,849.2651624350154
1731652966.2256815,784.6221920670365,808.2260207641777,791.3302050787379,842.503018965838
1731652966.2277634,784.4533436655263,808.221714900932,789.6325817668253,837.1230403526497
1731652966.229583,785.6445903815824,808.2182549873771,787.4917142580148,837.8400266452244
1731652966.2334845,787.5940425602616,808.2169341150831,785.5106148218937,846.8438996919111
1731652966.2373855,789.5623309891064,808.2186145071183,785.633480121793,861.6562640967643
1731652966.239238,791.3401568660505,808.2218701179617,789.3912229754749,876.1946081253399
1731652966.2412868,793.5855322622198,808.2219917821217,796.4745348447422,884.605573686841
1731652966.2443657,797.5896952081648,808.2134451667438,804.898593082827,885.1310249258948
1731652966.245188,804.3867857696189,808.1967885502456,812.4551467969027,880.9821541634353
1731652966.2466722,813.5330176066352,808.185910303679,817.9762277732469,877.4058095162978
1731652966.2490897,822.4816731371991,808.2054895809463,821.2818442181891,877.203315148401
1731652966.2529907,827.5500720986481,808.2694037399541,822.1550113908075,878.3894216772704
1731652966.2547822,826.3574707688407,808.3462007213611,819.7395269308548,876.0931504280538
1731652966.256892,819.9526947887052,808.3446824507295,813.264685328635,867.2595641838552
1731652966.2607932,812.4720973498394,808.1672721695056,803.4685286163752,854.1091904600218
1731652966.2646947,808.0607998768415,807.8436193752432,793.1613833107168,843.0730963152898
1731652966.2655811,807.478970479799,807.6570156069171,786.0719386511612,839.6899165146826
1731652966.268596,807.5314921692002,808.0714094303439,784.7399811450327,843.5746102491529
1731652966.2703264,804.1318117665095,809.3039742546167,789.1098572608527,847.7899200438486
1731652966.2724972,796.4526343414378,810.7047581658215,796.8214056664605,843.4335896353109
1731652966.2763984,788.4322459796329,810.564103841671,804.7648511622482,825.9854578105011
1731652966.2792826,786.1100317114721,806.9730115834828,810.6498092765888,798.5672124581743
1731652966.2802997,792.8909667248261,799.4704272998309,813.6927370136608,769.8000780431429
1731652966.2842011,806.6289588395979,790.1505816454318,814.415813769304,748.1099639638527
1731652966.28449,820.8568956732088,783.0047746905424,814.0348505396977,736.729963176005
1731652966.2858708,829.0844452059233,781.6601928754636,813.7713684584896,732.6971966330661
1731652966.2881024,828.8083563914348,787.0417880791349,814.1876759064231,729.9954397796263
1731652966.2920036,822.4454822530012,796.6179789555147,814.7516207763488,724.1621633574466
1731652966.2959049,814.9800761037342,805.7596105483151,814.0291840536484,714.9957420908383
1731652966.299806,810.4486174421188,810.2933757625585,810.6427949065927,705.65402921626
1731652966.301415,809.8085472577847,808.6572447530065,804.4551937572332,699.1833083116419
1731652966.3033988,811.3073237055552,802.5131882291383,797.0379925008334,695.4622384843908
1731652966.3037076,812.5409058708271,795.6727301968394,790.9116324142523,691.2057957443869
1731652966.3076088,812.397935581391,792.0015842246064,788.0249771229012,683.1162472538339
1731652966.31151,811.5384917726198,793.3588564239669,788.6128783986071,671.448725446399
1731652966.3142,811.3755246387402,798.6518133314737,791.3015240453669,660.6702844275302
1731652966.315411,812.6338062851137,804.6205478767218,794.3151588798856,656.2670206103263
1731652966.3169591,814.696628344777,807.9599904057939,796.7356454544907,660.1350431106229
1731652966.3193128,816.1588375812814,807.4151374179588,798.7768898170899,668.4065627380531
1731652966.3223076,816.0017525275347,804.4257605746843,800.9671213396791,673.7374925569347
1731652966.323214,814.3774709427757,801.9394917821286,803.1417649214836,670.5029235854366
1731652966.3271153,812.3988957547984,802.3248794734757,804.2963857557504,658.9132491984074
1731652966.3310163,811.1797246123833,805.8400301680905,803.4903146491745,644.7853456897705
1731652966.3325036,810.9682737706894,810.5520244869621,800.9420274553765,635.1324123043985
1731652966.3349178,811.1138680415808,813.5613274373727,798.2151382505743,633.1355097673076
1731652966.3388193,810.881536912376,812.668842244062,797.1907143238998,636.4889935313339
1731652966.3412166,810.3648351903494,807.5565895733076,798.6238360983812,640.1157273972299
1731652966.3427205,810.5843114305919,799.9452193464263,801.492439681197,640.535703694479
1731652966.3466218,812.5022312043341,792.7242529995974,803.7089320224138,638.1222939899013
1731652966.3480475,815.6901520998484,788.5161094151515,803.6539198998411,635.817959359849
1731652966.349117,817.9380088937421,788.3920337807416,801.3559189753028,636.0999149182297
1731652966.350523,816.5651471101456,791.3990664931886,798.4569377508049,639.0881395329332
1731652966.3544242,810.7486494862411,795.1804201951476,797.0333834139266,643.108951703719
1731652966.3583255,802.9496044356844,797.4091942968391,798.1392670558005,646.7046900233903
1731652966.3601253,797.8136596362929,797.2417891784471,801.081556140012,650.1101832717253
1731652966.362227,798.8983138506759,795.8532506767976,803.9039395740407,654.9982725472757
1731652966.363592,805.6891502416463,795.6026455476846,804.7217364897771,662.800699913835
1731652966.3661282,813.57973328493,798.3370341834734,802.9640630517421,672.9921792155776
1731652966.3700294,817.2555063218597,804.0659177553146,799.6670769657486,682.8034472567366
1731652966.3739307,814.9482636465372,810.9990486666766,796.692049511207,688.8505029404578
1731652966.3778322,809.9687761067127,816.8314964313034,795.5347410979183,689.6504289658089
1731652966.3790345,807.9815834872172,820.1661620283305,796.5818313708722,687.0471323126674
1731652966.3791363,812.0856563704775,820.9928939794291,799.1676070496871,685.1743990518531
1731652966.3817334,819.7910892531778,820.0792108059176,802.1587090574379,687.5022092290941
1731652966.3840344,824.573697282598,818.0261015450931,804.6014235966496,694.1887942032562
1731652966.385635,820.9351523592657,814.8509345531982,806.1581619516654,701.862291551374
1731652966.389536,808.9108435029893,810.3516843408512,807.2240194149341,706.0732912829991
1731652966.3934374,794.3017338603507,804.8142046900036,808.6255139758395,704.5721908596357
1731652966.3946805,784.4007083734176,799.3899041841888,810.9399036642776,698.9749356182926
1731652966.3973386,782.7453178716036,795.7752405744744,813.8498784729071,693.6377516437477
1731652966.397943,787.1823340367004,795.3560765149115,816.1504520908152,692.5908302088499
1731652966.40124,792.559948988042,798.3488281057333,816.5905761304473,696.7483879690068
1731652966.405141,795.3224726408743,803.4740346610943,814.9098409498264,703.4585795592932
1731652966.4090424,795.8528533541511,808.3907584734449,812.1024983398225,708.8217001741071
1731652966.410225,796.8364946075656,810.7130850115842,809.6062283797745,711.0942435458988
1731652966.4129438,799.7577549638104,809.1336132613139,808.1626912719049,712.5014671087131
1731652966.416845,803.1483770170296,804.1021659655893,807.4101223582765,717.8754418369066
1731652966.416852,804.1265919265715,797.6736657965912,806.5013423444535,730.9774868085265
1731652966.4189515,801.4583045192591,792.5289022398954,805.030915266502,751.1924978860183
1731652966.4207463,797.1270579614695,790.6557110523914,803.3565041268037,773.0746012918946
1731652966.4246476,795.0648362899907,792.4344436138217,802.1316661018216,789.2053197420153
1731652966.425769,798.2729832617568,796.6074451758753,801.6654482731907,794.4722957098147
1731652966.4285493,806.6741755758253,800.9889452520317,801.749645400763,788.8277538844354
1731652966.4324503,817.152755463277,803.387749642278,801.9670750130431,776.6739403683733
1731652966.4357607,825.5580544506603,802.4007570358672,802.0425698407397,763.5941269706456
1731652966.4363515,829.2839645790158,798.0527445784691,801.9386612353998,753.1942684119691
1731652966.4402528,828.840319778191,792.1151194899525,801.7482251188,746.4774835917648
1731652966.4413133,827.43490453878,787.585775634704,801.5636792088098,743.6310590003998
1731652966.444154,828.7318004568999,787.117316820756,801.4200019856796,745.7778875974153
1731652966.4480555,834.1774737356333,791.2324204217916,801.3057912418124,754.4859075193003
1731652966.4519567,841.7454197869966,797.7949636100896,801.1968873208457,769.4093381813072
1731652966.4538689,847.0468896326262,803.392250657931,801.0787608789523,786.674463291891
1731652966.4546697,846.0301944010438,805.6322671129275,800.9501069999061,800.1959912665843
1731652966.455858,837.3721114119255,804.5441905720902,800.8161235030232,805.4115389984988
1731652966.4568574,823.053609146321,802.1061812738544,800.6815577858104,802.5201213258881
1731652966.4597592,807.0160448518219,800.5234001064277,800.5479996397167,796.4219990057131
1731652966.4636605,793.013289704122,800.7435970013715,800.4146909782862,793.1628283825097
1731652966.467562,783.0623261701536,802.2300777358982,800.2803413550064,795.6350797273838
1731652966.4714632,777.2747798918111,803.8422859819624,800.1442412208285,802.0256362032763
1731652966.472402,774.8119745687557,804.8572033394155,800.0063773755747,808.2200341738102
1731652966.4735787,774.9397596898646,805.27257804686,799.8670472004922,811.9633144744099
1731652966.4753644,777.2510537869128,805.3269674348378,799.7264989742054,815.0832630729304
1731652966.4792657,781.0338572713856,804.8973820917836,799.5848095129633,821.8653526716647
1731652966.4831667,784.6921767557794,803.4667261685019,799.4419417279834,835.072401741806
1731652966.4870684,786.17710769382,800.725015731604,799.2978430885983,853.0558873982893
1731652966.487946,784.4261851369561,797.2245832543393,799.1524958916544,870.3154629730831
1731652966.4887862,780.6696345985633,794.4568420411672,799.0059085172505,880.9395612007377
1731652966.4909697,778.225603340046,794.2286400877131,798.8580837738297,882.239422657775
1731652966.4924874,780.4521959605505,797.7333196726872,798.7090075639478,876.1019788834262
1731652966.494871,788.1359688567333,804.8115702480798,798.5586798200467,867.4814985598517
1731652966.498772,798.4382211429815,813.6963998477945,798.4071696471248,861.3285813335154
1731652966.5026736,806.6442241887048,821.3859835642766,798.2546323740172,859.9890501969116
1731652966.5034902,809.726247109888,824.7203163918596,798.1012142549093,862.5646500467512
1731652966.5065749,808.8909133691935,821.9500063797901,797.9468412888494,866.3724356088907
1731652966.510476,808.7067356170093,814.0266702608034,797.7910505734542,869.2593221287719
1731652966.5113964,813.1703550846966,804.5770847931506,797.6331669130363,871.0315678665079
1731652966.5143774,821.8920888589892,798.1725040883537,797.473024631713,873.0627981550494
1731652966.5182786,829.7671089024288,797.8103030133564,797.3119069776575,876.6422125809518
1731652966.5190346,830.6487905399224,803.3083477050247,797.1526254582402,881.5781404408513
1731652966.52218,822.1262453265989,811.6898462595312,796.9974829708628,886.2211619974421
1731652966.523703,807.5641458335537,819.1042293694835,796.8442749040516,888.8055151219048
1731652966.526081,793.8494834913407,822.8019268984444,796.6835390750305,888.9224122711964
1731652966.5299826,786.7241057486851,821.9829809078191,796.5027093872859,887.8523502280166
1731652966.5303051,787.2859733343633,817.4521277991425,796.300294507867,887.3984814664753
1731652966.5338838,792.036716236659,810.8118781692369,796.1027732454216,888.1097037862409
1731652966.5345788,795.9870093785282,803.856395962042,795.9632641559631,888.4464709498316
1731652966.5377853,796.174777875207,798.2539025916651,795.9197708159652,885.8785006540941
1731652966.5416863,793.044776684779,795.2354953986492,795.9202142313635,879.3088320050064
1731652966.5455878,789.1357992313335,795.179103497559,795.7795962481506,870.8093611594524
1731652966.549214,786.646692284743,797.3855655796103,795.2754863036663,864.8375821036575
1731652966.549489,786.0072751196218,800.4167560838519,794.430507498188,865.0757518492705
1731652966.550123,786.3346845053547,802.9259621434162,793.8315211420651,871.255364006557
1731652966.5533905,786.926697448494,804.4184063808813,794.6079916223803,878.7480663091466
1731652966.5572915,788.2615471945167,805.3949032130311,797.7651472818558,881.6734912241897
1731652966.5586207,791.6792309673752,806.8350787351287,803.181513818909,877.3273877050971
1731652966.561193,798.1232204383213,809.4384421202691,809.2205449125347,868.389071393845
1731652966.5650942,807.0154924761897,813.0961523050088,813.572816821381,860.9499533773983
1731652966.5656674,816.2027239998683,816.8418635257744,814.7506767673946,859.7621454410731
1731652966.5681229,823.1655222868321,819.2949630107679,813.0023489892121,864.4541656622985
1731652966.5689957,826.7192741869214,819.4016342030737,809.9849474010747,869.7571866434706
1731652966.5728967,827.849750487729,817.0568589986638,807.5593403773404,869.5536304595583
1731652966.5767982,828.7785259140003,813.1346407480082,806.623169724864,861.4880466235127
1731652966.5806994,830.8127245851726,808.81529842598,806.7533840108937,848.5160987448781
1731652966.5812116,832.8216176501176,804.7273363656876,806.8156180646154,836.3469389443633
1731652966.5846007,831.9004592505928,800.7019876886694,806.0152724984616,829.0422545966707
1731652966.5870318,825.914959210087,796.4241738149852,804.5583283745341,826.3670297020443
1731652966.588502,815.8300372787351,792.3326212274786,803.4157804549687,824.8909771498803
1731652966.5924032,805.7402124920658,789.7520362523529,803.4377057926835,821.7221787499889
1731652966.5935378,800.371919547291,789.9550692179419,804.6193042666285,817.607643482935
1731652966.596305,801.8910484210652,793.0000688730441,806.1628608337079,816.640161635579
1731652966.5967555,808.4193408989157,797.5289015872839,807.229579282571,822.6264406867159
1731652966.600206,815.3635546889409,801.7827032558896,807.6391144086623,835.0976902170786
1731652966.6041071,818.5462291675307,804.848739865813,807.8622463269368,848.5072510336447
1731652966.6059406,816.7970870883598,806.9564829856688,808.3620759811395,855.6922381816439
1731652966.6080084,812.1390390753146,808.7208234611678,808.9604944240238,853.1068068860225
1731652966.61191,807.6452431824977,810.3276262238368,808.8471463871732,843.6828659259878
1731652966.6123002,804.8959500823125,811.4955810090559,807.2222692850437,834.917068216512
1731652966.615811,803.1606603706625,811.9819224363705,804.0177707672734,833.5319751850041
1731652966.6197124,800.810382165205,811.8922712705935,800.1393856999281,840.7529812546126
1731652966.6236136,797.486611633428,811.548935473769,797.0905191156337,851.7176857592982
1731652966.6248496,794.9681290894698,811.2221586881167,796.2386078797929,859.2620989728034
1731652966.6275148,795.9092339543485,811.009213592817,798.1248248109592,858.9746018407726
1731652966.6278443,801.4896774153641,810.878183805423,802.1541322035446,851.6451610147498
1731652966.6284552,809.9424342311066,810.7634965222535,806.8362200007671,841.5779190640192
1731652966.6314163,817.279264242141,810.6267115381571,810.4888644785796,832.6583929939839
1731652966.6353176,819.8816736458241,810.4652728461151,812.02559799634,825.7067062169309
1731652966.6392188,817.1303271722758,810.2937108130993,811.3488413600254,819.1772863767543
1731652966.64312,811.9908448164937,810.1248413331102,809.1374452448454,812.0545541555398
1731652966.6433885,808.8490519963266,809.96274122654,806.2933313539239,805.792645073816
1731652966.6437583,810.090768886663,809.805184314045,803.546061980598,803.2177506570432
1731652966.6470213,814.1927399915836,809.6486249234191,801.4485265305475,805.4099832454157
1731652966.6509228,817.083048738126,809.491163550907,800.522562585397,809.7094331895399
1731652966.654824,815.7843807652564,809.3327926453617,801.1757635076523,811.0911471635025
1731652966.6587253,811.2162448431333,809.1743200677814,803.3589805785242,806.0546402266467
1731652966.6589327,807.5861286817346,809.0163969261694,806.3380361913025,795.744144261498
1731652966.6626265,808.7158722872547,808.8591973309061,808.9271053591489,785.4843892202247
1731652966.6626673,814.3575324688715,808.7025776091481,810.0950640615149,780.8974779580227
1731652966.6633725,819.6858455436095,808.5463414359695,809.4786648043446,783.6877960753793
1731652966.666528,818.646045040232,808.3903855348236,807.4056186984049,790.5564980845126
1731652966.6704292,808.742918118028,808.2347059226488,804.4769813019271,796.1831364615149
1731652966.6743305,793.5831813698707,808.0793441345521,801.1562825011705,797.8220936675671
1731652966.674477,781.04293294708,807.924341626901,797.7782138414982,797.6225772470767
1731652966.6782317,778.2144659974072,807.7697179999169,794.9252442326758,800.6148261539911
1731652966.681576,786.7751759205061,807.6154568638151,793.6590254226804,809.9926992245403
1731652966.682133,802.1268526755244,807.4614925287885,795.1408207577949,823.7309358837446
1731652966.6860344,816.7902623417951,807.3077219161502,799.7785767534981,835.5553614074425
1731652966.6899357,825.3777564089545,807.1540771439965,806.6263124737142,839.6524719507166
1731652966.6900213,827.4628145426896,807.000647609809,813.6735458898422,835.3667634431811
1731652966.6938367,826.4984437556053,806.847742617485,818.8947535392681,828.1172819493604
1731652966.6977382,826.0446518766453,806.695720993993,821.2279696564143,825.7495363823232
1731652966.6982896,826.5019786026758,806.5445221310653,820.7486300923739,832.9765426559729
1731652966.700485,824.9374862863722,806.3931823359509,818.1041014495845,847.8634078356698
1731652966.7016394,818.0423096407972,806.2400204526399,813.9287621394934,862.8127457297336
1731652966.705541,805.7395046837566,806.0841117950104,808.7917136035226,869.4624994078708
1731652966.7055657,792.3607617380952,805.9276174395245,803.4914558896892,864.2668176176759
1731652966.709442,784.16573480539,805.7767175649446,799.0947460993299,850.9328603905265
1731652966.7133434,784.9596147010913,805.6379400024346,796.4908499889159,837.9089398997476
1731652966.7172446,793.2734769176299,805.509112322365,795.8838362528721,832.6206263704473
1731652966.719394,803.4474785622327,805.3709575231874,796.7501481086267,836.6030639743095
1731652966.72111,809.8169982551343,805.1924022683021,798.2683194522059,845.0503070334496
1731652966.721146,810.708063285368,804.9600647480198,799.7787291700996,850.9651350820002
1731652966.725047,809.2086552400834,804.7211106658776,800.9444030994638,850.6264943980939
1731652966.7289486,810.3353572759142,804.5948485916044,801.6746723869563,846.1397051304502
1731652966.7328498,816.9292952419978,804.6945477325839,802.021160752581,843.079344639529
1731652966.7332067,827.3178226355296,804.9534456598561,802.1153449572703,845.0290400104809
1731652966.736654,836.2710711468881,804.97895961413,802.1066147194907,849.3891571470713
1731652966.7367513,838.4480800195591,804.1788399313835,802.0996549514225,848.1321427468112
1731652966.7383027,831.9385103895842,802.3193703248011,802.1309728273117,833.4596112512651
1731652966.7406526,819.4914391634638,800.2242296238884,802.1903110315341,804.1916361595635
1731652966.7445538,806.5786780778549,799.7565443503794,802.2554641448875,767.6160095632952
1731652966.748455,797.742475415146,802.472064227744,802.3135362540771,734.8818871505888
1731652966.7521982,794.091785286268,807.8255721260919,802.3638796521341,713.435712531467
1731652966.7523563,793.8718363359983,812.9296335675979,802.4115807021466,702.664004761468
1731652966.7562575,795.2137922963556,814.6364854401697,802.4610365163763,696.100142033788
1731652966.7572117,798.1165598262241,812.1890223883462,802.5136113541926,687.758909760627
1731652966.760159,803.6465084496784,807.8999628532025,802.5685197782503,676.8512086153951
1731652966.7640605,811.3865291068047,805.1989219174852,802.6245477995471,667.1878850611923
1731652966.7677426,818.1165402662637,805.8406093248803,802.6810597195515,662.620507629375
1731652966.7679615,819.536932431038,808.6833599928642,802.7380691460475,663.0691635489555
1731652966.768124,813.7954938157117,810.8896764151316,802.7958634965173,664.5593784679704
1731652966.7718627,803.6637124091786,810.3095650995211,802.8546712382052,662.8572134677889
1731652966.775764,795.1814550326848,807.0084900415741,802.9145554329968,657.3296317349951
1731652966.7761204,793.5093535886656,802.869602194547,802.9754710795349,651.7706367048297
1731652966.7796657,799.0891705904772,799.9082471789322,803.037357032482,651.5498272642137
1731652966.7832868,807.1302814300609,798.8800239800412,803.1001853424326,659.2994032584115
1731652966.7835667,810.9901184356675,799.2373404283386,803.1639614518317,672.4351899273099
1731652966.787468,807.0212070920707,800.1355033866067,803.2287031422073,684.4698583174061
1731652966.7913692,797.1980256193351,801.3290303275845,803.2944235320504,689.248798408489
1731652966.7950294,787.4391883273647,803.1418653463605,803.3611265054597,684.9384438347608
1731652966.7952707,782.9329225865162,805.722405638653,803.428810400011,674.7024499177845
1731652966.798831,784.2357385083166,808.4336176447233,803.4974729026205,663.6363072388394
1731652966.799172,787.2754500249881,809.9865395591726,803.5671132000008,654.6057597316857
1731652966.8030412,787.1028025337321,809.2118537043563,803.6377313126759,646.5174697764929
1731652966.8030732,782.1428530891367,805.8668970998284,803.7093265691005,636.4556702728823
1731652966.8069744,775.4635406362174,800.9019291064154,803.7818972267771,623.8165250311438
1731652966.8108757,772.247267024802,796.0134087756132,803.855442035019,612.8122844336112
1731652966.813938,775.7313759478277,792.7700367869577,803.9299626202971,610.9246040690023
1731652966.8143754,784.8080531302064,791.8382515867794,804.0054637267408,624.0830911106891
1731652966.8147771,794.8552386226243,792.7523037097249,804.0819482582225,652.0301267506251
1731652966.8186784,800.9021734696499,794.3484701349612,804.1594078068603,687.4440054861644
1731652966.8225796,800.8060537655842,795.591460186571,804.2378166949387,719.7918843198939
1731652966.8264809,796.3755717277834,796.258888537035,804.317142895625,741.4283994986553
1731652966.8299196,791.8105606741256,796.9999647078289,804.3973822831867,751.7147746465198
1731652966.830382,790.5350085610237,798.7002889615363,804.4785973070947,756.3158165342447
1731652966.832847,792.6177670317182,801.6161358342607,804.5609097214864,762.3898442929313
1731652966.8342836,794.7838108521177,804.9461331780398,804.6443970132244,773.4109269470872
1731652966.8379586,793.3171877365274,807.1834195142275,804.7289153750411,787.4969195815817
1731652966.8381848,787.8166871823288,807.0164049147435,804.8140091500359,800.249458005909
1731652966.842086,782.6058082607071,804.1860322160004,804.899153107149,809.4887240349142
1731652966.8454638,784.0277075946619,799.7625002480207,804.9844168688769,817.7635061530893
1731652966.845987,795.2299453550934,795.650430965427,805.0711456088746,830.3936646514445
1731652966.8498888,812.6276965694623,793.5687961147837,805.1616890335403,850.6072826335034
1731652966.851756,827.4321976319043,794.1040470833848,805.2573099822617,875.9461436950864
1731652966.85379,831.6481973163283,796.4652954238718,805.3548975784056,899.2554502541414
1731652966.8576913,824.0387574209843,799.1174126144982,805.4456755489788,913.7987729162292
1731652966.8610082,811.2321130170621,800.7877508175417,805.5204249719378,918.4260898552666
1731652966.8615923,802.889279148422,801.0573087181642,805.5822550401328,918.4133517212928
1731652966.8654938,804.606318168583,800.1920432244019,805.6583212825792,921.0724159637235
1731652966.8693953,814.0536509431832,798.6036680314111,805.7919111055301,929.6664152017499
1731652966.8706648,823.2729137660244,796.569795681145,805.9998993833881,940.6932961552575
1731652966.8728757,825.1810411763302,794.3786677589057,806.2100705954794,946.8033530317402
1731652966.8732965,819.0703116424155,792.4969764022502,806.2383697274732,942.8871358513894
1731652966.8765523,810.7861691532577,791.3781798180946,805.8787540874532,930.2446169913388
1731652966.8771975,807.5877212205202,791.090952229009,805.0832833031458,915.3878416001487
1731652966.881099,812.0365431756004,791.3232384594666,804.0301501157661,904.5373957049919
1731652966.8850002,820.0524104707008,791.9449165366426,802.8858513698904,898.5088624480701
1731652966.8889017,824.6868800706994,793.5341720571976,801.4595371276865,892.366599044494
1731652966.8895736,822.1678693540397,797.0602508653321,799.2575167279128,880.1314337247028
1731652966.8920963,814.8425189243968,802.730845225551,796.0679315664335,860.450204315371
1731652966.892803,808.5897521278955,809.092828709524,792.5131254808279,838.2990376897483
1731652966.8967042,807.308425782675,813.5405776393316,789.9372676993512,821.2403528358366
1731652966.9006054,809.5390470413022,814.1223716414776,789.6638402174054,813.4613979213582
1731652966.9045067,810.0919222117374,811.1293476336755,792.2474001227009,812.6838717672406
1731652966.9076407,805.0098126970263,806.9254649198622,797.22522503157,812.4710565112115
1731652966.907793,795.4295606481866,804.0206830745548,803.3094241622728,807.7991288481044
1731652966.9084082,787.0828798747332,803.0562937021112,808.6827870112677,799.107049273498
1731652966.9084826,785.9208099609767,802.5191716913657,811.3384956003888,791.5528736481948
1731652966.9123094,793.4401188393992,800.441095046517,809.7210077079191,790.3423479219606
1731652966.916211,805.424871353165,796.517688022286,803.686057888531,796.1852866149176
1731652966.920112,815.0670574368197,792.7051529552239,795.1635483409896,804.6756998973004
1731652966.923185,817.9463766757702,791.7706742960102,787.6996275362088,810.0533532760136
1731652966.9240134,814.8575338866938,795.1203566549773,784.7628592453392,810.1381172603137
1731652966.9273913,810.2725765101693,801.7557850567307,787.7869121971241,808.2236007406005
1731652966.9279146,807.9308350848605,809.036911039699,795.3221298521145,810.2495431508098
1731652966.931816,807.4998221188565,814.3579860091922,803.9247828707323,819.5766806763269
1731652966.935717,805.2416416246741,816.3767714428086,810.1511449112597,833.755994760795
1731652966.9387293,798.00367363411,815.2284452694198,812.296562590344,846.0104238933397
1731652966.9396183,786.8672394978695,812.1043968973736,810.8388986132773,850.2020243827267
1731652966.9427102,777.0984165505845,808.7356313343861,807.551256557291,845.2648007654843
1731652966.9435198,774.3031894442922,806.8645568388142,804.1355217403717,835.6922649369287
1731652966.9463005,779.9658051889381,807.551509122122,801.3906414461892,827.9125638186293
1731652966.9474213,790.0778911639472,810.5060724303606,799.3375708620008,825.5014113825353
1731652966.9513223,798.0431697356755,814.0388067953741,797.8893827582162,826.8697459404598
1731652966.9542737,799.6076432329161,815.9959991505984,797.2675302821854,827.0385088278795
1731652966.9552236,795.9450870570283,815.1974671651433,797.7523251235019,821.9952953738132
1731652966.959125,792.4773371677026,812.2715233776379,799.1440396736963,812.2006988393902
1731652966.9630263,794.3920042335536,809.1353025480668,800.6829493870875,802.4955727229087
1731652966.9652092,802.450606034028,807.5151210023724,801.6774778123767,798.46786474879
1731652966.9669275,812.4297927161912,807.7687821809083,802.2109174359778,802.1197526358097
1731652966.969818,818.5964192851386,808.9703119075135,803.0537339771215,810.2363121722384
1731652966.9708288,818.3710247278188,810.0167059253635,804.7016993892178,816.742948603691
1731652966.97473,814.4075635227915,810.6099679297862,806.5040172470415,817.2195266356075
1731652966.9776275,812.4185146012281,811.2282249429929,806.9430439051384,812.0428224278377
1731652966.9786315,816.4714664268498,812.2869972147407,805.0253359354758,805.6666930287712
1731652966.9825327,825.4847389553912,813.468670539394,801.5212833260251,802.5798287299707
1731652966.984118,833.7498996437657,813.932323806842,798.7539664316452,803.2281219247288
1731652966.985362,835.2296637830912,813.1669412051605,798.9136550657744,803.4159108260033
1731652966.986434,828.4077169587482,811.6073570468193,802.2608782273835,797.9548928057678
1731652966.9903352,817.8397435598281,810.3886648315257,806.7755501854278,785.6437886257805
1731652966.9942365,810.9296360158277,810.4493805614561,809.6376702140276,771.2295783726947
1731652966.998138,812.2350023665184,811.7767795862144,809.4034709524179,762.3747268444961
1731652967.0009062,819.8060001590164,813.4163494241465,807.1359571045119,763.9550570646304
1731652967.0020392,826.6426632862882,814.1858071932836,805.5573845151108,774.3833778546272
1731652967.003027,826.2481628159051,813.4933743434528,806.8739147913932,786.9281046014614
1731652967.0059404,817.8397664740534,811.6584737227919,810.9989905938738,794.7944343036598
1731652967.0098417,806.9706704030498,809.5540872863238,815.5764663964067,795.7837404635416
1731652967.0125446,801.0026302042377,807.8735095113132,817.7390202698297,792.9784037227378
1731652967.0137432,803.0611145800572,806.5860831318016,816.1639074140244,791.2801663879891
1731652967.0164506,809.4240441722751,805.0356036291943,811.846759080358,792.8808264845094
1731652967.0176444,812.6098727638974,802.6528757978091,807.149730054122,795.3866067223802
1731652967.0215456,807.753735539542,799.6935733797138,804.0435815997611,794.0149543762831
1731652967.0219357,796.9636639646768,797.2923839823325,802.9176902474051,785.9229619855282
1731652967.025447,787.8547688396983,796.690803804098,802.6715498335674,772.9912969139347
1731652967.029348,787.395919804622,798.2921804065079,801.7829198950011,760.7044325976302
1731652967.0319948,796.3564129477287,801.400715898522,799.5055496996832,754.0687706088487
1731652967.0332496,809.1270052740313,804.8398067717726,796.4550751305762,753.9839992874516
1731652967.0371509,818.8159616512818,807.8016004220115,794.2699180295266,757.008473225004
1731652967.040845,822.8259350375279,810.1527939223092,794.5358834582408,758.5525320829978
1731652967.041052,824.0105061839505,812.0821090749113,797.633438982404,756.7832031369973
1731652967.044953,826.8670101462418,813.6220711347578,802.3298931266271,754.1138266097753
1731652967.047462,832.6976518919931,814.5375687412234,806.4892149514687,755.1293963525666
1731652967.047539,838.2150164198489,814.5469011806961,808.4226627794354,762.5148837392949
1731652967.0488546,838.6417704717596,813.5227415737837,807.8879018450747,774.1327171235712
1731652967.052756,832.3534294368854,811.5043316265387,806.056596765601,783.7354426983343
1731652967.0566573,822.9342250108275,808.6734490923951,804.6038871184466,785.1257167399209
1731652967.0597534,816.8406336285132,805.4565472455918,804.6700215770135,776.7006582792691
1731652967.0605586,818.539673020804,802.644327535149,806.3689110706505,762.7060248307657
1731652967.0630834,826.9984323490021,801.2561551759804,808.9805240612535,750.0609784386394
1731652967.0644598,836.2637665053583,802.0482147438848,811.4904624834993,743.2910810287494
1731652967.068361,839.6502895606042,804.918652922882,813.0563493406308,741.651307877711
1731652967.0722623,834.3543001693095,808.6845851264287,813.2082450137367,740.5514635818329
1731652967.0761638,823.1687052159682,811.5746118289669,811.8456872127555,735.755879340422
1731652967.0786276,812.3104788054823,812.2889952921995,809.1877961278138,726.7472653412586
1731652967.0786624,807.1815572350533,810.9241166553003,805.7657983005303,716.7290456750934
1731652967.080065,809.0380220485195,808.9637494328189,802.4177364338957,709.7286530647249
1731652967.082379,814.5494711087513,808.1913143870189,800.1622298420862,707.474517489079
1731652967.0839665,818.2313078704168,809.3329634462991,799.8738240971337,708.5033706850337
1731652967.0878675,816.0942280321575,811.5730702267325,801.8483761906526,709.8378640324311
1731652967.091769,808.2437968196625,813.3358094766214,805.5021532197158,709.4744799727675
1731652967.0941718,798.7520107192959,813.5630797544765,809.4460666963934,707.5147943389824
1731652967.0956702,792.8044162613637,812.3353289205498,811.9972479401004,705.2533463790165
1731652967.0975711,793.0948428810331,810.4628716869806,811.9367539055268,703.4806243722144
1731652967.0995717,798.1739585963484,808.705192382309,809.125973813035,701.829294416033
1731652967.1034727,803.995061712584,807.4255014572653,804.5918117918118,699.6918772648414
1731652967.1073742,807.2335421297951,806.7581317198529,799.9778456546677,697.5063286486352
1731652967.1097162,807.4881625851193,806.7680784434299,796.7102681483656,696.8942205451552
1731652967.1112754,806.624603745418,807.2926312359596,795.4564969306725,699.4439207318849
1731652967.115177,806.1853510147787,807.7535569047858,796.1799944800256,705.2912572056742
1731652967.11648,805.4747727908376,807.3769680818812,798.5433138355833,712.6906411416527
1731652967.1172965,802.1960077216285,805.7809385194495,802.142844267669,718.7836827129429
1731652967.119078,795.1028128626045,803.3977759356562,806.3460240479395,720.9673895634783
1731652967.1229792,786.1221904577853,801.2787325592769,810.0230962890399,718.1590887015403
1731652967.1252604,779.6011343479748,800.3911579435174,811.6665028639682,711.4339252151453
1731652967.1268806,778.8348723296621,800.963942592109,810.0613542301936,703.6492694990823
1731652967.130782,782.8393620298099,802.3580050080053,805.12162012661,698.0286244476548
1731652967.1346831,786.6808969073809,803.4981355935307,798.2469001403703,696.4003183497341
1731652967.1353889,785.7068490880681,803.5328695711485,791.8280326838498,698.2921408044203
1731652967.1385844,780.1854057075069,802.2986496686447,788.1250961332267,701.6372320474394
1731652967.1408043,775.9577859489071,800.3037233948681,788.1900376718387,704.5894316352395
1731652967.142486,779.9959217980966,798.2572851355475,791.4719117236459,706.9552455125519
1731652967.146387,794.3716819689238,796.5374040229223,796.2724229786766,709.997254472677
1731652967.1502883,813.7727897311918,795.0881921923659,800.674743831187,714.7465986239388
1731652967.1522138,828.8129311903707,793.8305202113172,803.3358922451255,720.3397498312736
1731652967.1541896,832.6013060322417,793.0997907095727,803.7481210230934,724.0347022777823
1731652967.1542978,825.5012064267866,793.5454095120043,802.0343013850887,723.2070340574583
1731652967.1563487,814.610839853365,795.4926709809686,798.6576238867665,717.8212104948625
1731652967.1580908,808.5984227699693,798.3756806497461,794.341421727593,711.184010484497
1731652967.1619923,811.8055498540648,800.8386610957396,790.1272093480952,707.9812179105328
1731652967.1658936,821.7508668327148,801.4969184671496,787.2479178145239,710.8698842479608
1731652967.1697948,831.4782520243941,799.7794389814691,786.6550231634885,718.3647084380048
1731652967.1718931,834.7127845830541,796.2666784106082,788.478176337988,725.9874955762637
1731652967.1732066,830.0124159004223,792.3898042825296,791.9361368302079,730.0464933943437
1731652967.173696,821.1647480600597,789.7628074258793,795.9156989375454,731.0901028345895
1731652967.1775973,813.9832257677374,789.4894179171292,799.8015597675588,734.0890375175583
1731652967.1814988,812.1681065412072,791.6908977470255,803.8097199340602,744.8897960808092
1731652967.1854,815.2679184056749,795.4537658961729,808.4651482141132,765.4993705900733
1731652967.1871307,819.9229134356344,799.3041599274487,813.6640222048736,791.8579470138809
1731652967.1874373,823.0006084552256,802.027800789655,818.1997503946766,815.991236582308
1731652967.1893013,823.9201720071263,803.3533987459786,820.2678191638098,831.1385072767566
1731652967.1921155,824.3803051566753,804.0452123373992,818.63149656274,836.1591602506404
1731652967.1932025,826.0476296992529,805.3328266596126,813.5714016936423,835.9899271530643
1731652967.197104,828.5491610460432,808.017306145971,806.9034875030641,837.8441458535248
1731652967.2010052,829.7767609346148,811.7686041975936,801.054345464041,846.0480916936973
1731652967.2029817,828.2676695147694,815.0598945035913,797.8458575104837,859.4144722280403
1731652967.2049065,825.2739325298814,815.9065562247366,797.7572685130806,872.9919758782559
1731652967.2088077,824.2046856403389,813.093906667798,799.9767608176378,882.5201665464516
1731652967.2110243,827.5703403641427,807.1148482055332,802.9883075236984,887.8526134571367
1731652967.212709,834.142709761137,800.0724328857273,805.2487829949223,892.6777786946678
1731652967.2166104,839.198780178124,794.5195768983442,805.7167483181954,901.0704530440411
1731652967.218526,838.090859482413,792.0677096163073,804.2113870276976,913.9681513151118
1731652967.2205117,830.291288212601,792.7647575171261,801.5387933569721,928.4724688556755
1731652967.2220483,820.3399223402128,795.5288198807131,799.1954572946177,940.2695291536842
1731652967.224413,814.5629548847085,799.0499045408876,798.5916634918311,946.8387875840303
1731652967.2283142,816.0406291965121,802.3850804316622,800.1529904894192,948.724923997147
1731652967.2299333,821.9884005967033,805.0188718924288,802.94312836756,948.1356431647603
1731652967.2322154,825.899763896672,806.7170005556043,805.1949128563996,946.5596817278445
1731652967.23407,822.8384368816105,807.4830763639719,805.4479269864455,943.7816168913788
1731652967.236117,813.499951792153,807.5614606275561,803.4796145413285,939.1118986471449
1731652967.240018,803.6098210935993,807.3186286223124,800.3791878935228,933.4153298699066
1731652967.2439194,799.2049462613602,807.0500112907831,797.793671328991,929.7123822031664
1731652967.2478206,801.8458306993064,806.8781805657948,796.9385575582726,931.4329001444057
1731652967.2488422,807.6937863484683,806.7885672189557,797.9828386741688,939.5523538990674
1731652967.2496145,810.923256178625,806.7212303360502,800.044368757642,950.9291270309799
1731652967.251722,808.4058681462565,806.6356375641452,801.6873487174113,959.3693899409288
1731652967.255623,801.9491485450427,806.5254025222986,801.6720419812344,959.0128427094115
1731652967.2569654,796.6405540919233,806.4029655516414,799.6447788994262,947.9741148729368
1731652967.2595246,796.8035935269627,806.2811423287121,796.4097504658465,929.8373580526795
1731652967.2634258,802.58628141491,806.164925104919,793.538509976373,911.8105763881351
1731652967.265159,809.6127690708422,806.0528363264092,792.4386580986194,900.4742229616701
1731652967.2673273,812.0163716748108,805.9415496842181,793.4187419822194,897.8194026425269
1731652967.267751,806.7817566794246,805.8290305899402,795.409444283619,900.3447941707126
1731652967.2712286,796.204453828155,805.7150787581041,796.6619229695195,902.0024847805681
1731652967.2751298,786.4722956279958,805.6004153678537,796.0844753817576,898.9370904286552
1731652967.279031,783.2760760009496,805.4857151004986,794.3033966027725,892.409064365614
1731652967.2807028,787.7173099006119,805.3712193387312,793.5285075093457,887.512831261656
1731652967.2829323,795.5713769530971,805.2568408759189,796.0637415423564,888.6081064560468
1731652967.28666,800.3406564767047,805.1424144518608,802.3927619051696,895.1561170343397
1731652967.2868335,797.7127439601009,805.0278533435015,810.3061920576254,901.4864341345697
1731652967.290735,788.227264381353,804.9131675949719,815.9389007102614,900.9245454112305
1731652967.2918828,776.5112052493638,804.7984113060438,816.1856297248091,891.1595011280425
1731652967.2946362,767.9310022548154,804.6836325213384,810.8288579611881,876.5597951701659
1731652967.2962472,765.1372691506866,804.568856015378,802.796374328666,865.3262516075049
1731652967.2985375,766.8434857841493,804.454091468512,796.2977859480044,863.366203385011
1731652967.3024387,769.521376855019,804.3393472740762,794.1732033279968,869.5870434900781
1731652967.3055687,770.5691753598389,804.2246366476553,796.3512819694987,876.5281020566749
1731652967.3063402,770.3609157535939,804.1099742078073,800.3907013436343,876.0843055599689
1731652967.3102417,771.4585751265362,803.9953695531756,803.4671945705774,865.7548000956499
1731652967.3117914,775.7149096849225,803.8808271808994,804.2227919229589,850.2480146295072
1731652967.3141427,781.9577279252604,803.7663583752404,803.2771953920754,837.2342150431962
1731652967.318044,786.4955728372834,803.6519995964724,802.3712171978541,831.1314079395032
1731652967.3219452,786.1037005164801,803.537817220008,803.0096923467844,830.3737582559246
1731652967.3244777,780.8617810642561,803.4238737194619,805.5329093850668,830.2364235107934
1731652967.325847,774.3496987741598,803.3101542414711,809.0100271246246,828.1739978522005
1731652967.3268,771.0062412159432,803.1965084661448,811.7936203098507,826.4586424619151
1731652967.3273356,772.7822898498687,803.0827126910921,812.347826043397,829.5407294309246
1731652967.329748,777.7364825849385,802.9687211670807,810.0065236680318,838.5525933622158
1731652967.3336492,781.7145639728178,802.8549921244983,805.409280565252,848.2560086342572
1731652967.3375504,781.8723788600715,802.742513488278,800.4180333417509,849.8235848006824
1731652967.3414516,779.2246625522029,802.6320924626261,797.4336312737174,837.6412370007264
1731652967.34288,777.9531766367966,802.5229650809126,798.284862731691,814.4063326967121
1731652967.3433864,781.7927699890528,802.411844455712,803.1702396182858,789.8493849382326
1731652967.3453531,790.4641487931711,802.2943717601565,810.2900240904646,773.7179290034779
1731652967.3492544,799.3565553950746,802.1700434654684,816.5861210876606,768.6297705730182
1731652967.3531556,802.9459245524353,802.0480497596033,819.3491512827567,768.6431428892934
1731652967.3570569,799.1036886306625,801.9467033671419,817.7251188939474,764.619051122993
1731652967.3584242,790.6419207647364,801.8786567286943,813.0554625815093,751.7691136913038
1731652967.360958,782.9100431307111,801.8241457271826,807.8140575083441,733.1297425556814
1731652967.3617172,779.6305494089323,801.7140439557857,804.0131893875562,716.4287445929687
1731652967.3622954,780.426760025383,801.4547553574654,802.2875379693469,707.4547316190996
1731652967.3648596,781.8490539951666,801.0017255717661,802.1340278615187,705.6658239089614
1731652967.3687608,780.8156694475546,800.4406231298547,802.766242649473,705.4671210616985
1731652967.372662,777.5522533056134,800.0152063569683,803.7027191968217,701.7048981630933
1731652967.3739684,775.5827498470238,800.0576167495183,804.71599342382,694.5627544165532
1731652967.3765633,778.7034693860562,800.8130335734763,805.472275060295,689.686340824868
1731652967.3804648,787.409038441317,802.2314934765908,805.4069887819585,693.3293609426038
1731652967.381204,797.867120762083,803.9007772030632,804.0331280872796,706.4709737521372
1731652967.384366,804.526589359362,805.2746702983961,801.4031470507877,722.8856608414821
1731652967.3882673,804.3376734905706,806.1295919189802,798.2639181875744,733.0781017357403
1731652967.3895123,799.0805753620584,806.900191904776,795.6758184917677,731.1915283051922
1731652967.3921683,793.8356529615583,808.4821310908665,794.3511720312143,719.4392698537149
1731652967.3960698,792.8584964154251,811.434083648314,794.275085159895,706.5218938742869
1731652967.3966343,796.2436151289251,815.1085445759531,794.9025463129523,701.306280172803
1731652967.3999712,800.0589202689812,817.5688426168904,795.6508771236831,706.7387353822708
1731652967.400113,799.8204225727203,816.719880321841,796.2237667562566,718.5852709480022
1731652967.4038725,794.5299432671818,812.0413666763595,796.6131501412357,729.6325559957422
1731652967.405057,787.9954718606017,805.53767815323,796.9334105708558,735.7223755621628
1731652967.4077735,786.1566384039523,800.8663362488572,797.2779947329809,738.7466465721408
1731652967.411675,792.2573431049643,801.0022442089856,797.6722906576537,744.3609710700999
1731652967.4155762,803.6642857576365,806.1146005434301,798.0963622956982,756.5257069963337
1731652967.4190218,813.216608195899,813.3486878317916,798.5231918786042,773.5337545139428
1731652967.4194777,814.5126103435402,818.7593908528419,798.9395911145525,788.8456722924673
1731652967.4206011,807.0856130283648,819.9156557554705,799.3465639863441,795.9787044044457
1731652967.4233787,797.0851448079911,817.1888140704176,799.7505999057572,793.36993
1731652967.4272802,792.5926912167193,812.9003268101999,800.1565053012115,785.3297358274384
1731652967.4311814,797.2703268552541,809.2930449274214,800.5653743394781,778.577622909889
1731652967.4315517,807.5949473540577,807.1194006562046,800.9760361800222,777.3938154053326
1731652967.435083,815.9460737611121,805.8409329779962,801.3870922500622,781.2119628736026
1731652967.4361453,816.8735902791345,804.8527376755733,801.7979343375112,786.164775300911
1731652967.4379308,811.295487153407,804.305625745214,802.208688541001,788.8832904040489
1731652967.4389842,805.3000540263876,804.725156244155,802.6197322079545,789.3465072217591
1731652967.4428854,804.8474483467945,805.9958610661986,803.0313283571829,790.6623748034468
1731652967.4467866,810.9868634941457,806.9820618767833,803.4435382979735,796.1675943439938
1731652967.450688,819.4885324114301,806.3898553292435,803.8563089423562,806.2015814188625
1731652967.4516895,824.8176977813727,804.1110463953006,804.2695833096753,817.056090990912
1731652967.4545894,824.7290290631545,801.6319555435432,804.6833557277148,823.0096259094447
1731652967.4568398,821.5882843150249,800.9068750719215,805.0976696517511,820.1806470521838
1731652967.4584906,819.6985399746789,802.675815894251,805.5125850488907,809.5677382930562
1731652967.462392,821.3357092615677,805.881498159411,805.9281376738619,796.9798018335586
1731652967.466293,824.9589654330732,808.7103856021913,806.3443080486524,789.5563002645071
1731652967.4664688,826.9088063978513,810.0684204143139,806.7610268855015,791.0730745263118
1731652967.467234,824.9395061838726,810.0789429286809,807.1782454439686,799.374101787929
1731652967.4701943,820.5070318245872,809.5093051542246,807.5960584713013,807.9084142695426
1731652967.4740958,817.7968697489597,809.0106369501987,808.0147789605037,810.3000235598331
1731652967.4757483,820.175781901617,808.8053596582696,808.4347971101012,804.5264195019263
1731652967.4779973,827.0250194839257,808.8017786806785,808.8561427362371,793.6068583565551
1731652967.4818983,833.8310224366649,808.8334430624973,809.2779921319063,782.5303427510071
