timestamps,eeg_1,eeg_2,eeg_3,eeg_4
1731655479.5604055,811.0703846413587,803.2033637657787,805.8715331667066,807.5257772134844
1731655479.575699,838.7967477522155,800.3251866598472,806.6932326216748,826.3474602603434
1731655479.5793333,855.5683852547473,794.2996889787526,806.6478014933759,836.773277626761
1731655479.5796015,856.5239298577462,785.2532648885286,805.6569497903315,835.6978104194334
1731655479.583504,845.8873362699011,776.9820032802143,804.6153002176222,827.4567142282696
1731655479.5874064,834.374385110747,774.0486093431268,804.785839525455,820.9884382265064
1731655479.5913088,831.7386309498918,778.013639916763,806.8234408116762,823.3592778705089
1731655479.5952115,839.7824927859696,786.0221656060303,810.1843550121682,834.441409153808
1731655479.598261,851.9957458620383,792.9502217964792,813.4252600880936,847.4187297427953
1731655479.599114,860.309406917381,795.2681379987042,815.1776475569154,854.8633097051111
1731655479.6030164,862.2763892861233,793.3935764710944,815.0117814737669,854.7326097697943
1731655479.6069188,861.472622896535,790.7340631906139,813.5236934058155,850.7129638563346
1731655479.6108212,861.342772337598,790.4938294988667,811.6925011966604,847.2244075504155
1731655479.6147237,859.9965667603334,793.086671986789,810.1759172629138,844.7983945008522
1731655479.6171892,852.2433168828283,796.2055212272915,809.1446522331452,840.5750080250671
1731655479.618626,836.736544813449,797.1419503653698,808.6216760835255,832.7240813212338
1731655479.6204338,819.9892535731778,795.1275560005295,808.7895587013339,823.4833642212767
1731655479.6225286,812.019332646055,791.7845571297721,809.8648373643629,817.4539686064724
1731655479.6264312,817.2357635774677,789.6237708032577,811.6918729079482,817.0892800158815
1731655479.6303337,829.5300325980678,790.0717726620561,813.5418537300719,820.1214966529891
1731655479.634236,836.902410837159,792.5682017934408,814.3992949256981,821.5110813669542
1731655479.636,831.9041208127962,795.1935403371546,813.5643193036396,818.0593575755498
1731655479.636117,818.4029134656221,796.1589227987399,811.1545982894825,811.39752361806
1731655479.6381383,808.1719171790787,795.0381269012015,808.1847146837441,806.5520119114453
1731655479.642041,810.0140642229366,792.9298874649079,806.1465036405299,807.2083533458084
1731655479.6459434,821.2887447731081,791.5310339312715,806.2515066363728,811.8874169442244
1731655479.6498458,829.9615112428337,791.8888447521482,808.6938745892261,814.7784645381341
1731655479.651566,825.6504175745715,793.8061028135751,812.375071472186,810.9085891413483
1731655479.6537485,809.3961514181498,796.2899278487141,815.3625255389062,801.0436409915582
1731655479.6550448,792.7956047439411,798.5637495237996,815.9352941346636,791.5157669982774
1731655479.6576507,787.3309575267211,800.7590581410277,813.6372664183015,788.8278832501587
1731655479.6615534,794.2525106456487,803.7231317090419,809.6275322823766,794.0574975672475
1731655479.6654558,804.6367817352068,808.057580551684,805.966803496924,802.4142278887042
1731655479.6671324,809.0298200987545,813.0808140098845,804.1958916678899,808.2268884788045
1731655479.6693585,806.756960749392,816.616979254113,804.1906305896188,810.2514019948109
1731655479.6732607,805.7275422338743,816.138410620932,804.2422475160673,811.9917311754244
1731655479.6739726,813.277545508865,810.7793973812478,802.4501758487811,816.8833242850351
1731655479.6771631,827.4794104635075,802.6915552235369,798.4173115765998,823.4788640398873
1731655479.6810656,837.846860402146,796.2468024821604,793.862904284785,825.9106309415804
1731655479.6826985,835.1623885777963,795.189105883211,791.546768329959,819.6751854558657
1731655479.684968,821.123756898809,799.8296638354367,793.2498293544656,807.2233355913027
1731655479.688871,808.253462685225,806.7398283276,798.3595462762667,797.4581882576147
1731655479.692773,809.4215026957337,811.3792439194445,804.1793583182923,798.739525764408
1731655479.6929004,826.146452873736,811.4329797460746,807.741517785823,811.3194700257898
1731655479.6966755,846.3534046202124,807.9960576987585,807.7211378948825,826.1941683243172
1731655479.6982646,853.9893157179614,803.8632379311667,805.0052688265224,831.9222851087072
1731655479.700578,842.3808906100243,800.8935947381216,801.6350298970823,823.9008415596429
1731655479.7044804,819.8977430315347,798.9883460465014,799.2089654242549,808.2551272270126
1731655479.7083828,803.1461607991785,797.2847912428687,798.1487571252064,796.9804375444891
1731655479.7118285,803.5933225941154,795.9229628982702,798.1971551483632,798.389930421457
1731655479.7122853,818.9599821308599,796.397564689151,799.2289369062202,810.8561363058872
1731655479.7138307,836.3487536090197,800.1270744808756,801.290306035752,824.868450209819
1731655479.7161877,843.8067108543042,806.6874756424822,803.890001205851,831.2056652406105
1731655479.7200902,839.8679209780139,813.497879477038,805.6392688231281,827.9664565152186
1731655479.7239928,832.876696120715,817.4287916333005,805.0721240032975,820.7037890179749
1731655479.7278953,831.4581823351281,817.0577886317477,802.0964705739666,816.3354970254718
1731655479.7293968,835.5832465798582,813.6523925404503,798.5833887664353,816.8589820770987
1731655479.7307563,836.7984780808686,810.0117808056399,797.2293119109087,818.4976175466243
1731655479.7317977,827.2888799958943,808.1641343018106,799.4587529408882,816.530515679752
1731655479.7357,808.9798101959141,807.9154574811819,804.1345622048195,810.8487585980406
1731655479.7396026,793.7666173838642,807.4293604173793,808.2234649906765,806.8529391731041
1731655479.743505,794.1190061768732,805.1477049782202,808.9252078103985,810.7548282434708
1731655479.7449627,812.092409702995,801.2297973805304,805.6063979309623,823.4950151165915
1731655479.747406,836.3480127885957,797.3219903641626,800.1320443044076,838.7877444158592
1731655479.7474074,850.0730214703327,795.1148134427411,795.4981737507701,847.2688543963218
1731655479.749684,843.6656724996003,795.1311732580958,793.878296805246,843.517298305461
1731655479.75131,822.0750634907407,796.6957696015272,795.4403521466419,830.2301808133006
1731655479.7552123,800.7916169856287,798.7940253491048,798.5825525047983,816.0775214622363
1731655479.759115,793.5094805149625,800.8494484178331,801.2247968739111,808.9437219162523
1731655479.7605293,801.3956432168753,802.8274814960448,802.1827017288291,810.1452667508648
1731655479.7630174,812.8628390798257,804.8720698028353,801.7648542542009,814.4271293386772
1731655479.76692,814.0954839823667,807.0099752980531,801.3618017431909,815.5529358980988
1731655479.768612,801.3836980717111,809.1422890364448,802.4222002602735,812.3905435393237
1731655479.7708223,784.6411503191949,811.1335609166082,805.4668135985546,809.9765310572793
1731655479.7747247,778.9880444341496,812.8000746457484,809.6784186913451,814.5569020507264
1731655479.7760954,791.4945441859909,813.8686045264066,813.2977560143667,827.020709009115
1731655479.7786272,814.3080087154418,814.0742382067497,814.6441904480612,840.6859091111999
1731655479.782188,830.0749097962185,813.3556274808091,813.1673179145766,845.7621392662776
1731655479.7825296,825.4479292925989,811.9120934508438,809.8089295665687,837.1192356681591
1731655479.7864325,801.8574432090415,810.0139767705579,806.3723199941442,818.9903357660604
1731655479.7875395,774.8268187967944,807.7742810643757,804.3533591901378,802.4670963272365
1731655479.7903347,762.1831366323937,805.1929789674122,804.125071137781,797.4061932642793
1731655479.7916615,770.4094405623991,802.5003426568426,805.0211263216651,805.0098064227876
1731655479.7942371,790.0136728257597,800.4331784424638,806.0505857104046,816.9905567005238
1731655479.7981396,803.6557103434712,800.0243045747598,806.5163893455127,822.074371426765
1731655479.802042,800.4436721172403,801.9016392195276,806.1202500729909,814.8144202249592
1731655479.8059444,784.737953584203,805.6243565134895,804.7750115984837,799.9168615988996
1731655479.8064678,772.3078975639661,809.7013459088847,802.5657318004013,788.7697521556396
1731655479.8072276,777.0523865593615,812.4402845425958,799.9257945432431,790.751807817372
1731655479.8098469,799.1052806789519,813.0313761117523,797.6684016179678,805.779697107015
1731655479.8137493,823.9342053872863,811.9610807673588,796.606226928989,823.7610977214842
1731655479.81697,833.2676460581141,810.3710318291804,797.0084933914803,831.7041066292842
1731655479.8176515,819.3478989930375,808.953568020706,798.4403778018514,823.4624368153128
1731655479.8215544,791.2619993320444,807.466144123408,800.1885961120076,804.6597050623096
1731655479.8227935,768.1330713755414,805.3448422219421,801.8477996726142,788.582975437074
1731655479.8253956,764.3188866773426,802.713870491834,803.4606021811537,785.8834152184907
1731655479.8254569,778.3842418448337,800.5938854311069,805.1104916489044,796.2558982236623
1731655479.8293593,794.893320053364,799.9576714585065,806.4919177535279,809.0489935844323
1731655479.8332615,797.7222144588011,800.6168698584407,807.0084525808165,812.445165620674
1731655479.8371642,783.9009995544872,801.2303313124504,806.3550726547705,803.5041888940721
1731655479.83836,766.2902460876203,800.5697835407993,804.9968328210581,790.5427249349527
1731655479.8410666,762.6872999393396,798.7954945188384,804.0317743856983,785.942530279613
1731655479.8443234,780.4727740255182,797.4055292254777,804.4862066311798,795.6765922483394
1731655479.844969,809.7348853190414,797.8248300604652,806.5589725902273,814.4064100903913
1731655479.8488717,830.729996916124,799.9360394659809,809.3515852655534,829.9982900037934
1731655479.8517518,829.657306993284,801.9348273711828,811.2912724351908,833.3869751539759
1731655479.852774,809.8930353119543,801.726319392681,811.0390495753275,825.5488880046521
1731655479.8539262,789.4609775129278,798.7466436581734,808.3565980190757,816.0271162406358
1731655479.8566766,786.5949580235512,794.6814475366099,804.3383772466213,814.4771062755606
1731655479.860579,804.9514256406725,792.3705722616147,800.7555034340036,822.3533017119618
1731655479.8632512,830.5572874484086,793.6496952908874,798.9121546816541,831.6757094899915
1731655479.8644814,843.2327964998798,797.8672377278887,798.8765145721742,831.9722038830472
1731655479.868384,833.3125998818502,802.4007947732302,799.6954133022541,819.6747885898934
1731655479.8694923,809.8483320251396,804.8172109135783,800.3565931483596,802.044079045507
1731655479.8722863,793.3462239977267,804.7894453635997,800.6155615686205,792.0609198874025
1731655479.8761888,798.9687952313033,804.0514494495562,800.998842777438,798.1860333973813
1731655479.8800912,824.0752841238171,804.525499468526,802.107022957619,817.2679019129681
1731655479.882179,850.224678705563,806.4768609105384,803.9399419508425,836.4621573274793
1731655479.883994,857.7513101873484,808.3924245745156,805.8258400627725,842.760480408386
1731655479.8850584,841.0160801603485,808.5054810823808,806.9095088502455,832.5902550341289
1731655479.8865335,812.3633137396798,806.405038112012,806.6927638483751,813.9346443156395
1731655479.8878963,792.0994101550713,803.3508863698136,805.1951783906011,799.5047484176039
1731655479.8917987,792.7926540042016,801.2797035817673,802.7392822699247,796.7224168303554
1731655479.8957012,810.3773751478013,801.5360959345871,799.7026415988203,802.7169464656445
1731655479.8996036,828.7126955553044,804.2683348887834,796.512287136047,808.0770878727178
1731655479.9006245,833.0342362958593,808.625400086866,793.7883384014466,805.4692291253905
1731655479.9011073,820.6183427473551,813.2951933564935,792.2899802944622,795.2503607450408
1731655479.903506,800.3851372345522,816.9447305111543,792.5006514039007,783.6541638256064
1731655479.9074085,783.7814065588748,818.4799747578676,794.1621094736295,776.5376586812632
1731655479.911311,776.3702670553001,817.270818917669,796.2945904190407,775.2066233644987
1731655479.9152136,776.50800162548,813.4106112055595,797.8651294306218,777.2041237021579
1731655479.9161906,779.4694630376563,807.8559504414019,798.584173727879,779.521397204952
1731655479.919116,781.6935532305885,802.1970270026776,799.0580226470577,780.6865872015939
1731655479.920035,782.184588008166,798.0091365514735,800.0816686069338,780.7923857173271
1731655479.9213154,781.6196423883667,796.1165618986511,801.7303163860432,780.5409072096257
1731655479.9230185,780.9547673516195,796.2836888577776,803.1763030263547,780.4558035279185
1731655479.926921,780.6630047453544,797.5572584811716,803.472423599771,780.6562398492532
1731655479.930823,780.7123776905638,798.9454209475243,802.5643410593094,781.0128451628551
1731655479.931757,780.8731897658855,799.9006137724231,801.530747181991,781.3701566869415
1731655479.9347258,780.9740450896984,800.3685600695633,801.7788782906201,781.6585749581583
1731655479.9386282,780.9755934481464,800.5588905690668,803.8962064515686,781.8888489954163
1731655479.9389627,780.9197650505871,800.6969148134413,807.1257400445166,782.0995075648098
1731655479.9425306,780.8571796149303,800.8974001614506,809.8391321856031,782.3169095061583
1731655479.9464333,780.8105223741526,801.165926787836,810.5998242628466,782.5456790409596
1731655479.947323,780.7762604895495,801.4609319127608,809.0877314417472,782.778177365612
1731655479.9503355,780.7417657061008,801.7476361291193,806.3468055418556,783.0062382881839
1731655479.9542382,780.6983598773879,802.0162690356686,804.2161056295533,783.2265441879089
1731655479.9560974,780.6444566183189,802.2740441195343,804.2197016260496,783.439909343735
1731655479.9578905,780.5824829543733,802.5310215429085,806.5342681338095,783.6483923053004
1731655479.9581406,780.5150510141912,802.792228147485,809.727767732178,783.8532794934146
1731655479.962043,780.4431997685238,803.0574071996621,811.5637090550523,784.0547033637818
1731655479.9628892,780.3666255854658,803.324209320792,810.4294130251742,784.252201921101
1731655479.9659455,780.2846236203467,803.5908704439634,806.4098328904898,784.4453332281097
1731655479.969848,780.196745623286,803.8569965372685,801.2035296670037,784.633929135625
1731655479.9737504,780.1029230431252,804.123044423126,796.929032628674,784.8180346199415
1731655479.9768183,780.0032821488239,804.3895666735018,794.7341555884739,784.9977494953574
1731655479.9776528,779.8979441644647,804.6568270699687,794.2485010499453,785.1731281615259
1731655479.9784553,779.7869502344728,804.9248157189786,794.191257265295,785.3441699118168
1731655479.9815557,779.6702945373852,805.1934263605226,793.5183599720947,785.5108572540832
1731655479.985458,779.5479825757835,805.4625920924474,792.1631210420956,785.6731896777299
1731655479.9893603,779.4200449958776,805.7323177866423,790.8901481040982,785.8311849702212
1731655479.9908793,779.286489740195,806.0026478471405,790.5511530606561,785.9848510565413
1731655479.9932628,779.1472379507226,806.273627778361,791.4502226251519,786.1341570612028
1731655479.9940214,779.0021350388985,806.545289821016,793.3173026971467,786.2790456295617
1731655479.9957464,778.8511116586699,806.8176595953202,795.7892935636622,786.4195125608035
1731655479.9971652,778.6944437326023,807.0907644570998,798.8351938187618,786.5557181518554
1731655480.0010676,778.5328560699671,807.364627505407,802.6405384936465,786.6880077004569
1731655480.00497,778.3671110328673,807.6392480502234,807.0247621681884,786.8166925222916
1731655480.0088725,778.1970005064476,807.9145905842494,810.9941002387636,786.941594608521
1731655480.0095878,778.0204178686221,808.1906141258247,813.0160066473932,787.0617045429024
1731655480.0127752,777.8339659315644,808.4673514991929,811.9947795679541,787.1756000747223
1731655480.0146742,777.6362539373508,808.7449865099646,808.2271291562228,787.2830252145625
1731655480.0166776,777.4326569563112,809.0238121561825,803.4569613375232,787.3868732419711
1731655480.02058,777.2365583605949,809.3039726007961,799.7792878725745,787.493226525507
1731655480.0244825,777.0606037886106,809.5850777819578,798.1462036151607,787.6068175792178
1731655480.025154,776.8974307288491,809.8660825434669,797.737853390764,787.7224357937268
1731655480.0256612,776.7039264448126,810.14595708684,796.8713174015733,787.8193938038963
1731655480.0283847,776.4165799835524,810.4252237164171,794.7741770551602,787.8711570480955
1731655480.0322874,776.0168621975156,810.7072748649883,792.6369375057227,787.876254822649
1731655480.033602,775.6179669013366,810.9972659789536,792.8540718562176,787.8937755297724
1731655480.0361898,775.4751910587792,811.2969750630517,796.9651455990827,788.0379507164798
1731655480.0400922,775.8036821870231,811.597749446355,804.0650089302467,788.385501141062
1731655480.04072,776.4133071263884,811.8792502634675,811.1285614061799,788.8149274106979
1731655480.043995,776.4499094852997,812.123494014143,815.0362818817915,788.9217551767997
1731655480.047897,774.7635184256095,812.3440199281474,814.6305010300505,788.2357470263108
1731655480.0517998,771.2100775196842,812.6076899598919,811.1973308775918,786.8311924767754
1731655480.0525298,768.263978313694,813.007172787986,807.1908371733872,785.9839196845443
1731655480.0557022,771.1057064656263,813.5572000993745,804.4235281858656,788.0415527123027
1731655480.056286,784.4112309572923,814.0596975383309,803.157299667379,794.8354334385542
1731655480.0596046,807.0021658020748,814.0784379037065,802.5590825902161,805.3351793292284
1731655480.0604432,829.4853090213231,813.161904915634,801.8282627048728,814.8826927866421
1731655480.0635073,839.3502215759371,811.2423272109731,800.9279377654037,817.8536495844979
1731655480.0674095,830.939889353317,808.8714958473589,800.4242521773135,812.3745259225435
1731655480.071312,811.4734033731312,807.0058383550299,800.8085041454343,802.9532895427244
1731655480.0714576,796.6309045673017,806.4541857119973,802.0328721276001,798.0049999033652
1731655480.0718522,798.4142409430727,807.3755544635368,803.601031599217,803.5994657242371
1731655480.0752144,815.2541369185155,809.0976013286231,804.9422760850994,818.3225971780164
1731655480.0791173,832.9661196361451,810.31545866924,805.636399890856,833.6811332251372
1731655480.0830195,836.2510694183374,809.6721899760662,805.4192264001997,840.2094457905297
1731655480.086922,821.5054724990989,806.6128783280817,804.230365812589,834.721068090994
1731655480.0874183,800.3411602562203,802.0641850173014,802.4217508456711,822.8944674036787
1731655480.0903857,790.6819445388292,798.2690594375662,800.857924845258,814.8860270368423
1731655480.0908244,802.4210274079204,797.529059205819,800.5801515168515,817.2772195086017
1731655480.0947268,829.0655868435326,800.5560923624064,802.1277482357852,827.7810466757327
1731655480.095225,852.089507768492,805.7199788544775,805.0441701445143,837.0545391210551
1731655480.0986292,854.7526749287424,809.9487831142362,808.035112514013,836.2553062648045
1731655480.1025317,834.7351236721915,810.7234829224255,809.7278756118321,824.2696695757668
1731655480.102985,805.7850051772167,807.7029686883176,809.5002594010596,808.7540407724227
1731655480.106434,787.0950331623312,802.8604393881527,807.8121375091486,800.1792844610058
1731655480.1093135,788.7646145460176,799.2125346503269,805.8621698612372,803.7792608578338
1731655480.1103368,804.8406556809172,799.1271337263294,804.864929762962,815.9050311778471
1731655480.1142392,819.3433998473631,803.16327153114,805.4466882528249,827.4979083424184
1731655480.1181417,820.086132730272,809.823450388535,807.4684112636959,831.5049523143683
1731655480.1185508,808.7006449927833,816.178524539848,810.2087028373353,828.0325533021344
1731655480.122044,798.5953676310082,819.1656986225047,812.6539087446846,823.2510701313118
1731655480.1259463,802.8598655047821,817.1210022851252,813.7881841689822,823.4132767230427
1731655480.1282413,822.5317827709503,810.769657717943,812.9585657579324,829.2444279228924
1731655480.129849,845.0837597314362,802.9368638761255,810.2698984966188,835.3499860648025
1731655480.130007,854.3122798923631,796.9636858369851,806.6845260854374,834.9842794439377
1731655480.1337514,843.4770907177168,794.7905379747575,803.5486692119936,826.1284903468616
1731655480.134117,820.9741846814221,796.0357398267325,801.7701554238984,813.7308965939212
1731655480.1376538,803.8132640209344,798.6954916603208,801.3066724203261,805.9846704791642
1731655480.1415565,804.0045129333043,800.8228892603305,801.4081566735557,807.4204335891945
1731655480.1454587,818.9243742910323,801.7967947578077,801.3276186602706,814.5369649222419
1731655480.147169,833.7557891175546,802.2476709096118,800.7692490909222,818.0421084701769
1731655480.1493614,834.1667456190374,802.9499022683079,799.718852587148,810.4604073521947
1731655480.149683,818.667272797356,803.8701520183516,798.0736025813569,793.1076991038517
1731655480.1532638,800.2096399116339,804.2947088850374,795.7137546122054,776.4242523260629
1731655480.1571662,795.6654627013486,803.8439580772491,793.0288057093675,772.8091790246694
1731655480.161069,811.993234678125,803.2757002509586,791.1831962641256,787.3227253610273
1731655480.1647887,840.4622437024972,804.1221778366884,791.5205326704901,813.6194331828219
1731655480.164971,863.3655676901083,807.29386689273,794.4258011042958,838.3859763414631
1731655480.165249,867.4803965429983,811.8533781698496,798.6885040155407,850.7500422541107
1731655480.1660967,853.5001765140385,815.2084663254853,802.1030035782904,849.2726639860588
1731655480.1688735,834.2944686114056,814.8402366443507,802.952680701861,841.3005664795546
1731655480.172776,823.7938092513176,810.29249848382,801.1961741620553,835.7063904674109
1731655480.176679,825.6037260177698,803.7680018955047,798.3961456514879,835.2920402300836
1731655480.180581,830.6325186544736,798.7575304448785,796.4992236771888,835.188179243081
1731655480.1808157,825.7678449288796,797.7636808742354,796.5066477996122,828.3965280331768
1731655480.1844835,806.4377851996788,800.8836126546045,798.0464296782661,813.4534988731101
1731655480.185025,782.312290281299,806.1719501183308,799.9841042938526,797.2971335359995
1731655480.188386,770.8345481888745,811.1896122951454,801.3704987282131,790.5094806034559
1731655480.1922884,783.4481172838094,814.3702949322217,801.9444664714811,798.6976108235253
1731655480.1961908,815.6829006812303,815.335790521838,801.990199461733,817.206328447608
1731655480.1963816,849.3040459723181,814.3575779719725,801.9184399564317,833.7561916691532
1731655480.199571,865.090219301716,811.7539242424882,801.9984569404744,837.2269763923806
1731655480.2000933,856.4654467192446,807.7719707625779,802.3232214645359,825.868563045477
1731655480.2039528,833.6108585524601,802.8858742512342,802.8261132368146,808.5471768092231
1731655480.2039957,814.9983161489596,798.0651552763424,803.2618397648528,797.9256518778654
1731655480.2078984,812.9407382332433,794.6424004598246,803.2980756466447,800.7657500757916
1731655480.2118008,824.5155113497823,793.7450790356182,802.8251361363364,812.9830984853529
1731655480.2119477,835.1225271298932,795.6009455990169,802.2404311049314,823.4523356483644
1731655480.2157032,831.6829891369514,799.2151932338568,802.2727839702052,823.4215255799315
1731655480.2196057,814.3083219473723,802.787612712319,803.2924802902182,813.6622576615569
1731655480.2228806,796.4276185658181,804.7301808932654,804.7233461034248,803.4208454104943
1731655480.223508,793.2344348696765,804.5889973370637,805.3221965341135,802.2799947521606
1731655480.2274106,808.3716388729312,803.1512648319601,804.3285977376647,811.9856414278001
1731655480.2275138,830.2319883944222,801.6805858699979,802.4757140006619,825.036351173559
1731655480.231313,841.0106404853693,800.9575594929028,801.7240230952939,830.9206446264551
1731655480.2343526,830.9621502281856,800.8721325072098,803.670177097754,824.620572078108
1731655480.2352154,806.1554500934029,800.7310042095442,807.9252956522181,810.4861397083118
1731655480.239118,783.5364295773724,799.8874815802728,811.9971599398996,798.614224506555
1731655480.2418084,777.4823369500263,798.238787947688,813.007151886219,796.8483135181284
1731655480.2430203,788.7907156897794,796.3666898926126,809.9730531664604,804.7685266134654
1731655480.24308,804.886552319974,795.2514979991226,804.8183216892683,814.321375048936
1731655480.246923,810.8345516879809,795.6080652092969,801.2141071819204,816.5378851514688
1731655480.2508254,801.9469378484282,797.2020967752519,802.021151019073,809.0269579337989
1731655480.2547278,787.5150737126913,798.8011373172566,807.1653448634747,798.2135938619152
1731655480.2586305,782.5678156275758,799.1302729735173,813.4883963725622,794.326373450386
1731655480.258646,794.5445535892525,798.2547691445741,816.7304467621503,802.9454344354396
1731655480.2607362,816.0661564459916,798.060706547272,814.3332314133764,819.8715988182578
1731655480.2625327,830.0390034430768,800.9742901610421,807.2018570503352,833.6359472851551
1731655480.2664351,823.2686532575682,807.652308811279,799.258160268711,833.9595006566075
1731655480.2691343,797.7420382091037,815.6441009520174,795.0608167653378,819.6662344241345
1731655480.2703376,770.2968312245279,820.5254261171882,797.0129251240666,799.8197208997691
1731655480.2742124,760.3693452411782,818.9156545382776,803.932509201781,787.0825375730311
1731655480.2742405,775.0472780320645,810.9900583603803,811.8625970568356,788.4188448494725
1731655480.2781427,803.2501713158049,800.3916655337547,816.5379673976488,800.3864745241509
1731655480.2796645,824.0708124302055,791.6719725179762,815.8865402948558,812.6142229150167
1731655480.2820451,823.053634423883,787.4714341647491,811.0129833406041,816.4926338321387
1731655480.2859476,803.4325413973445,787.6439020028489,805.1893647831636,811.9118623987865
1731655480.2897785,783.0462817639138,790.5564133331011,801.6734324610895,806.5470408233574
1731655480.28985,779.3077187980006,794.868446038088,801.8214581414769,808.4706923040405
1731655480.2937524,794.649294289601,800.0421150827302,804.6151931874606,818.554549690054
1731655480.2976549,814.5788310551341,805.4946467011234,807.7117347322073,829.2894288438465
1731655480.298592,819.9088021199835,809.8116571115564,809.1518168388773,831.0736029433217
1731655480.3015573,802.9265512099975,811.2472240231058,808.5358717816451,820.5685321299812
1731655480.3039165,774.201887838072,809.1902903449972,806.9637763971198,803.9967577340522
1731655480.3053446,754.5581652857023,805.1036926806232,805.9598782349273,792.5693796362485
1731655480.30546,758.6869034886046,801.8441615196895,806.2960679721165,793.7410749498321
1731655480.3093624,783.4691852960534,801.7594955593263,807.5844143243278,805.3384844197681
1731655480.3132648,810.3531799505382,805.0408192587631,808.803722030151,817.2643093563308
1731655480.3171673,820.0085561084038,809.5653698608352,809.1572085456248,819.4417855754429
1731655480.31752,807.5666592636313,812.2917939315936,808.4908933489384,809.7383211765643
1731655480.3209107,786.1375705641626,811.2158727560372,807.0486177813104,795.6521699532254
1731655480.3210697,775.7842432384451,806.6266697724423,805.025603884811,788.4455830724113
1731655480.3249722,787.0249606714765,800.9016653976473,802.5024701113675,794.2688012495049
1731655480.3288746,812.308697525052,796.9862855102004,799.8036138278899,809.152683742867
1731655480.332777,832.194731399119,796.5564170618972,797.754549814974,821.8380873439362
1731655480.3364477,830.9582238277313,799.125456164654,797.3662917716916,822.433260316679
1731655480.3364768,809.0061172572515,802.6964763793983,799.1073240462883,810.3078683250956
1731655480.3366797,782.4502905303519,805.3332622222191,802.4424692820546,794.9769301244497
1731655480.3386984,770.5010966820693,806.3119510143828,806.135920531405,788.943324315908
1731655480.340582,780.6845271418033,806.089276318639,809.0825642594112,797.7945243249721
1731655480.3444846,803.3420870215939,805.508395792303,810.8950634670135,815.4032605532744
1731655480.348387,819.6219361379833,805.121619325736,811.7244197533525,828.4392127738773
1731655480.3520432,816.6469099520244,805.0338622016334,811.6184198353066,826.9161446662072
1731655480.3522894,797.7542201709867,805.0995708582101,810.2468442277092,812.2102747340416
1731655480.3553755,779.4636335760721,805.1588831914065,807.4025231726996,795.7746237922746
1731655480.356192,777.5518155748696,805.146456385668,803.7166200163055,789.5439228692608
1731655480.3600943,793.6820258851351,805.0786586323915,800.6219936052271,796.1031470601389
1731655480.3639967,813.7584956559167,804.9968372290962,799.332126383251,806.8326364866289
1731655480.3676093,819.5034309458806,804.927270708175,799.7270575839589,809.3929070959465
1731655480.3678994,803.7131348846582,804.873352909098,800.2769231172095,798.1246783132259
1731655480.371802,776.5871310467015,804.82652696938,799.188516767011,778.7993726181213
1731655480.3734803,757.9718912174759,804.7784505626252,795.843631757215,764.1135582912127
1731655480.3743036,761.8959644075925,804.7260904352718,791.4036032221926,763.8767758593755
1731655480.3757043,785.8339572870581,804.6705949513788,788.1924294310344,777.7919922427996
1731655480.3796067,813.1135387480863,804.614196780119,788.3282963112773,796.2776975135432
1731655480.3831754,826.3235862350413,804.5582040915219,792.4407126686895,808.2663015359374
1731655480.3835092,820.8572205165943,804.5027147579918,799.1794535011753,809.5197419126424
1731655480.3874116,807.6504867464149,804.4472499759333,805.8092640420939,804.8484999638945
1731655480.391314,802.9876863600515,804.3913877248596,809.6313907088427,802.7908238896481
1731655480.3932314,814.0077869043052,804.3350007979378,809.4564842540871,807.6169677668017
1731655480.3952165,832.2577501418718,804.2781756756043,806.1918331764673,815.6385901711169
1731655480.3987415,840.8651497873147,804.2210429923807,802.0848903389835,818.8574760666663
1731655480.399119,829.2575323212307,804.163673413982,799.165893053385,812.4911590655689
1731655480.4030216,802.8717545604575,804.106066416421,798.1291948978878,799.6576759621622
1731655480.406924,779.5549924807109,804.0481913510997,798.4169563274517,789.2025793813847
1731655480.4082625,775.5868802602106,803.9900359552769,799.0858290526926,788.6226889120718
1731655480.4108264,792.8287365607182,803.9316352191886,799.5324339754234,798.0175125877192
1731655480.4121592,817.428415111297,803.873063015625,799.6493006846407,809.9393644755926
1731655480.4143076,831.0235230255435,803.8143754237249,799.6004120670177,815.219357947292
1731655480.4147289,825.3186707491664,803.7555234309586,799.561089331057,810.1963461839674
1731655480.4186313,808.1948044973534,803.6963095371415,799.6010458745772,799.6282683241849
1731655480.4225338,796.3478461512657,803.6365003740818,799.7007395865819,792.7846907897365
1731655480.4264362,800.6211907022213,803.5761362172465,799.8143765171864,795.6515981599655
1731655480.4298737,816.5219052896098,803.5158506780327,799.9134612172946,805.6526115445279
1731655480.4303386,828.1378969179755,803.4567519970527,799.9947289064194,813.567032525002
1731655480.431087,822.1325028693707,803.3994581996645,800.0677971948573,811.3443052682422
1731655480.4342413,799.7815998708799,803.3425661403854,800.1418116319609,799.2996521582561
1731655480.4381435,776.7917467941555,803.2820284019366,800.2200015235532,786.466348323016
1731655480.4420462,771.0664941279185,803.2135478434316,800.3010369721324,783.581139489209
1731655480.443044,788.4669032863402,803.138512318648,800.3824611616789,794.3673002142618
1731655480.44544,817.9144646061322,803.0695402920967,800.4628699789566,812.2171483857425
1731655480.4459486,839.5307259026881,803.0270650117521,800.5421912965586,825.0117018661081
1731655480.449851,839.416505231265,803.0200515550192,800.6209729351567,824.3224464846385
1731655480.4500148,819.7678883602488,803.0178803003333,800.699689434836,811.7647027063935
1731655480.4537537,796.6551245719861,802.9427064972737,800.7784900618053,797.4906798397709
1731655480.457656,787.2197082682343,802.7210416887926,800.8572939213673,792.0411205623175
1731655480.4610062,796.33129698144,802.3995997344924,800.9359748347637,798.1405210869864
1731655480.4615583,813.3583382820768,802.2467635414584,801.0144692802387,809.088485586961
1731655480.465461,821.6642901830425,802.6869751897842,801.0927838184239,814.9291922620647
1731655480.4689429,812.9228850477876,803.984488807833,801.1709546720496,811.0859541288962
1731655480.4693637,794.1881449560792,805.8727983187215,801.2490119942386,802.1643760601654
1731655480.473266,781.7029513338508,807.5553162416544,801.3269684760982,797.804476694548
1731655480.4765725,786.7011500262981,808.2529352165042,801.4048255313605,804.1337142083615
1731655480.4771683,805.2770189225865,807.8756553241174,801.4825831675769,817.9424926583015
1731655480.477826,820.9685091618995,807.1853318226155,801.5602452686398,828.4503642440071
1731655480.4810708,818.0735039088817,807.2930012172762,801.6378195988902,825.4863672886403
1731655480.4849732,794.804273375258,808.9132666370166,801.7153155330061,807.801966748237
1731655480.4878707,765.3800246549409,811.8725743333487,801.7927422283348,784.8886010528474
1731655480.4888756,749.0136254894885,815.0467097113977,801.8701081327981,770.4544987871113
1731655480.4921384,754.4853464440822,816.6877625697565,801.9474213707497,772.2580666066117
1731655480.492778,772.9918266893375,815.1319716553008,802.0246902436431,786.270611055497
1731655480.4966805,785.556956641581,809.7997496835457,802.1019234282479,800.1135727580678
1731655480.5005832,779.214310835165,802.0096456098278,802.1791298905123,803.2535615557422
1731655480.5044856,758.452956783099,794.862610834868,802.2563187568383,795.5876083798408
1731655480.5067985,742.0512302347125,791.8683316537538,802.3334993587803,787.1352199136156
1731655480.5077045,747.6349486991224,794.9242060899714,802.4106814644782,789.0252439927414
1731655480.508388,776.6045384939712,802.9069302469202,802.4878754407459,803.4195580133448
1731655480.5122905,811.7809900412791,811.912870898989,802.5650919399794,820.9552280408913
1731655480.5126078,829.8116771491091,817.2360308592114,802.6423409367369,827.9653701093424
1731655480.516193,818.673274632273,816.0753768994782,802.7196306763736,817.5581552717622
1731655480.520095,786.6731921336947,809.3236990184587,802.7969679579052,795.3809981029949
1731655480.5232708,756.0300719033712,801.1238725307661,802.874361098251,775.2593786695641
1731655480.5239978,746.1453382276488,796.2765931073131,802.9518248023572,768.3314810259523
1731655480.5257263,759.6725453734288,797.2256040600167,803.0293823642503,774.7606825396671
1731655480.5279002,782.1126324864836,802.812022571017,803.1070584401217,784.8611179183536
1731655480.531803,794.7617158975166,809.6158712281559,803.1848603778992,788.337202493313
1731655480.535705,790.1784801130993,814.5739501362376,803.2627600504304,783.3937530584549
1731655480.538837,777.5805118745939,816.6586557274185,803.340703254649,777.8535702725974
1731655480.5396078,774.105028632348,816.5485928681082,803.4186695645894,781.6670197980786
1731655480.5435102,789.5411521580903,815.1683708811017,803.4967625426533,797.6584861960004
1731655480.544654,817.3230959752633,812.7648778366403,803.5752394244986,818.4802805465026
1731655480.5473895,839.2379389671199,809.2430863986889,803.6543568183665,832.0743003175219
1731655480.5474126,840.0487185497326,805.0314781577217,803.734012645377,830.8811593275176
1731655480.5513153,820.1232025327374,801.3052044258297,803.8134345194159,817.3944663515689
1731655480.5544033,795.5757047708138,799.2263493100556,803.8914291503627,801.9251858762532
1731655480.5552175,785.4285499056379,798.9494474816664,803.9675744021997,794.5656964015639
1731655480.55912,796.1222255133812,799.395776784132,804.0438715251037,797.6704269581352
1731655480.5630226,816.3394737861081,799.0806544251365,804.1250660128254,804.6400908233863
1731655480.5635822,826.7580312398269,797.3419849250183,804.2154041233853,805.850681158155
1731655480.566925,816.6740522093504,794.984926414401,804.3118106118031,796.9480848898041
1731655480.5699692,793.4215791899092,793.8181519268958,804.3986539251068,782.8420617521145
1731655480.5708275,776.5841819465298,795.3845311743075,804.453802671685,774.1429912702256
1731655480.57473,781.8768296533791,799.7820499529226,804.4721110714715,778.8050500171394
1731655480.5786324,808.09230084653,805.4348116122794,804.4952012263384,795.5668080615726
1731655480.5821717,837.6722325262842,810.0136641896993,804.6122574036413,814.3989694250329
1731655480.58251,850.2274438580047,811.868828772387,804.8911675403771,823.7223136783113
1731655480.5825348,838.1855462651044,810.9621543336825,805.2444639168494,818.908906900465
1731655480.5855353,812.3979568556286,808.6837703236838,805.328453815975,805.5294752846044
1731655480.5864372,793.4542184549048,806.7798088840369,804.6354403046864,794.779314675608
1731655480.5903397,795.4874912142864,806.2261967747843,802.8352696597046,794.600084773296
1731655480.5942423,815.2174375389552,806.8198990304987,800.1541326834515,803.5399186346949
1731655480.5981448,835.0650095743104,807.6452838333514,797.420309149637,812.3324123888196
1731655480.6011014,837.9101025880692,807.92627690127,795.63258463071,811.9018530817832
1731655480.6014378,821.3735525893926,807.5757957724986,795.3587729433617,801.1643135423836
1731655480.6020472,799.7578890936655,807.0966485147181,796.4772684061383,788.1901104922185
1731655480.6059496,792.0923279786549,807.041409268562,798.4973083230846,783.8623554632385
1731655480.609852,806.3436244609153,807.5371242888868,801.1609874832166,793.3105600049818
1731655480.6137545,832.8504472903271,808.2209150040237,804.7091389169101,811.994665139038
1731655480.6166675,852.1134255071009,808.5348849478443,809.4323571960717,829.295960374918
1731655480.6169536,850.2651243753392,808.088572592119,814.8270767632149,836.4491326349197
1731655480.6176567,829.6688904886506,806.8715312228037,819.2299120846893,832.538191400331
1731655480.6203656,806.4216797143661,805.293212243429,820.5769954033686,824.1921857899121
1731655480.6215594,797.0777319831127,804.0934247781842,817.9506863420188,819.6382231851562
1731655480.6254618,805.3811053760136,804.0982559120082,812.6669170950073,821.9952189322928
1731655480.6293645,819.7859890579582,805.7795694987946,807.774588919911,827.1210877898498
1731655480.632234,823.8643366501177,808.734609173559,806.07698878137,827.6628852750986
1731655480.6332667,810.9370452583408,811.4460316913297,808.1179320898419,819.8851628558632
1731655480.6371694,790.3870640281388,811.7449801598331,811.7462794339848,807.4289526255367
1731655480.6392934,779.9510609334179,808.0371224864181,813.6452387376597,798.6353687136738
1731655480.6410718,790.3415286993031,800.6624138445312,811.6549912313382,799.571477508183
1731655480.6449742,815.3210125174697,792.3183408994569,806.1737369157328,808.7080779786132
1731655480.6478,835.8442610381654,786.8997889665447,799.7589807207681,817.9500117382905
1731655480.648877,835.0550597885406,787.2943434764348,795.4295633412023,819.3991340279852
1731655480.6517355,811.8935152123428,793.636029596006,794.9474764478075,812.2682827195712
1731655480.652779,782.2296656091806,803.284474495758,798.0993403624501,803.9329938723329
1731655480.6566815,766.5890034529841,812.4662943376061,803.1467144312342,803.7951160064919
1731655480.6582215,774.3515916348913,818.2799222139106,807.9024654533561,814.8246003974726
1731655480.6605842,797.1286686644179,819.7149141028328,810.7124405100703,830.1164516127769
1731655480.663366,816.5471946975981,817.3757952238939,810.9074031119275,837.9809445110326
1731655480.6644866,819.8214346037195,812.62598561048,808.7269963647286,831.7397979796602
1731655480.668389,809.9860302470631,806.974180923939,804.9982831441101,815.8703366854504
1731655480.6722915,802.1991246158364,801.8764376862093,800.8355545750745,802.853256874196
1731655480.676194,809.5110784548906,798.5891198742962,797.4116965937836,803.0488925429977
1731655480.6771493,830.5886107897755,797.8109762344169,795.6867371278752,816.0731209590587
1731655480.6789322,850.0862402891968,799.3131136328733,796.0476867327296,830.9003366688445
1731655480.6800964,851.3927443071815,801.9651859074114,798.0376025074934,834.5474646348232
1731655480.6839988,831.0148989254443,804.297668749843,800.4546473053724,822.2617524286862
1731655480.6865177,802.5783311190353,805.2848211809093,801.9002264088305,801.2276426705814
1731655480.6879013,786.9163879110544,804.816551774366,801.4925372773944,785.0988789422863
1731655480.691804,795.8784067912616,803.5306178911251,799.296920651107,783.6974514876498
1731655480.6944983,822.6060780541247,802.1484228427089,796.2403064523174,795.7697262291846
1731655480.6957064,846.2267638791033,800.8554271839558,793.6541246032187,810.2872838961407
1731655480.696077,847.7776472806208,799.2746579055339,792.7568375010425,815.2139734742359
1731655480.6996088,825.1510179919946,797.120305823489,794.2582070045838,806.840922653157
1731655480.7035112,795.1270947665028,794.9737766116198,798.0984362101057,792.3248693394089
1731655480.7074137,780.4263580736811,794.3486660975768,803.3457185751232,783.530437045149
1731655480.7100646,791.7068310311494,796.70183995707,808.3777703485451,787.3257284292647
1731655480.711316,818.8128073406245,802.0480093176262,811.4402193807433,800.2413881601608
1731655480.7150047,838.4470640070372,808.4367165939684,811.4446692486376,811.6119619602346
1731655480.7152183,832.388457856982,812.9940223166949,808.6005951004496,812.3353410178316
1731655480.719121,801.959481053524,813.8420028931972,804.4113794864159,802.0766203533418
1731655480.7212992,767.371956301382,811.312214775656,800.8737072155456,789.3565159709965
1731655480.7230234,752.4248176455294,807.4606188746301,799.3058629171562,784.7695460678975
1731655480.7256308,766.4640361049819,804.4376290344815,799.6459855406683,792.8082764355614
1731655480.726926,797.6448658920141,803.1795400451846,800.8133899898687,808.5718517193033
1731655480.7308283,822.6478964208848,803.3164150797578,801.8580826035471,821.7091726420699
1731655480.7339327,824.9462636655824,803.955798261941,802.8774261610836,824.3742346573556
1731655480.734731,806.9002758755311,804.4450230416901,804.84018443686,816.9164162349443
1731655480.7386334,786.1448075462336,804.6114005462032,808.4727464704729,806.8653167139652
1731655480.7411969,779.8820429326362,804.5871907177988,813.2616478705658,802.2219195981934
1731655480.7425358,790.6890702694919,804.5500741706562,817.5013960877573,804.7911084111762
1731655480.7464385,805.6390423425527,804.5852504898925,819.3187516545852,809.1927506301555
1731655480.7503407,808.6768738132075,804.6846096629325,817.7830508147831,808.1850010039173
1731655480.7528608,794.9394380854774,804.8048931272245,813.3274729195339,799.4159918176825
1731655480.7542431,774.7336447824265,804.9147242929083,807.4383320187733,787.6517989218637
1731655480.756081,764.306159060269,805.0074216565683,802.0415542974976,780.7569219203523
1731655480.756763,771.694689125781,805.0910831051268,798.8836316793571,783.2416297098937
1731655480.7581458,789.6560377546176,805.1750914905313,798.9267648237962,793.0565325555202
1731655480.7620482,801.5387530475117,805.2635120984594,801.8490443952211,804.0014412948024
1731655480.765951,795.2982909976247,805.3555773714876,806.0028587175038,810.887862793491
1731655480.769853,774.06510907933,805.4489149109514,809.105896137276,812.6184985223211
1731655480.7717886,754.2219096728346,805.5419376699571,809.4062697008887,811.3123909711935
1731655480.772329,752.1230056622433,805.634380584823,806.5994501673875,809.5845995772474
1731655480.7737556,770.2992332508129,805.7267050758721,801.9056758956712,808.7690716275513
1731655480.777658,794.9240012412968,805.8193887183095,797.3397625844067,808.8523890453462
1731655480.7815604,807.1345540085719,805.912609103195,794.7320051657938,809.2623451727089
1731655480.7854629,798.9451589545632,806.0062948184444,795.0647088827754,809.5479735431338
1731655480.7878954,780.2360376031937,806.1003033352423,798.2903564957929,809.593462319334
1731655480.7893655,770.6689154660659,806.1945437396438,803.4456193500619,809.4998312766655
1731655480.7907164,783.1420265843017,806.2889995431673,808.8774518683514,809.3983125973654
1731655480.790863,812.5559449918852,806.3836918124136,812.6328302242301,809.351169078668
1731655480.793268,839.277326117605,806.4786339437205,813.1431306906073,809.3521279815982
1731655480.7971704,844.6400823561652,806.5738061264539,810.0522641954782,809.3693810213235
1731655480.8010728,825.9740938915352,806.6691582602614,804.6556201515689,809.3800190462995
1731655480.8034616,798.875265272281,806.7646424234608,799.4331200365262,809.3792708616007
1731655480.8049753,784.6936818179938,806.8602642255262,796.7507801799824,809.3731391180693
1731655480.8088777,793.3860305628225,806.9561152293052,797.5253773567877,809.3685004173329
1731655480.8096442,815.842680969848,807.0523248391779,800.7915295594715,809.3683020382082
1731655480.81278,831.9753885315898,807.1488982684889,804.4554528488333,809.371954235058
1731655480.8166826,827.7205864037503,807.2455232661174,806.6314625703505,809.3777157768285
1731655480.8190277,806.8173107823189,807.3415822146668,806.6356630505043,809.3844468345742
1731655480.8205853,787.7926176902438,807.4366228630904,805.1406818440101,809.3919848198306
1731655480.8244877,788.8592011928067,807.5312117664546,803.6208229979648,809.4006723135498
1731655480.825645,813.0424604723438,807.627438128932,803.4804952682347,809.4107987671096
1731655480.82839,845.2809924057979,807.7278723839404,805.2063574263628,809.4223719120196
1731655480.828572,863.5895586608344,807.8324436195703,807.877573169252,809.435246238533
1731655480.8322926,855.5555887860882,807.9350139221103,809.4225214974589,809.4494187801329
1731655480.8345938,827.5320351660748,808.0242261485882,807.7582509818324,809.4652195141281
1731655480.836195,799.4993150079318,808.0930579603832,802.289078604514,809.483132635939
1731655480.8400974,789.5297769346118,808.154731718597,794.7087190790321,809.5031696787505
1731655480.844,799.9828840662146,808.2502498005267,788.3208551295272,809.5241669916672
1731655480.8475,816.4339229794423,808.4253886400412,786.1523698128916,809.5439085111707
1731655480.8479023,820.2391412639026,808.6697625507851,789.1314279878178,809.5609501081487
1731655480.85016,804.4599091553515,808.8552442210452,795.6317004947872,809.577727037109
1731655480.8518047,779.9868941231891,808.7593917086497,802.6691148627084,809.6021274777427
1731655480.8557074,766.7745211683903,808.243316784649,807.8108429582047,809.6432186586774
1731655480.8596098,777.4099487002474,807.5017721123435,810.401781420598,809.6995895129262
1731655480.860427,806.4800265624058,807.0912664702263,811.3483667048685,809.7474643510526
1731655480.8635125,834.3367007872959,807.5079460759421,811.8614595329193,809.7455620945157
1731655480.8657262,842.1808772866325,808.5963970208566,812.2949632396494,809.6718502698773
1731655480.866428,826.4321549433553,809.4407662496099,811.9657781110108,809.5810780191725
1731655480.8674147,801.0278090994636,808.9775607817338,809.9057883535602,809.6270320696186
1731655480.8713171,785.8725255089762,806.8017057695615,805.7520185420198,809.9704134198
1731655480.8752196,790.7355815317286,803.4515789097225,800.0506844612056,810.5546701472448
1731655480.879122,807.7390274585447,799.9998512039488,793.935346835952,810.9009389866014
1731655480.8812923,818.6911112714761,797.3924181084841,788.672873711839,810.2468985964377
1731655480.8830245,811.1116556515473,796.0794799870386,785.4467965003209,808.2880864739045
1731655480.8853557,789.3271385768161,796.0725974806542,785.2413569103508,806.2561151322607
1731655480.8869271,771.1420980390535,797.1318127932635,788.4983499141778,807.2529676882574
1731655480.8908296,772.8469808358132,798.7886646581759,794.6089467040077,814.4906024957793
1731655480.894732,795.137065193892,800.2810428102429,801.767840272692,827.5916611520428
1731655480.8952088,821.7124069020155,800.7296916720968,807.5963115529804,840.2136401769067
1731655480.8968585,831.88321008551,799.677684599675,810.2574419141453,843.167311302005
1731655480.8986344,817.1017257713562,797.6328928189954,809.262515159132,832.2159093025779
1731655480.9025369,788.0445079934481,796.0374857413879,805.4002727746952,813.2835537834115
1731655480.9042835,766.2724864764573,796.4625684027004,800.012977276353,798.8387162745149
1731655480.9064393,766.9364177548381,799.5210784477765,794.3980887288518,797.8391354228718
1731655480.9103415,786.5971755681211,804.3440868157896,789.8374127526416,808.2725554999485
1731655480.9124246,806.3992317931362,809.0717293717736,787.8994303514075,819.1504885960362
1731655480.9142442,808.1326641158939,811.9915778238365,790.1748619905667,820.2598296562454
1731655480.9181468,789.674081717771,812.4677088203006,797.1639051402615,811.032390240844
1731655480.9220493,766.6841825394858,811.0529905084843,807.1531653260462,800.7247896981075
1731655480.923211,759.208699337807,808.8578094446295,816.3404900709598,799.8635196230101
1731655480.9259515,774.7014352556025,806.7407046230585,820.5775280092882,810.5908290657799
1731655480.927991,801.7750248654904,804.8724697186834,817.7089605420234,824.3666652000456
1731655480.9298542,819.6624466798988,802.853918483419,808.9179122123895,828.9644200509649
1731655480.9299908,815.2893217043279,800.1864744575614,798.1797229207104,818.7608433618283
1731655480.9337566,793.8667557742357,796.7469366818107,790.1851824958816,799.6986173448573
1731655480.937659,774.4500348589389,793.0121853226567,787.9668345330887,784.8495358880776
1731655480.9415617,774.1605524542617,789.9574520922506,791.5191487431492,784.1831255679327
1731655480.9421394,793.9311630426799,788.6837382272876,798.0844040459683,796.7345832846587
1731655480.9435568,817.4626794913171,789.9299616934352,803.8689034447867,811.4033029210239
1731655480.945464,824.4357837562017,793.7219629278424,806.1842123845892,815.7797273885631
1731655480.9493663,807.3697908829122,799.393885923996,804.7633175515706,806.0331292452819
1731655480.953269,778.3651048239834,805.9757263021742,801.4953370718356,789.9868956793089
1731655480.9571714,760.0700120655941,812.6212949832515,798.8548127711088,780.9000756060362
1731655480.9591231,767.9907823520773,818.693316307847,798.1988308522731,786.9362902793945
1731655480.9610672,798.1769595498548,823.4626541106169,799.1470582046159,804.7245727389575
1731655480.961074,829.8955698930708,825.8303687066017,800.3559843481355,821.9997524411424
1731655480.9647727,841.1212466350884,824.5831194689437,800.8794709570967,827.0212714729729
1731655480.9649763,824.9215046891343,819.2521166402948,800.9142570282299,817.2901298549591
1731655480.9688787,794.2861161109321,810.975477339288,801.3770403925281,800.9065507014705
1731655480.9727812,771.800919055592,802.5007107556427,802.8558059235104,789.7877960557983
1731655480.9746892,772.2379994855936,797.0080887869394,805.015223483877,790.2729026288096
1731655480.9766836,791.7382348519493,796.4280171381378,806.9961641335294,798.5779073788104
1731655480.979995,812.0788082186563,800.4402140950326,808.2736860252786,804.628112366109
1731655480.980586,816.3252132002525,806.8250745224585,808.9817357018663,801.024799939859
1731655480.9844887,802.867199538532,812.7725039881693,809.4037370102297,789.7071709968724
1731655480.9883912,786.2904518716219,816.164715772688,809.3639009083881,780.7223758691763
1731655480.9902554,784.6065330036655,816.175178491743,808.367853842304,783.990186837812
1731655480.9922936,803.6952580873568,813.2290264743829,806.3621132955358,800.7396915526047
1731655480.996196,831.9090761981222,808.6828076488904,804.1190734369277,821.6321968877598
1731655480.9989228,849.1893802707891,804.3765191048792,802.6233781011605,833.262196765385
1731655480.9995544,843.1950454755766,801.9868541711108,802.0486682642884,828.1310209755576
1731655481.0000985,819.4299235316363,802.2675938615931,801.5230097788271,810.4656839192451
1731655481.004001,797.1964637531768,804.6112235869903,800.1121369145675,793.3337579986929
1731655481.0058217,794.414715123732,807.379607497926,798.1045283630251,789.0300548100041
1731655481.007903,813.3256888214612,808.9247649556008,797.2237425855692,799.9239074516315
1731655481.0118058,838.7174896348488,808.5923394270822,799.3483708363143,816.8587295882515
1731655481.0157084,850.3291003404809,806.9474630085697,804.7560428558058,826.4691656708158
1731655481.0178509,839.2493564004791,805.1282766609414,811.4296383703589,821.6314394790846
1731655481.019611,814.589915568302,803.9708052757618,816.0979426832225,806.6115277570117
1731655481.0213876,795.0015970585197,803.6141348723415,816.2557671332601,792.8659369294744
1731655481.0235133,792.6644422482613,803.7139068307771,811.6696766083257,789.3006444297687
1731655481.0274158,803.6229159696164,803.8719372289655,804.3630804205752,795.2990155466974
1731655481.0313182,812.3770108487819,803.8915292398012,797.269048293422,802.1358512601812
1731655481.0343363,806.1388519333627,803.777632030292,792.6289145985958,801.0808191715975
1731655481.0352206,786.2220416299659,803.6162178450614,791.1585004173755,791.0268498144394
1731655481.0367787,767.0415238695687,803.4735338157304,792.2154761404215,779.3085091327838
1731655481.036954,763.870900020579,803.365683564254,794.4860413180342,775.3368502496503
1731655481.0391233,779.7013669391281,803.2770664043377,796.6446418712643,782.5730952435641
1731655481.0430255,802.1385685043552,803.1881723648396,797.8195968001962,795.5284387115671
1731655481.0469282,813.1092535194612,803.089991393273,797.9049518765328,804.2236088134649
1731655481.0508306,803.6674281291615,802.9836526983127,797.6198744843338,802.3818223246533
1731655481.05252,781.7568358507918,802.8739367768661,798.1491747028049,792.5589701261507
1731655481.054733,766.2940701630096,802.7642062782505,800.4769227787099,783.9821286344495
1731655481.0557065,772.1209682973907,802.6551136157942,804.820120639949,784.9405559157007
1731655481.0586357,797.9472533603324,802.5457393158712,810.4736800762552,796.0550032911964
1731655481.062538,827.0334735579263,802.4350639140525,816.0399656407957,809.922040536123
1731655481.0664403,840.1041213959518,802.3226636292242,819.8725253337316,817.2278110391824
1731655481.068086,830.2581808457514,802.2086377456524,820.6593128055833,813.9998634379637
1731655481.0691185,808.1454279696168,802.0932509358025,818.0581318488764,803.9045365579624
1731655481.0703428,793.3739489887835,801.9766761022265,813.0594066725415,794.1940688140027
1731655481.0742452,798.8815563824029,801.8589407494842,807.6578094291635,789.7039778501397
1731655481.0746343,820.5570710160971,801.7399947166291,803.8165106731349,790.3528455427987
1731655481.0781476,840.4755186521633,801.6197892775677,802.364287198827,793.1533269333341
1731655481.0820503,841.5121868482049,801.4983137035592,802.6817285042301,795.4477849294182
1731655481.0836525,821.8036916440393,801.3755908966825,803.4373375768249,796.3760995476762
1731655481.0859528,797.0603912012574,801.2516538827609,803.7127890034387,796.4105586799254
1731655481.0898552,788.1899164317798,801.1265202917722,803.5313491991278,796.3083259561238
1731655481.093562,803.9309162693592,801.0001759999458,803.4295315236893,796.4782834444432
1731655481.0937576,832.9368225587091,800.8725815596954,803.6426553338761,796.9249095389241
1731655481.09766,852.3598448728803,800.7437143368345,803.7631384492931,797.4763232507756
1731655481.0992184,846.2314468463386,800.613635644181,803.1590539086533,797.9923303970319
1731655481.1015625,818.5065102503117,800.4825244156035,801.6779373188024,798.4339938428631
1731655481.1039002,789.9149878171995,800.3505875262375,799.9532487931576,798.8302505814114
1731655481.1054647,781.2092499246821,800.2178136905611,799.0573272259952,799.221147663594
1731655481.1093674,796.6493529808853,800.0837198698248,799.7967022421595,799.6265002653117
1731655481.1124902,821.2492964965211,799.9474477390696,802.1476495356571,800.0450618472164
1731655481.11327,833.7982301549213,799.8085339751068,805.1510361396257,800.4673286862051
1731655481.1147845,824.6028617787564,799.6681286382171,807.3044975967515,800.8862046071239
1731655481.1171725,803.1305339780196,799.5294852009608,807.2987000877521,801.3000815842863
1731655481.121075,789.3763640303537,799.3960438120479,804.7987746025816,801.710733338548
1731655481.1249774,796.5052568123012,799.266701381947,800.8331819853257,802.1202930164662
1731655481.1288798,819.4749955092493,799.1314122064297,797.4041997532387,802.5297261884783
1731655481.1303508,839.0042939994366,798.9739520702722,796.3654104252932,802.9389076978915
1731655481.131418,837.3090774357876,798.7873278036776,798.2129252675412,803.3473516669577
1731655481.1327822,812.5657057370313,798.5961986625247,801.6522945088078,803.7547718904788
1731655481.136685,780.5367612089598,798.4629941513942,804.3145919278637,804.161202510749
1731655481.138682,762.3498488762332,798.4471368964151,804.158836211151,804.5668096171772
1731655481.140587,768.3360252195627,798.5142226955271,800.640555360877,804.971642793604
1731655481.1444898,790.7046971579256,798.460129377928,794.9971243840534,805.3755358652559
1731655481.1459167,810.6290356938638,797.978121895001,789.637079958709,805.7782753052677
1731655481.1483922,813.73031555769,796.954760044123,787.0326755005,806.1799974694042
1731655481.1503458,801.2082318188425,795.84848282718,788.5674063652825,806.5815168830695
1731655481.1522946,787.5625809873134,795.7131689102414,793.7794492163857,806.9840617267282
1731655481.1561973,787.1352351734629,797.5409167145903,800.4578092820512,807.388060993193
1731655481.1600995,801.1780233939224,801.3273088176255,805.7659843917913,807.7915064154851
1731655481.161483,816.6463563782977,805.8238951243567,807.8725573950342,808.1897008758958
1731655481.164002,817.7320076702265,809.4036269871253,807.0215043831654,808.5785860821308
1731655481.1679044,800.1074963073972,811.3010320894011,805.2527126448351,808.9615526145601
1731655481.1692736,775.5603000360255,812.072942467163,804.9713222998813,809.3544512074635
1731655481.1718068,762.9613850158944,812.905230058671,807.3953237377648,809.7791365328563
1731655481.173464,773.0203168550962,814.4815353296572,811.8964528344152,810.239718352061
1731655481.1757092,799.3574230702902,816.4419374878069,816.5179634496769,810.6931025636416
1731655481.1770492,823.2081759932473,817.7961460304068,819.165701619215,811.0490635933515
1731655481.179612,828.0603973327441,817.7753373764638,818.6596070405416,811.2388926102752
1731655481.1835144,812.5007059203118,816.341487733552,815.0845770907878,811.3437222945905
1731655481.1874168,790.8757121040222,814.0226033954195,809.4318317478628,811.674919840105
1731655481.1882014,781.2073279785998,811.3596638890832,802.99176029775,812.625401932452
1731655481.1913192,790.3496451736746,808.5052468170182,797.0175474374107,814.2019917703869
1731655481.1926153,808.7651729041672,805.2976913878693,792.7612101316588,815.488927584423
1731655481.1952217,819.188368526659,801.6874354082735,791.4671217084206,814.710809656815
1731655481.199124,811.6271009895975,798.0757727836102,793.8882415237646,810.5362771932024
1731655481.2030263,791.8947380096974,795.2174310405136,799.5144266446792,804.1812435410296
1731655481.206929,776.6552651737002,793.7822243346717,806.313800132562,800.1306112044034
1731655481.2071297,779.4515338731554,794.0272163359717,811.5736528856071,803.3328173150444
1731655481.2081816,799.3653863137407,795.8871373752598,813.4484704808443,814.2567222343362
1731655481.208246,821.3109078082841,799.2790563996849,812.0658446266747,826.7480912270099
1731655481.2108316,827.5151925310012,804.1305074796962,809.3117121590791,831.8960706161654
1731655481.214734,811.2311299106798,809.9573206216304,807.4576377998544,825.2199975489123
1731655481.2186365,782.1824685807616,815.433979140726,807.6465447120593,810.8315475840108
1731655481.2225387,759.4560128708702,818.6234828156123,809.2642020214497,798.5343943102868
1731655481.2237475,757.1133481608891,818.0220108799585,810.5257950654955,795.9588539681911
1731655481.2260573,773.6798128470846,813.7345518120845,809.7998921630541,802.4078782553112
1731655481.2264414,793.974218783244,807.7474849012165,806.7762242776104,809.8949322134329
1731655481.2303438,801.9732396239259,802.8516906319526,802.7151898733157,810.6001373210742
1731655481.2342465,794.2011639019744,800.8925409739477,799.5976179130614,804.1532419241559
1731655481.2381487,782.3923239902849,801.701992066925,798.7409133944183,798.1749240005802
1731655481.2393138,783.002736758266,803.6003502005175,799.8854519938784,801.471017324778
1731655481.2420514,802.2756274876629,805.0336941568287,801.4623050058646,815.7553215819809
1731655481.243028,829.4797132636986,805.8893726508186,801.8529186608667,833.0377147427172
1731655481.244985,844.3579493770841,807.3020605683837,800.6693277511158,841.0699373883897
1731655481.2459538,833.2802783228867,810.1635340364527,799.0886044231835,832.757187516723
1731655481.2498562,801.3065869906791,813.8037404539992,799.0190970658492,812.2785086919525
1731655481.253759,770.012337242397,816.1950015996373,801.7085316104734,792.9194342104158
1731655481.25488,761.8085024670464,815.5910487650278,806.7358733680263,787.6938279235538
1731655481.257661,782.5519427976394,812.0995216707514,812.0474081876539,799.5516548586561
1731655481.2615635,816.4797504290648,807.6800701063506,815.0539160961675,818.896320921039
1731655481.263913,838.1797583047276,804.5018724517851,814.1488759690925,830.8310304400403
1731655481.265466,832.3942332141302,803.1275838406734,809.6865429597358,826.6925438117169
1731655481.2693684,805.6646627528156,802.1752134860676,803.7462752374713,810.6157324723109
1731655481.270446,780.4020037421752,799.7791764275199,798.8396892163597,795.8153609553997
1731655481.273271,776.5431122920796,795.5426109111681,796.5104978835799,793.8252949628635
1731655481.2771735,796.007188141201,791.2030908895939,796.8172487465722,805.628112755411
1731655481.2778096,822.2682293829749,789.3414960511323,798.8737928627831,821.6099465112741
1731655481.281076,834.5149087027155,791.188270632761,801.7112325099903,829.7296359987923
1731655481.2828407,824.2316224903666,795.4132871922787,804.6197989381952,824.8520928813687
1731655481.2849784,800.8860916533713,798.972178315146,806.8890061583988,811.8753366839262
1731655481.2860122,782.8891035170093,799.319925210859,807.6079627669974,800.7035131004335
1731655481.2888808,781.9715362640355,796.1657172064239,806.0662537177591,797.6559596937441
1731655481.2927833,794.0856750930476,791.4499137763497,802.4683480282711,800.5371381231639
1731655481.2966857,804.1489850927505,787.8334202139765,798.1376962391262,801.3970218950182
1731655481.300588,800.2013031729127,787.111869190057,794.8072795988634,794.4835677293651
1731655481.3015783,784.5682256697661,789.6193883853405,793.5186472403964,782.3366059718281
1731655481.3017688,772.2239188586985,794.5222001730601,794.061116036615,774.4083988409088
1731655481.3044906,777.6102821365697,800.3279728826711,795.3735845941184,779.0453482734702
1731655481.3083932,801.2102768355401,805.3571173519643,796.4838123794743,795.605847349349
1731655481.3122957,827.5593980342178,808.3825942673134,797.1901861290552,813.6553949673088
1731655481.3125916,836.8233731770882,809.3245088687516,798.0258890016929,820.3510325227548
1731655481.316198,820.7035920124092,809.3125100857986,799.6691220060336,810.2953668213014
1731655481.3171446,789.7058315348055,809.6936877651473,802.3334050419161,790.0198504943462
1731655481.3201003,765.6516014988848,810.6697397874049,805.5714906095274,773.4596548937136
1731655481.3206966,765.0876916790828,810.9201930889662,808.5370306575334,771.8143118085922
1731655481.324003,786.5900941956191,808.8133349304607,810.4257446917626,785.5241175282847
1731655481.3279054,812.0650187469829,804.2231200701058,810.7890563882358,804.4174110650583
1731655481.331808,821.1443445872226,799.2078804684049,809.616814134109,815.7041788632345
1731655481.3327107,807.2654401299629,796.7620934546901,807.2755496548745,813.428516206372
1731655481.3357103,782.5953388662953,798.6315656695916,804.3998477545109,802.1145967477412
1731655481.339613,767.9862020955321,804.018853738004,801.737862939419,792.2483427586018
1731655481.3396244,776.2161769419298,810.145124341914,799.9247206502317,791.6926649111336
1731655481.3435154,801.9064171364488,814.0540322981337,799.2444689706297,799.8970175519365
1731655481.3473735,825.824246633253,814.256358055278,799.5247869447521,809.0706184551624
1731655481.3474178,829.8651891631006,811.2783491766751,800.2707053172767,810.955335334393
1731655481.3482769,810.9650841016886,807.1081841702049,800.9754355099118,803.718540985504
1731655481.3513205,783.3127020685312,804.0529050186085,801.3838952623785,793.5361147268519
1731655481.3552227,767.2736470966145,803.5422109880683,801.5261369827458,789.4940014536073
1731655481.3585522,773.6248197800227,805.3623896445243,801.5626850807919,795.7289270653927
1731655481.3591251,795.4548686367108,807.7705656375755,801.6224854413535,807.334935099204
1731655481.3630276,814.26128239916,808.5975138332709,801.7444489022739,813.9699116079072
1731655481.363843,815.4349327142838,806.7453023585292,801.9058077160031,808.7122499488427
1731655481.36693,800.4421804296826,803.0354686651433,802.0719407481,794.7303642307127
1731655481.3708327,785.4969120020226,799.7714266035057,802.2249027414903,783.5939340764943
1731655481.374735,787.763320585823,799.3659985872279,802.365171940434,786.1005403120395
1731655481.37748,810.6591391568089,802.9982072301764,802.5008586840289,803.1687642317713
1731655481.3786376,840.5233418820713,810.0088726458088,802.638288172648,824.5186928510866
1731655481.3794093,857.3365745931101,818.1154133967134,802.7790648908125,836.3785765323272
1731655481.3821554,850.6732519242581,824.2329001687019,802.9217594370652,832.0649975406473
1731655481.38254,828.0029653143434,825.7275844007439,803.0645288413087,817.0455265822528
1731655481.3864424,808.6895423001044,821.7838754655048,803.2065010109837,804.4843222359272
1731655481.3903449,808.445298912915,814.1591823930177,803.3477630068614,804.7422138538703
1731655481.3942473,826.736688607257,806.567711871569,803.4887567699241,817.1767353168525
1731655481.3949754,847.4874015171104,802.7483236327984,803.6297981123755,830.9504968136683
1731655481.396408,852.687271230545,804.3955376352412,803.7709494728638,834.325668017856
1731655481.3981495,837.6995225276639,810.4230138651361,803.9121237905099,824.7762834038646
1731655481.4020522,815.3443660005839,818.0241063461831,804.0532214528773,811.3297561161886
1731655481.4059548,805.1064998386221,824.5473310869435,804.1941943786528,806.9904489683807
1731655481.4098573,816.4714165168105,828.6709879449793,804.3350390850338,817.5727049091081
1731655481.4105415,840.5410250119247,830.2101099518728,804.4757677316031,836.4178324805123
1731655481.4137597,857.1061176255005,829.2274566979719,804.6163948017659,849.4936383592229
1731655481.415336,851.2745172736276,825.6284808648551,804.7569422651351,846.6392821958459
1731655481.4169374,825.8275169525047,819.6848519556072,804.8974395908075,829.7220654723395
1731655481.417662,799.1717021879837,812.7803806726906,805.0378950683379,811.1719458436776
1731655481.4215646,790.6108365885054,807.2840537491483,805.1782461028615,804.1870960454125
1731655481.425467,804.9137705056239,805.2394921841728,805.318343280812,812.4833032805716
1731655481.4261076,828.7063621796428,806.8116678178585,805.4580428377338,827.7414153987314
1731655481.4293694,841.6321375965538,809.9296481878066,805.5974178006237,836.7284902839257
1731655481.433272,833.0907559338325,811.6851049725517,805.7369361547243,832.2389959388246
1731655481.4342637,810.6484475871055,810.47814408356,805.8773011940249,818.8383107961296
1731655481.4371746,793.1223209468584,807.131243912394,806.0187372519339,808.6728150528781
1731655481.441077,794.2618261629711,804.0407170645346,806.1600237167892,810.9262660669882
1731655481.4416738,810.8992911345883,803.1440524580107,806.2983482418927,823.8345482387597
1731655481.4449794,825.5997980774409,804.4411308898566,806.4312795596163,835.9517185229294
1731655481.448882,821.5628656365393,806.188692795643,806.5608037568895,835.5402512549857
1731655481.4517193,797.2963690925801,806.3981016245906,806.696293513364,820.2535892371812
1731655481.4527843,768.8562444339858,804.3115652540331,806.8506779556676,799.2344071337518
1731655481.4531915,757.685006754266,800.811167161548,807.0263600162383,786.1068510481998
1731655481.4566867,773.7160178175742,797.7158146363149,807.1977487692118,788.6428298193683
1731655481.45724,807.1730201129244,796.6506968641427,807.3112963870166,803.2838049326416
1731655481.4605892,835.6175728647529,798.1834520084376,807.3261674844676,818.5530504607678
1731655481.4644916,840.7673696023824,801.5412095393845,807.2902003163848,824.220455270878
1731655481.4683945,821.8763693779089,804.9425275044113,807.3871820812855,818.6722428326055
1731655481.472119,795.2538299050622,806.4556521715599,807.8475255463468,808.794791732221
1731655481.4722967,780.6743273325328,805.0836826724477,808.6674976759002,803.1117954761845
1731655481.4728062,785.8752339282794,801.4764848802862,809.2804407239357,804.3782634998737
1731655481.4761992,801.4874371361425,797.6687453107277,808.5611671784884,807.8083657619917
1731655481.4801016,809.9079779523254,795.822751791026,805.4973459099458,806.0051268696398
1731655481.484004,800.3449984972347,796.774228352344,800.259355304299,796.0665127276498
1731655481.4865012,777.6960714687513,799.4848757284175,794.6785895294557,782.7840244765736
1731655481.4879065,758.3572080175077,801.8961166753598,791.3375206175955,775.2252637377574
1731655481.4883723,756.7415754484684,802.587082829372,791.7454308047903,779.402922046673
1731655481.4910474,773.6270511723253,801.9680297182607,795.1149284755206,792.9942824234813
1731655481.491809,795.8178267238017,802.0521277390076,798.8892425632998,806.6802994594283
1731655481.495711,807.376919858849,804.9133721142385,800.7021784009264,811.4673169265948
1731655481.499614,803.0877940702934,810.944140183868,800.1769003948058,806.1880871565661
1731655481.5035164,792.6515724912193,818.2011171593745,799.0157951576733,798.6381276488503
1731655481.5039384,791.7027030417797,823.3382669901957,799.2782836583127,798.7844012037191
1731655481.5074189,807.1379700754724,823.5043545734328,801.3932965753893,809.458737381755
1731655481.5099752,829.6328672918255,817.9901610132349,803.7538380402783,822.7274097255777
1731655481.5113213,840.4167797400273,808.6810676616418,804.2864619708881,825.7226496462887
1731655481.5152235,827.1187151292947,799.1494049147896,802.4994619061573,811.5952710754922
1731655481.5191262,795.4146954360097,792.9504816088952,800.0430007974032,786.4722473900528
1731655481.5195043,766.3364184361205,792.0322578735869,799.253652699499,766.1928058996657
1731655481.5212831,760.7871071073591,796.0401402240742,801.072687979065,764.8582655875603
1731655481.5230286,783.335793575754,802.783087788417,804.238476394435,784.0295459941661
1731655481.526931,818.2386410614082,809.5019548863964,806.3651778123929,811.1812089279651
1731655481.528903,841.1883186323076,814.1922966647033,805.8192837073706,828.8903989519692
1731655481.5308335,837.824498112576,816.2745941675689,802.7939273496547,827.7390148096014
1731655481.5347362,814.3485988134803,816.3346488631945,798.903389282721,812.7731621815194
1731655481.535071,791.6264786909421,815.2510527956466,795.8948138738743,798.3872692604924
1731655481.5386386,787.5977382402974,813.4227372623237,794.5709074813476,795.944493354468
1731655481.542541,802.6131257175552,810.6778910525805,794.5638704782098,804.5134233428676
1731655481.5464437,819.8693738629518,806.8308178542517,794.8488153186463,812.4223032993376
1731655481.5478308,820.271141135898,802.278276851857,794.4934714945086,808.0487545327755
1731655481.550346,798.9589947015855,798.036057842845,793.2210363862587,790.4497701959573
1731655481.5506368,769.7340295303267,795.1927931555699,791.5996389448466,770.816124799224
1731655481.5542483,754.0454952079082,794.31985379408,790.8022079695828,763.6769008505809
1731655481.5560648,763.8471764518978,795.3731279949069,791.9580759408532,775.2610291575851
1731655481.5581508,792.1832375643376,798.0737149611565,795.3206074881093,798.4775621449609
1731655481.5620532,818.7614426989437,802.2267166695322,799.7492375624649,818.3551086736818
1731655481.565956,825.7488300302439,807.5115660306724,803.0250253814086,823.3770897311324
1731655481.566203,811.1219720582494,812.9462912076692,803.0654053980174,813.6959110591271
1731655481.5667586,789.1515190379598,816.792745975413,799.4012207601332,799.993822557826
1731655481.5698583,778.0467163351186,817.3963619314237,793.8833397709175,794.3008460324235
1731655481.5737607,785.0591832430739,814.4540667635116,789.9207851520441,800.3235187043364
1731655481.5776632,801.2072861339535,809.5112746798313,790.52151004207,810.9542327522126
1731655481.5815656,809.7152282035948,805.0040934828239,796.3625212400135,814.6885739552033
1731655481.5817692,800.8737132087466,802.5269455572858,805.2562961796092,805.5042222631957
1731655481.585468,780.7830966742805,801.820906404043,813.4408837107067,788.1045202724405
1731655481.5856867,766.6614767737121,801.3287094081373,817.7814422933533,774.3341497542667
1731655481.5893705,772.5651857834155,799.6950461014656,817.3589539296881,773.7275966665673
1731655481.5908468,797.1963694863392,796.8135628702876,813.5271243839052,785.7920470862316
1731655481.5932727,823.8274605053597,793.6474524261139,808.7097821481523,800.2311806923083
1731655481.5971756,832.8019923864318,791.3063737610718,804.943312571182,805.0837711084963
1731655481.597335,817.0271187959039,790.4241509022394,803.0225420795289,796.4418985707382
1731655481.601078,788.0905590010856,791.27906193223,802.4951300844815,781.9088323426724
1731655481.6046145,767.6134567013495,794.1304054997964,802.2594399631541,774.7093670781716
1731655481.6049805,770.2384492773662,799.050239313815,801.3469974119051,782.9358865570291
1731655481.608883,791.8994540716391,805.3009050106729,799.4828119571723,802.6715818032972
1731655481.612785,813.2220624233086,811.0706877003355,797.1407296737228,820.8132815825571
1731655481.6129014,815.5249744201706,814.1556393947959,795.1001810299587,825.4421934542498
1731655481.6166878,796.2413636443459,813.191476704272,793.8762066727691,815.279990494221
1731655481.6205902,771.0192194825377,808.4373366314468,793.509602964355,800.5581226935687
1731655481.6235423,760.9747333333115,801.5405131282234,793.8608452212779,794.7407598867652
1731655481.6244926,775.7619959607077,794.6136252184854,795.0300830518419,803.8543726570831
1731655481.6256287,806.1063170792889,789.3710386365306,797.3826401211123,821.8310687952937
1731655481.6283953,831.4129955993922,786.7484245632099,801.0883715026008,835.3742602999573
1731655481.6284676,836.0586305712859,786.9094800421851,805.6357379560261,834.4820027912529
1731655481.6322978,821.3842552797945,789.3747600921884,809.8499704927872,820.4397937575958
1731655481.6362002,803.9649515195067,793.1886195187004,812.4542548737313,804.969459642765
1731655481.6401026,801.5889516186368,797.2047689532824,812.7023070669309,801.0153739031806
1731655481.64247,818.2279329257938,800.4865554656019,810.6150591285035,812.3078668125407
1731655481.6440053,840.278727401832,802.6203921190964,806.812991101738,830.0417428034733
1731655481.644034,847.4010056949627,803.7257269162766,802.2949545276455,839.5167616539055
1731655481.6479075,829.4012157141541,804.1836940601996,798.3792814101851,831.6667825740618
1731655481.65181,795.505156780502,804.3356024701059,796.6051618414128,810.4396142568155
1731655481.6557124,768.2932929955755,804.3609101533267,798.248757477854,790.1749988307573
1731655481.6596,766.7785072694012,804.3219274542342,803.4820351344506,784.8970835062734
1731655481.6596148,791.7515462887408,804.2419203531036,810.7306280322075,797.6785213908981
1731655481.6604106,824.8247290645614,804.1399923443179,816.9056333555893,818.1997894568626
1731655481.661398,842.0966282480896,804.0320051760792,818.7124662952549,830.4539783690781
1731655481.6635177,832.1540712966568,803.925920484841,814.495243273078,824.8556747704035
1731655481.66742,804.5884271864861,803.8224329311927,805.5508387961207,805.4868389320841
1731655481.6713223,782.1862218967517,803.7190355729228,795.9193116382942,786.7206115277072
1731655481.675166,782.6860157906181,803.6135252785862,790.4352186347351,781.7720366317147
1731655481.6752248,804.6934964153027,803.505241302759,791.9803348766105,792.4171063440814
1731655481.6791272,829.3567407936059,803.394608977616,799.6457925932189,808.3282200953042
1731655481.680326,836.3910045702542,803.2822573739262,809.1591147025537,816.3761238436745
1731655481.6830297,820.8640998489716,803.1685108059099,815.4778372631276,811.7257324079177
1731655481.686932,796.5994060003845,803.0533605690298,815.8819939250947,801.202411828234
1731655481.6907322,783.7192475282287,802.9366612972756,811.4686247866005,796.3955301287831
1731655481.6908343,791.3748716997034,802.8183012931103,806.0852990217223,802.9312759561882
1731655481.6947372,810.3358867558627,802.6982552712118,803.5754609882564,815.3755487757074
1731655481.6951926,821.2309553282888,802.5765537329253,805.3212694846812,821.9940341104736
1731655481.6986396,811.0426598647084,802.4532359216976,809.6863176465233,815.0225424445163
1731655481.6992538,784.074190937265,802.3283253692696,813.5109704036886,797.5881686136963
1731655481.702542,758.648264041592,802.2018302579589,814.4270675471828,781.4835379811904
1731655481.7062984,752.5203881947284,802.0737533029327,812.3510835888025,777.7468148039701
1731655481.7064445,768.9034183541079,801.9440982221439,809.2391573926884,787.9314779667026
1731655481.7103467,794.2833227114875,801.8128703366789,807.4631016201707,803.2429740406931
1731655481.7142494,809.5785432544909,801.6800766793804,808.0881512452002,812.0417566988651
1731655481.7181518,805.3829914427811,801.5457311561103,810.266855912051,809.2248886420834
1731655481.7181816,788.8684690596336,801.4098630276736,812.0278755209519,799.6618109006786
1731655481.7218645,777.0168834469152,801.2725172916602,811.7232112332684,793.1884348544672
1731655481.7220542,782.1554742876742,801.1337332354818,809.0710270984845,795.8250770373602
1731655481.725957,801.7999916873325,800.9935029128568,805.1961357783381,804.7252704938636
1731655481.7298594,820.8712577280738,800.85174392408,801.8158749428372,810.8652444679656
1731655481.7299745,824.137231135357,800.7083457507996,800.1977636666287,806.9969549639891
1731655481.7337618,808.6867861719834,800.5633201326847,800.5418921771919,794.2485782011157
1731655481.7371094,786.4994638443377,800.4169747947403,802.1191417577672,781.9646525134867
1731655481.7374308,775.1015000646671,800.26988873317,804.0033595266162,780.7301523733473
1731655481.7376642,783.6072501688486,800.1224615927684,805.8068502124383,793.9107148771922
1731655481.741567,805.1593902727154,799.9741271690018,807.7921981913556,814.4291468374946
1731655481.745469,822.044302391942,799.8229288118363,810.2588028440547,829.6562341664813
1731655481.7493715,819.8380879908603,799.6665540340604,812.8252182447961,830.8952642635393
1731655481.7529967,799.3967510987223,799.5052599665285,814.4041464020952,820.0212117511402
1731655481.753274,776.7569448648104,799.3449451337584,813.988988232132,807.8732552205292
1731655481.7560372,770.6150982135312,799.1960960601646,811.5005932562495,805.5770259737511
1731655481.7571764,787.2881208500103,799.0646674350498,807.8639802389227,815.6730113505375
1731655481.7610793,815.3338873566763,798.9374517339588,804.3143253029177,830.0629391278463
1731655481.7647564,834.3361014044805,798.775893064002,801.7174276084407,836.3741139281593
1731655481.7649815,830.9728384430957,798.5385292237631,800.5359290136406,827.7708817348084
1731655481.768563,809.5575838257366,798.2373827307467,801.2066690984007,808.5603429062759
1731655481.768884,788.5217292610193,797.9912626788574,804.1716977169986,791.1271171485924
1731655481.7727864,785.4968674663728,797.9940956334556,809.2496599977518,786.418351301004
1731655481.7749653,802.9327670612842,798.3306850552179,814.9418556641366,795.3464568484416
1731655481.7766888,826.0118852388255,798.7025047441541,818.6150670107022,807.9919428027815
1731655481.7805912,834.8024823127754,798.3340819804006,817.8559752075561,811.4739853732942
1731655481.7841291,820.8430014673351,796.408813383957,812.2001493700237,800.3933963169301
1731655481.7844937,794.4005989277674,793.0205194354863,803.8837857477813,781.4884292384801
1731655481.788396,776.1603480932396,789.8502370687388,796.8142179697604,768.6287878951734
1731655481.7922988,780.1089677397978,789.5007459049154,794.2765506882414,772.0249032395188
1731655481.793893,801.9024006495,793.5747226921941,796.949050187287,790.2349919571291
1731655481.7962012,822.5034787453684,801.1687384042408,802.6532814165284,811.311143221926
1731655481.7995384,824.0981295252006,809.3270359952008,807.963832202583,822.0695509874218
1731655481.7996953,805.0493593948703,815.0775109261598,810.4256401178966,818.0227662295285
1731655481.8001037,781.443656574974,817.1864511882806,809.8062731746498,806.1461291091599
1731655481.804006,773.8806653137812,816.2491702819499,807.7023753807858,798.5447248655117
1731655481.8079083,790.4250359745753,813.4542937609651,806.0699959771407,802.4446172935624
1731655481.811811,819.9355763877871,809.5070363406118,805.8604176882626,814.7980589353455
1731655481.812821,841.3610321429592,804.7447302362762,806.6069743520135,825.7628286802685
1731655481.8152616,841.1150475998854,800.0381990563748,806.9990829652041,827.7037156523404
1731655481.8157134,823.8297862752856,797.1776348670417,805.8826720064752,821.7016456550257
1731655481.8196158,807.5742506248681,797.9965809779578,803.0300415593849,815.9390280861212
1731655481.8235185,807.9470586928728,802.881340058079,799.2674669127867,817.6197770593369
1731655481.8274207,824.7438555327201,810.0744100948332,795.9169418974267,825.7829632446341
1731655481.8308277,842.3427327540932,816.5252266719641,793.9078457773636,831.5160181564153
1731655481.8313234,843.1501027738212,819.6672607305738,793.1828040578363,825.5823547819044
1731655481.8317487,822.6875533418303,818.7723249806306,792.8795805376215,807.0550818145005
1731655481.83432,793.9246770098229,815.0302903797216,792.1824708382408,785.5439059019969
1731655481.8352258,777.4403434234415,810.5728471464427,791.1453175165858,774.703132039683
1731655481.8391285,785.3253953816978,807.2929238176937,790.7514316464371,781.8018262271852
1731655481.8430307,811.6191230313977,806.1420559711463,792.0821673771861,801.6351269968806
1731655481.8463938,836.9143919342625,807.021971041547,795.2205269499037,819.9860986297881
1731655481.8469331,843.5391657958593,809.0223273402557,798.7962304881014,824.2820287821748
1731655481.8506763,829.1695285027349,810.8126301899758,800.6538070412493,813.0514932099043
1731655481.8508356,807.8805649226198,811.1880875393264,799.291724218483,796.556459839117
1731655481.854738,797.9051153712381,809.700679341247,795.069769037046,788.2203586675745
1731655481.858641,806.3980822716619,807.0133082846546,790.2341136811507,794.0762831992256
1731655481.86196,823.9158497568062,804.5776278544258,787.6324655804527,808.8395776766502
1731655481.862543,832.9651408136363,803.7210207899847,789.0044261786013,821.324038914636
1731655481.8664455,823.0883091881752,804.8049780324142,794.0656105984128,824.094392936881
1731655481.869102,799.7392975711117,807.1189068676038,800.9267165332865,819.150761352719
1731655481.8696046,779.7692539311164,809.5415386184033,807.3270514812956,815.26246062186
1731655481.870348,777.537671477969,811.3714482211052,811.6882606463379,819.6702964795296
1731655481.8742504,793.171328697717,812.6757473188803,813.4194081356903,831.373637621717
1731655481.877526,812.559002274333,813.974201266551,812.6521791385841,841.71236431887
1731655481.8781528,819.0831066334038,815.5827806212687,809.9166633285196,841.805099991706
1731655481.8820553,807.4500505810701,817.1279916412093,806.0261558093038,830.55166297598
1731655481.8859577,788.0759524316354,817.5951373452807,802.04090744419,816.2064410891549
1731655481.8885324,778.1884985383908,815.9457831638074,799.0691651371958,809.8323129028352
1731655481.8898604,786.9906785369046,811.9798750610319,797.8857516807751,815.9601469675194
1731655481.8930922,807.4185459737291,806.8755113714369,798.6061466105092,828.4088465467848
1731655481.8937628,821.6021395855213,802.9026732934499,800.6652992765715,834.9949472248093
1731655481.8976653,815.6324745333619,802.2707590415437,803.1209881434668,827.362498630832
1731655481.9015677,791.4151223820467,805.7234999134438,805.0719853577103,807.8763590598472
1731655481.903884,765.7793217945916,811.8451704965553,805.9538036229012,788.0168827824908
1731655481.90547,757.4546988303928,817.6953737043497,805.6253725443004,779.6552624885006
1731655481.9074602,772.3303183581351,820.4854107270218,804.3102144847455,786.1298696783576
1731655481.9086585,798.7754893468044,819.2110432415146,802.4827565718313,799.9772051045086
1731655481.9093726,816.8812648216036,815.1247897983679,800.7287338642814,808.9605654041628
1731655481.913275,814.4749085056943,810.7499363262169,799.5648721167688,805.7432018591641
1731655481.9171774,797.0871129202607,808.2011937798891,799.2281515634473,793.6748500351424
1731655481.92108,783.4182727314709,808.0326617318007,799.5095051730914,783.9148404934231
1731655481.9242246,789.4712136053242,809.3095669846788,799.7563329254929,785.8750846811131
1731655481.9249823,814.2810612728694,810.5946678732546,799.1496238031621,798.6976213112068
1731655481.926388,839.5048180078943,810.9641449333236,797.2216216294432,811.1586653439884
1731655481.928885,843.8445914760387,810.4039660265647,794.3408470192024,810.6041970919525
1731655481.9327874,820.6599520712895,809.5404353574887,791.7492060342687,793.7091473040119
1731655481.93669,784.1269225788338,809.0355665543171,790.9390768925815,769.9334442865592
1731655481.938666,758.6858869656207,809.0382861799458,792.6688411660019,754.5282862165664
1731655481.9397907,760.2922192351356,809.0313953985068,796.3063157413991,756.7415270643287
1731655481.9405923,784.5398178774686,808.2523388084595,800.0451116664387,772.8396048494002
1731655481.9444947,810.9196087614275,806.4711686856903,801.9233425331412,789.4506006109287
1731655481.9453158,819.4381405242234,804.4878210566623,800.9874655728274,794.2895090609627
1731655481.9483972,806.1117896220385,803.7645818064793,797.8442809750106,785.5854776147842
1731655481.9522998,785.0195865042258,805.3076185411279,794.2800823043535,772.8758262475407
1731655481.9553568,775.6395289915513,808.6907022054525,792.2555944100493,768.8897106541837
1731655481.9562025,786.254378068436,812.1458292218247,792.949096480524,779.2881182259056
1731655481.9601047,807.3132072680879,813.7524724564724,796.3720067494909,798.4662137211614
1731655481.9640071,820.0412810813942,812.7401736612915,801.5890984142503,814.4348982411062
1731655481.964244,812.6520769100227,809.8095513250444,807.1886979974165,818.4067104651677
1731655481.9679096,790.4049268873925,806.3316533322072,811.6764141485755,811.2373539017204
1731655481.9709227,771.4027031176718,803.3403472643199,813.775588774727,801.8859283726072
1731655481.971812,772.0058121046883,801.2839636248591,812.790980007281,799.6510841605257
1731655481.9734478,793.8162995663943,800.5224070766083,809.0018858621526,806.6630191817361
1731655481.9757144,822.3803749857078,801.6657031394249,803.7429869155611,816.5421648623948
1731655481.9796169,838.3544014767593,805.0826476060273,798.8698079648052,820.1090245564047
1731655481.9831717,832.3730835194223,810.0127849415384,795.8009044701831,813.47799890662
1731655481.9835193,812.1070105046917,814.4043515767543,794.8078966405578,801.9170157253161
1731655481.9864893,795.918753564928,816.0118626150268,795.1163124686725,796.0685456988458
1731655481.987422,797.9575063413052,813.9835081850995,795.7073606475358,803.2684854143617
1731655481.9913244,816.6248995070698,809.5410567870368,796.1226837166253,820.9974200099496
1731655481.9952269,836.0367840663453,805.1085759603527,796.6365119907913,838.1762074486904
1731655481.9991293,839.5304492429179,802.6441202487025,797.7571160691368,843.6926849576016
1731655482.0020554,823.97005700833,802.5769788566872,799.556164119734,835.3181189594799
1731655482.0020995,802.658306596732,804.0629109971416,801.3878771249091,821.5245061504514
1731655482.0030315,794.2303223616162,806.0301801073047,802.2292826151737,814.5058394839593
1731655482.0069342,806.7987450285302,807.9527744223326,801.4504948169291,820.1035313395972
1731655482.0082295,830.6629195349664,809.8225023011122,799.5118192027438,832.9964875529713
1731655482.0108366,845.8186197266368,811.636360408293,798.0117650134121,841.1531761943844
1731655482.014739,838.3010122042976,813.0013926660621,798.8287408782994,835.8265219800784
1731655482.0176215,812.0120749737777,813.1474782855628,802.7721682429401,818.7540526137474
1731655482.0186417,786.0966719045558,811.2839062455561,808.7214449073973,800.5740708917828
1731655482.021027,779.5813505141189,807.1314227277147,814.0780115628932,791.8781912047484
1731655482.022544,795.6585071637392,801.4114953528809,816.4098123791878,794.5956787130506
1731655482.0264466,818.802924896645,795.938340268417,815.1377937658833,801.1219747128779
1731655482.030349,827.5758989256498,792.9868065928152,811.9300762322215,801.8119763364939
1731655482.0331876,812.6787260116466,794.0474865843759,809.4074157617943,794.0119670940207
1731655482.0342517,785.0094987313305,798.6889953907129,809.119183464009,784.4489055195833
1731655482.038154,766.7766483499148,804.4409632966828,810.3893469673842,782.8752001165193
1731655482.0399551,773.1106904536168,808.0514089351602,810.9695598110067,792.77146551357
1731655482.0420563,799.5211280019286,807.4554339347427,808.9756440758865,807.4044234937458
1731655482.0430117,825.389274077754,803.1030883204285,804.5281149127918,814.692156575866
1731655482.0459588,830.385462196156,797.6124586392942,799.7544463911553,806.8429979605633
1731655482.0487535,810.4702670226409,793.9509021910703,797.1528823395731,786.9643684726301
1731655482.0498614,780.8541513486384,793.5265998685921,797.65598143591,767.3795720509177
1731655482.053764,763.891532723582,795.6125984673247,799.9647568930716,760.8699916649241
1731655482.0576663,771.8501036542742,798.3377956786885,801.6703293982735,771.5347946843721
1731655482.0588832,798.3119647883946,800.1864017449394,801.2217318187353,792.3013461022251
1731655482.0615687,824.5003588054602,800.7694935570694,799.1378373382022,810.8283746245423
1731655482.0643198,834.3312032547308,800.5620780726778,797.5176540979102,818.645501846278
1731655482.0654712,825.2803080053961,800.2067215503025,798.3022843455963,815.9035671773997
1731655482.0693736,807.0707993691013,800.0540412139369,801.7235286840247,808.6981729599662
1731655482.073276,791.6890898676181,800.1222825511059,806.1551021704943,802.9566314273675
1731655482.0771785,784.8445070014222,800.2793860615267,809.3848977921767,800.7972516701881
1731655482.0777934,784.968425454473,800.4124824421352,810.1858176078351,801.103932552989
1731655482.077811,787.5383488906876,800.487884996037,808.9414916704445,801.9268960263365
1731655482.0798862,789.2479006589544,800.5271172861027,807.0151934266205,802.1305936204577
1731655482.081081,789.2688641245994,800.5620203511266,805.6147570671094,801.6241751912661
1731655482.0849836,788.3198226800872,800.6089803424476,805.1318501124063,800.8178388475117
1731655482.088886,787.3236050436982,800.6674981591904,805.2704677008168,800.0793533158342
1731655482.0927885,786.7104894657485,800.7301221624637,805.5564114228828,799.528031824394
1731655482.0954523,786.4290292894561,800.7910608751232,805.7073820063546,799.1017657018166
1731655482.096691,786.2525370544964,800.8488475181916,805.6909195439744,798.6993078134692
1731655482.0967388,786.0205862761454,800.904783229952,805.5993013400791,798.2659211470224
1731655482.100593,785.7015013956886,800.9605386693548,805.5198133948552,797.8011437380305
1731655482.1044958,785.3387989976117,801.0168924986323,805.4827532185318,797.3282175131263
1731655482.1083982,784.9811944174094,801.0737467739281,805.4748977757581,796.8661385630807
1731655482.1110184,784.6492721918776,801.1306815725281,805.4725532433549,796.4202971730437
1731655482.1123006,784.3387388413206,801.1873948536248,805.462324961757,795.9869562805453
1731655482.1125753,784.0373665060406,801.2438181562815,805.4436165461509,795.5608796156715
1731655482.1156666,783.7372340530219,801.3000206789529,805.4217093637994,795.1395472587907
1731655482.1162033,783.4372981019243,801.3560823399274,805.4011158071478,794.7232702668465
1731655482.1201055,783.1402009819666,801.4120328221381,805.3832028206285,794.3134708756061
1731655482.1240082,782.8485959995049,801.4678570608739,805.3671356096837,793.9112487358474
1731655482.1265843,782.5635615069947,801.5235258521448,805.3516587251362,793.5169660309864
1731655482.1279106,782.2849041795513,801.5790181321622,805.3361241711068,793.1305299982432
1731655482.131813,782.0120851797227,801.6343257773121,805.3205534613509,792.7517988642926
1731655482.1345944,781.744834918731,801.6894479363525,805.3052456634972,792.3807869080329
1731655482.1357155,781.4832481256843,801.7443844391587,805.2904352009562,792.0176540288943
1731655482.139618,781.2275938655305,801.799132887916,805.2761848553707,791.662607852306
1731655482.1421506,780.9781214145089,801.8536889947113,805.2624467170291,791.3158291673185
1731655482.1435204,780.7349902461549,801.9080479047351,805.2491572375824,790.9774565957839
1731655482.1473572,780.4983063960407,801.9622050999387,805.2362875471474,790.6476116668199
1731655482.147423,780.2681884398288,802.0161569867503,805.2238431019751,790.3264294674159
1731655482.1513257,780.04479565919,802.069901818901,805.2118417724374,790.0140672149237
1731655482.1535225,779.8282894317814,802.1234407550286,805.2002963549479,789.7106788956303
1731655482.155228,779.6187499525922,802.1767774211276,805.1892099123222,789.4163676983213
1731655482.157717,779.4161271986982,802.2299141072077,805.1785795397072,789.1311589794037
1731655482.1591303,779.2203330507681,802.2828453513749,805.1684013993057,788.8550540954645
1731655482.1630328,779.0315125514252,802.3355547403743,805.1586731552339,788.588187708591
1731655482.1669352,778.8503293344543,802.3880239447552,805.1493937705801,788.3309945391993
1731655482.1708376,778.6778689110262,802.4402571705282,805.1405622991865,788.0841562265797
1731655482.1724503,778.5147967535147,802.4923059505578,805.132177002687,787.848115282669
1731655482.173283,778.3600091070866,802.5442586553443,805.1242351617508,787.6222892328275
1731655482.17474,778.2100654482376,802.5961631271889,805.1167333057487,787.4047295275852
1731655482.1786427,778.0612636725473,802.6479061585103,805.1096674795198,787.1933105103215
1731655482.1821392,777.9148459514023,802.6991677507108,805.1030333595502,786.9887491796076
1731655482.1825452,777.7819198452642,802.7496158343143,805.0968262354229,786.7974942208793
1731655482.1864476,777.6805629642724,802.799377353704,805.091040954004,786.6301109609495
1731655482.1888492,777.6189513411355,802.8494674942601,805.0856718984378,786.4915351219902
1731655482.19035,777.5704978267219,802.9014975460186,805.0807130095196,786.3665770914184
1731655482.191378,777.4665433406902,802.9561291627485,805.0761578075452,786.2154489823777
1731655482.1942525,777.2405126155483,803.0108591342013,805.0719993656655,785.9991136929567
1731655482.1981547,776.9276232938905,803.0594669879739,805.0682302305012,785.7371708341481
1731655482.2020574,776.7489218095742,803.0961347535998,805.0648423676512,785.5573075337966
1731655482.204415,777.0367746753001,803.124449430591,805.0618272688887,785.6532854206894
1731655482.2059598,777.900066290411,803.1646834779089,805.059176293891,786.0913533349438
1731655482.2098622,778.7712940628234,803.2465011138116,805.0568810704488,786.5458816573982
1731655482.210306,778.3396763880712,803.3784082663182,805.0549334597627,786.25601307583
1731655482.213765,775.4869510243723,803.5076545568709,805.0533245745645,784.563772420697
1731655482.216921,771.2183004462463,803.5166681728929,805.0520430378468,782.035759380758
1731655482.217667,770.1713257615663,803.3110722727665,805.0510740241547,781.3521011492513
1731655482.2199814,779.1645545009786,802.9971390520624,805.0504015334628,786.4851206189819
1731655482.2215698,801.6291499449569,803.0226463095203,805.0500148986591,799.4727286386096
1731655482.2254722,831.6001216381217,804.0686999048613,805.0499157016395,816.8866560969998
1731655482.2292335,854.635388365732,806.6104823113094,805.0501156058154,830.2879258993037
1731655482.2293746,858.3173666575675,810.4266182890678,805.0506162267134,832.3494302964989
1731655482.233277,844.1361555756749,814.5585791188777,805.0513764968797,824.0477264918827
1731655482.2355475,828.5517131876658,817.8865976885423,805.052298399329,815.6815009380057
1731655482.2371795,830.3555180795096,819.8275857893346,805.0532761979599,819.4484536887098
1731655482.241082,854.7066729466227,820.4662589125235,805.054321853331,839.1962430012313
1731655482.2449846,887.8796565680609,820.0296144839222,805.055685394311,866.1005828732948
1731655482.2481618,907.5699765993389,818.3428674952606,805.0577885957061,884.4595299703516
1731655482.2488873,900.3316923973355,814.9180947069005,805.0608207435213,883.414386236338
1731655482.251114,872.0142019002748,809.632077906507,805.0641358942078,865.3406404317471
1731655482.251703,843.1142596002553,803.3210730270996,805.0660645270985,844.1643840285224
1731655482.2527895,833.0442248790644,797.6705097266687,805.0649631149885,834.8741847042728
1731655482.256692,845.7482610644464,794.3896835516642,805.061618000594,842.5022140875583
1731655482.2605944,867.7721635849433,794.2521733675117,805.0613055568992,859.2025481584449
1731655482.2644968,880.0315472087763,796.6849647374426,805.072057606871,871.4500452240675
1731655482.26668,873.5990466031881,800.169294202174,805.0966190212552,871.1779387630329
1731655482.2670896,856.4986085455346,803.1235280318277,805.1214186887539,861.6502403580092
1731655482.2683992,845.8762271247076,804.638921112278,805.1146172189451,853.5318798459201
1731655482.2723017,852.2882451440589,804.6632335645393,805.0480865633265,854.9605890411817
1731655482.2762043,869.7434888858435,803.7355517850486,804.9430442252157,864.3342287792518
1731655482.2801068,880.3423508179073,802.6448175603742,804.9041603311564,871.9245888907742
1731655482.282246,869.7958414144941,802.1812548944903,805.0765815598089,868.7013136244531
1731655482.2840092,840.6529092751932,802.8476629070836,805.4839893576601,854.6030659510536
1731655482.2860174,811.8321449108631,804.4952274483511,805.8188239376088,839.0986108542861
1731655482.286485,804.3535666604134,806.2259842858444,805.4062661784521,833.5084266758356
1731655482.2879117,824.5191960341707,806.9101277931666,803.5636011909602,841.5081266963955
1731655482.291814,858.1512269176601,806.059609979217,800.2459701609187,855.8122886288035
1731655482.2957163,881.0073374992708,804.2474021456907,796.4200237403354,864.0066552677313
1731655482.2978122,877.5390483786098,802.5691382094601,793.6403893674252,858.8672539624308
1731655482.299619,852.958534769189,801.6328705408408,793.0026652205638,844.5226619661788
1731655482.3035214,828.543072965409,801.1346933535772,794.3266703316226,833.0688679977953
1731655482.3049452,823.8487603164136,800.5022238734995,796.3287685914814,834.319823208604
1731655482.3074238,840.6020032037022,799.9236200499772,797.7063379597188,847.3972991345213
1731655482.3113265,861.7135402287511,800.5794344148813,798.2209327400824,861.4164221095403
1731655482.3133783,866.0511742693747,803.6340362105532,798.814502697601,864.7157060883269
1731655482.3152287,846.3740726635116,808.8311044655441,800.6494294483816,854.7331680233794
1731655482.3191314,815.465639264578,814.1060936567185,803.9583792809993,840.1443810787787
1731655482.321267,795.6563917190105,816.8343921063034,807.7327442786892,833.5240972532268
1731655482.3230338,800.6650197421268,815.8103644499305,810.4225152657265,840.71070663332
1731655482.323873,824.6492469991942,812.2276452964006,810.8941161875049,855.6560490922843
1731655482.3269362,847.180023738588,808.705442511079,808.8638218013181,865.0097831587141
1731655482.3289447,849.9281236338074,807.1702781532608,804.7726440572887,858.8815016029988
1731655482.330839,831.4586904382415,807.4943073044932,799.5923438020955,839.2277991597689
1731655482.334741,808.0284824838656,808.0977853505201,794.7674639394398,818.9631634518996
1731655482.3386436,799.6882935007658,807.8510573891206,791.9473122730471,812.1286147357216
1731655482.3425462,813.2703614974637,807.3628484631757,792.2260191667108,822.7733282906728
1731655482.342801,836.624314182957,808.3535655244749,795.3001404496931,841.5548695196574
1731655482.3445108,849.0187274769928,811.7120640715433,799.3800136373783,852.9554105646537
1731655482.346449,838.8789721385887,816.1775637872736,802.2010755432257,847.3315268709194
1731655482.350351,813.8247450662783,819.0535254924572,802.4882131873675,828.0668190415208
1731655482.3542535,794.5298562770272,818.4342216087583,800.739161081543,808.2177031088839
1731655482.3560486,797.5057776857744,814.9414653459093,798.7078953895059,799.7221895802506
1731655482.358156,821.0976440423528,811.3489948069637,798.003109121467,804.2013423947117
1731655482.360077,846.3575717667488,810.359217697695,798.8725379709633,812.7639245806339
1731655482.361729,852.3224439171426,812.4288666894347,800.0559153334663,814.5550357047462
1731655482.3620584,833.3202331301237,815.457375382316,799.7927882201241,806.5105155486903
1731655482.3659608,803.8404474813262,816.5151478164734,797.249310147517,795.8715184585942
1731655482.3698633,786.4106261332441,814.1020908432782,793.300661863248,793.25171010713
1731655482.373766,792.3280405229767,809.1163600503351,790.0222278727845,802.3290355499496
1731655482.375643,811.8015411620457,803.9244943324237,789.2044382069383,815.4609221785737
1731655482.3776684,822.4109166936813,800.5021803349306,791.0226238854333,819.5662518595645
1731655482.3806567,808.8288351626591,799.205179957024,793.94030211436,807.5279012325967
1731655482.3815708,776.714412568197,798.9776720863675,795.9618422154616,785.2134948431112
1731655482.3854733,748.7352966290316,798.5401741812212,796.2561180756069,767.747234209017
1731655482.3893757,746.141185756833,797.4345575850363,795.84897535191,767.8301248616193
1731655482.3908305,771.4159376258991,796.154855933381,796.7853849028631,785.6506617863413
1731655482.3912091,806.2127093688554,795.4898678754564,800.3611533214641,808.5623201065508
1731655482.393278,825.9330913187598,795.8319117775937,805.8260532752404,820.6855133152063
1731655482.3971806,818.9415381246024,797.0773173463069,810.7012341674636,814.7259921597418
1731655482.3995843,794.9847294630409,799.0471436508885,812.6023336243798,796.7876596066254
1731655482.401083,776.2007039864295,801.7944155862886,811.1443989579623,780.7074812622052
1731655482.4049857,778.1975421761773,805.3293361156905,808.3074555488084,776.7921138517652
1731655482.4067752,796.9384179665375,809.0405132359394,806.8888664115277,784.1782460172899
1731655482.408888,812.5546231336699,811.5927411912619,808.3189181003128,792.8532314947075
1731655482.4127903,806.9839072521214,811.6950346097653,811.650010104362,793.2343439665141
1731655482.416693,780.3724348872755,809.176995587066,814.4632813033119,784.9285497298873
1731655482.4185123,752.0263553110981,805.3159307532759,814.7944715828032,777.1680296228592
1731655482.4205954,744.810793659225,801.9480349561611,812.4385026075273,780.5706152088078
1731655482.4223416,765.9127003396213,800.0663679913727,808.6977094930498,797.1880506881919
1731655482.4244978,799.9570157693017,799.189872306433,805.0521352653972,817.3145740827199
1731655482.4256124,820.3950633766516,798.1369400282923,802.0865799342007,826.1656315427746
1731655482.4284005,810.3193021422795,796.5041022608705,799.601320465567,815.5322465619003
1731655482.4323027,776.1076900739602,795.3978297555751,797.5907790081405,791.0771547445238
1731655482.4362051,742.6910341100213,796.5838993360506,796.8915008128877,768.839001972922
1731655482.4374404,733.8392773795712,800.7130055900795,798.642884252926,763.0401752361951
1731655482.4379077,753.2325147857325,806.2590244850991,802.9534754588002,774.819969608729
1731655482.4401078,781.8767026392532,810.2764802924244,808.0988554871649,791.4077505628886
1731655482.4440105,794.1878744172916,810.4664788343196,811.2431164638629,796.8616913270703
1731655482.4479127,779.4494128671206,806.8337732892744,810.3211502388839,785.5643098760677
1731655482.4518151,750.6389339953705,801.5741320868934,805.5893438097771,766.9427993206132
1731655482.4534738,733.2233542994393,797.4075061604476,799.5388153220288,757.2167164374008
1731655482.4557176,743.512855492238,795.8426084311096,795.2307425951004,765.1813338924308
1731655482.4563682,774.8630133149284,796.6634968233884,794.3871622973095,784.2217228833114
1731655482.45962,803.1379586398036,798.6496490031742,796.6176567814277,797.4295833838917
1731655482.4603944,806.6927772696246,800.5761873681784,800.0910693990662,791.650383329512
1731655482.4635224,784.3051192305189,801.7152185097813,802.8708559974785,768.8501996293301
1731655482.4674249,756.2764728132787,801.8511831069209,803.9093332052248,745.2693322023742
1731655482.46904,747.6121548511219,801.2058760455285,803.25966484796,738.6852373153143
1731655482.4713275,766.9413730175982,800.3773138860163,801.7043788281745,753.9703287294143
1731655482.47523,798.7637482652283,800.0756169038272,800.1997924860825,778.9260281388449
1731655482.475296,815.9688963969506,800.6494116113615,799.38536634642,794.140611335652
1731655482.4791324,802.6266804941465,801.8222941444976,799.2898886191175,788.8413735526525
1731655482.4830348,768.0399876294999,802.9648590682453,799.3956388697594,769.4744134828019
1731655482.484606,740.0394765743351,803.6267810055499,799.1324291122269,753.8566013900232
1731655482.4869373,742.7664275145019,803.789682596366,798.5137994945886,756.0136541920014
1731655482.4908395,777.0378545348622,803.7073780080974,798.3364971219291,774.5425211225588
1731655482.4942238,819.1408538923123,803.6260193090468,799.6068104412311,794.018170840725
1731655482.4947422,838.9115194793817,803.6456925105823,802.5524697101869,797.9079892192351
1731655482.4951763,822.7616433352615,803.7447498263499,806.0682047710213,782.211961454665
1731655482.4986446,783.7581797925643,803.8639112940136,808.1954818175818,758.8669956670864
1731655482.5001724,751.1397083013662,803.9651407597171,807.419234883446,746.3563610645741
1731655482.5025473,747.6127600700258,804.0434226502791,803.8604585938757,755.0690767527032
1731655482.5064497,772.2571635617147,804.1111084699927,799.4291571554928,779.0454223353504
1731655482.510352,802.4474009259891,804.1803100225094,796.7118966164392,800.7110229674782
1731655482.5131516,812.9787115399911,804.2554725825012,797.3071622119464,804.8289420496517
1731655482.5142546,796.6432261003959,804.3349700983829,800.7996174009588,790.4069812305943
1731655482.5157385,769.4509157311417,804.4155834686435,805.1555103571435,770.9498041299978
1731655482.518157,756.5591932751597,804.495420482338,808.2400790428633,763.0242270909835
1731655482.5220594,770.9288529058966,804.5743416736129,809.2437893182017,772.6398906884209
1731655482.525962,802.4160634819218,804.6530481293694,808.9024614919881,790.5343685925469
1731655482.5298643,826.0200096999916,804.7321641555673,808.4909485544393,799.9820814506556
1731655482.5299582,822.2109828004093,804.8118909204946,808.6316991173503,790.5812616263006
1731655482.5313046,792.709382111332,804.8921219402635,808.9526140000831,766.8526461267405
1731655482.5320797,759.0918844190678,804.9726849190469,808.6571123562868,744.8130366047994
1731655482.5337667,745.4580760615364,805.0534867738876,807.2363666007568,739.2763287430319
1731655482.5376694,759.1036795724488,805.1345263863988,804.6724754610367,752.0205901538928
1731655482.541572,784.9164400051856,805.2158424819878,801.2250901428686,770.4739510637926
1731655482.5454743,798.383301749414,805.2974661907324,797.3189965824221,778.3233614399246
1731655482.5468707,786.7628951231536,805.3794053700052,793.7247646206943,769.6006390682343
1731655482.5493767,760.644250523677,805.4616525727884,791.6416736292499,754.4263856579463
1731655482.5510075,745.627033941891,805.5441983129781,792.2191491164227,751.0830190228191
1731655482.5532792,760.5563830745539,805.6270380615238,795.6466547643242,770.5082212091069
1731655482.5571816,800.4738030945682,805.7101714261061,800.5853155785522,806.0230550366964
1731655482.561084,838.9309428044257,805.7935976701599,804.6680846185282,837.1697959460971
1731655482.5624368,848.3572299166676,805.877312673895,805.9570513468128,845.0298254410397
1731655482.5647402,822.151600972083,805.961310703899,804.3123473691388,826.8833268238651
1731655482.5649865,780.5058226408989,806.0455909247045,801.5070969236186,798.4173203732773
1731655482.5688891,754.9499842152156,806.1301636271583,799.8799518770916,781.5823360892858
1731655482.569935,763.755744303119,806.2150469136349,800.5933583766905,787.6858229043174
1731655482.5727916,797.9134882830992,806.3002469256699,802.9594815164589,809.2288310489848
1731655482.576694,829.1136437776515,806.385729192758,805.3156144682695,827.0466612330436
1731655482.5780027,833.2899803170527,806.4714111084052,806.4783448952711,826.8175471637683
1731655482.5805964,810.3326052417185,806.5572143134458,806.4175049406261,811.1447865351365
1731655482.584499,783.6554613336297,806.6431800966978,805.8236710252787,797.0531426094375
1731655482.5884013,780.1534708233642,806.7295635565761,805.335445038187,801.0768870518408
1731655482.5888631,807.3924217526601,806.8167414782077,805.1703378343527,824.6114551669303
1731655482.5923038,846.8148833203292,806.9048207775645,805.2230411138858,851.8498542009086
1731655482.5935693,868.2118721038901,806.9931195356445,805.3133724575176,862.0035585573354
1731655482.5962062,853.5567978332258,807.0801060260321,805.3409312151601,845.8411320618973
1731655482.599522,811.3226306693394,807.164491896144,805.302145417309,813.3233902368623
1731655482.6001089,770.279503347551,807.2474213464275,805.2372344764236,786.362135911652
1731655482.6040113,757.7532958636649,807.3340277333093,805.1800947360911,782.4038955306066
1731655482.6077907,779.2386301104132,807.4312554779849,805.1407243123489,801.6061972550023
1731655482.6079135,815.2006944843698,807.5401588642881,805.1126058233842,827.5107663009662
1731655482.6091354,837.4618747516038,807.6465447893662,805.0862004592402,840.5085357362577
1731655482.6118162,831.8976013740943,807.7213605312658,805.0566362817294,833.2364782429453
1731655482.6157186,808.891675120851,807.7431754649485,805.0240968257733,815.5079751239102
1731655482.619621,793.0641397691079,807.739339065618,804.9908291891901,805.0043246417653
1731655482.6235237,801.2703299159057,807.8106218607961,804.958568497519,811.819992944632
1731655482.6247015,827.8158755064228,808.0811871706028,804.9277505963838,829.9834215881775
1731655482.626719,849.4374820115522,808.5462719205398,804.8979852925547,842.8857903550205
1731655482.627426,845.5452961459505,808.8993219555614,804.8687757062684,837.6449260080108
1731655482.6313286,816.4112097517977,808.5503528596521,804.8398939282315,816.1617271090867
1731655482.6343038,783.9985011634092,807.0247756055987,804.8113742207604,793.825376235844
1731655482.635231,774.6455539539352,804.5987414307955,804.7833460739195,787.2238316903057
1731655482.6391337,797.6622440042427,802.5740672632754,804.7559027352428,801.0318434527665
1731655482.6402676,837.2719942006908,802.6228815361319,804.7290671298524,824.6045092162278
1731655482.643036,864.6966441364692,805.4296961797718,804.702820931942,840.7840395113711
1731655482.6456468,860.9132835349269,809.743174787305,804.6771426121377,839.5760419439287
1731655482.6469383,831.6777483187469,812.8909716883215,804.6520255666346,825.5233812339649
1731655482.6508408,802.3684779211604,812.6614382808883,804.6274763544952,812.9070863725333
1731655482.6547432,796.7382046231619,809.1746306157644,804.6035054837646,813.0819146881188
1731655482.6558335,817.2257764639216,805.1271241824415,804.5801207497802,824.8234768551733
1731655482.6586456,843.2991142830487,803.9686813271106,804.5573258311205,835.8379345900569
1731655482.662548,849.0423436948931,807.2971997457462,804.5351220213092,833.8841290176823
1731655482.6645746,825.0112507030793,813.5375784273076,804.5135102249864,817.7803978318796
1731655482.6664507,786.1650921127045,818.9932538974224,804.4924918187226,798.9118440792842
1731655482.6690855,759.686569924851,820.4192978452288,804.472068483609,792.052215049687
1731655482.6703532,763.0647839986484,817.0951764394698,804.452241698355,803.1682884998085
1731655482.6714,790.3516878351378,810.9574388810523,804.4330124032101,824.2190925360162
1731655482.6742556,817.523992002958,805.013726532126,804.4143809511842,839.2467514116411
1731655482.678158,822.3477766994283,801.4636195587203,804.3963472196805,836.9489846808677
1731655482.6820605,802.3684574349443,800.8195578839783,804.3789107239149,819.5906807814666
1731655482.6835024,776.141332752672,802.2732961318163,804.3620706499576,800.9321923317518
1731655482.685963,766.7487689096434,804.6443592151774,804.345825807513,794.8074628466823
1731655482.6869662,781.6793238739828,807.1102182645988,804.3301745551831,803.7789030439684
1731655482.6898654,806.3437869438388,809.3800040410104,804.3151147775732,817.2750748234939
1731655482.6937678,816.7956054830893,811.4729560442854,804.3006439843206,820.6962447522105
1731655482.6976705,800.6621778496178,813.4319092997537,804.2867595214327,807.8653972631346
1731655482.701573,768.3304992100996,815.163246872156,804.2734587301443,786.5453227707259
1731655482.7024302,744.9294130051278,816.3876963628321,804.2607387613047,772.5295393935621
1731655482.7025323,749.8647703301693,816.6238324591199,804.2485958702221,777.0163719528006
1731655482.7038677,780.7438406507797,815.2385739589184,804.2370245365233,797.2105618620867
1731655482.705475,814.7161814521756,811.7069109929937,804.2260174610936,817.6340968067547
1731655482.7093778,826.3059447943439,806.0988993061395,804.2155676113274,821.5567221733119
1731655482.7132802,807.6984370550753,799.4749477590377,804.205672062805,804.0718007340109
1731655482.7171826,775.1511790840145,793.6909988484965,804.1963344414869,776.4656321586345
1731655482.7180984,755.9261553783458,790.459769224833,804.1875605666282,757.7883079426875
1731655482.7210853,765.9888454614862,790.2235092578901,804.1793446162226,759.8552515914354
1731655482.7213583,796.7183378578871,791.7755549395075,804.1716533616183,777.8658718348424
1731655482.7249875,821.7538055885867,793.0955755148169,804.1644288358589,794.6385901366461
1731655482.7288902,818.4880353105978,792.848332332494,804.1576300179322,795.0922054100656
1731655482.7327926,786.658958145495,791.3768621845483,804.151304701368,778.8551442197281
1731655482.7336645,749.0393302037812,790.407855648726,804.1456271219419,760.5029893374583
1731655482.7366953,733.8587211267914,791.7223330860134,804.140801233135,757.4207197295283
1731655482.7386496,753.0209942079239,795.803405753219,804.1367920241046,775.4918003121259
1731655482.740286,793.1204831070698,801.3930279006491,804.1330473637312,804.3044489065346
1731655482.7405975,826.0958961888417,806.1847440272041,804.1286021656691,825.60493838351
1731655482.7445,831.192716093268,808.144877805434,804.122920617969,828.0185786551843
1731655482.7484024,811.0026585208462,806.6201367573236,804.1172311965362,815.9816602188756
1731655482.7492306,788.6027448890754,802.5717438878978,804.1150674177537,805.4032247674053
1731655482.7523048,787.7705850527794,797.8657699469846,804.1201744825458,809.5342750922954
1731655482.7562072,812.5230136279198,794.2081873198068,804.1313302021541,827.089133538245
1731655482.759214,843.4535085120407,792.5291151653231,804.1375142012599,843.1495521481341
1731655482.7601097,854.3731692375005,793.1158183937532,804.1209053206161,842.38018265496
1731655482.7640123,835.1703791744678,795.9901214995806,804.0737201837931,823.0571703732331
1731655482.764797,801.2084133113183,800.8144562702672,804.0227321743463,799.4663792420577
1731655482.7679148,781.115966605692,806.3468549219494,804.0358824770751,790.416887768805
1731655482.7718172,793.2716994742281,810.335220907387,804.177206236842,803.7115063124329
1731655482.7734315,830.5995842992801,810.5720186056917,804.4057711137181,829.6696332294302
1731655482.7757196,866.0104478555132,806.5856963912086,804.4873810802587,848.84192111987
1731655482.7781415,873.7933085491213,800.4644411111127,804.052367627306,847.3200713977114
1731655482.779622,849.6536596030963,795.801723775143,802.8724335389635,827.3065291477113
1731655482.780363,813.5149897986466,795.3672261650817,801.1878272547601,804.8057936544285
1731655482.7835245,793.0210235803106,799.2839765726023,799.7246946983764,796.5243867405037
1731655482.7874267,801.102307925939,805.1081972618703,799.2601477571945,806.444102304671
1731655482.7913294,825.9129199932349,809.6378674240639,800.0750454566056,822.8114311847713
1731655482.795232,841.4908425330216,810.9472204777608,801.7674914710364,828.0692967928373
1731655482.7959292,830.2598060908934,809.1770127342146,803.5213770896785,813.7570920897778
1731655482.7970695,798.3974682566227,805.8282428150171,804.5493317663555,788.1599671495467
1731655482.7991345,771.0585876893995,802.4929708119332,804.434880412858,770.2679035234925
1731655482.8030367,771.469795540238,800.0785388461011,803.3004845701039,774.7812110522619
1731655482.8069394,801.3806319351945,798.7842073630516,801.8096097656536,800.2223877730418
1731655482.8082137,839.0240236162906,798.405085386565,800.952448678639,829.7009071558299
1731655482.8108418,856.1876535698468,798.5845759171427,801.5734852947118,843.7162974650289
1731655482.8114953,840.5333301176447,798.9773045959452,803.7922787938121,834.8754339223109
1731655482.8147442,805.2837171548595,799.3611941893813,806.7030179662477,813.0401797683833
1731655482.8159976,778.5724833742021,799.6656039065263,808.7173551033598,797.0490870416648
1731655482.818647,780.89766562851,799.9160198768224,808.5011298307978,799.6778552553328
1731655482.822549,808.7048369908101,800.1590662898885,805.9177623468584,817.7932650015705
1731655482.8264518,837.5298562856808,800.4199418269422,802.2481695397817,835.5678672798306
1731655482.8270614,842.458564894442,800.6984472135576,799.4443605732571,838.118923769812
1731655482.8303542,819.2151331539641,800.9834512817966,798.9125266540307,824.2752174077345
1731655482.8342566,788.2151769112527,801.2660383835547,800.661387523332,807.7006378301635
1731655482.8349254,777.8754678861878,801.543807436562,803.3357792249705,805.2919706755741
1731655482.838159,800.8296423881812,801.8186598849812,805.0271184079328,822.5628296082322
1731655482.8420615,842.6925420926474,802.093164117912,804.3275336163089,848.3330973882846
1731655482.8426278,872.6986950782021,802.3685772716404,801.0762154201218,863.26537463187
1731655482.8429954,867.7618378584419,802.6448146251358,796.4820906837549,855.3407760005555
1731655482.845964,830.7679947925111,802.9212750216484,792.5811882513068,829.7218210186028
1731655482.8498664,788.4871956677937,803.1975186434594,791.2352104926422,804.9521959310271
1731655482.8537688,770.5828247267441,803.4734581960055,793.1101094646846,798.3411416377812
1731655482.8538532,786.3032544678107,803.7492216455719,797.1954184383494,812.1172555869024
1731655482.8576715,817.5906604364995,804.0249589415514,801.2555693239218,831.5822465191496
1731655482.858194,834.3470011010261,804.3007438972066,803.1007993097029,837.0409294722263
1731655482.861574,819.5230940849242,804.5765768135544,801.9746344170819,820.0599653714532
1731655482.8654764,783.3926707985206,804.8524295720497,799.1127051289908,790.8058263927352
1731655482.8693788,755.1138337715299,805.1282857198242,796.956043174029,770.2780156223405
1731655482.872781,758.4896940053734,805.4041606746435,797.457188163082,773.590058571473
1731655482.8732812,791.9945203280603,805.680103026649,800.696387080409,797.8254734059515
1731655482.87376,829.5811793502928,805.9561741116728,804.8709223452502,824.2529509964398
1731655482.8771837,841.6261203937722,806.232401773783,807.6343007443417,833.0232503580788
1731655482.877777,818.9187059376258,806.5087269211924,807.6764428096112,818.5230800118858
1731655482.881086,780.2074952732625,806.7850015588759,805.347266810798,793.2478076785633
1731655482.8849883,757.20322492844,807.0611080078543,802.0648750874191,777.4037284188092
1731655482.888891,769.2136006243239,807.3371896593619,799.2578267442744,782.8826967543656
1731655482.889326,807.961685421101,807.6138087162976,797.7392496294128,804.5826100560446
1731655482.8917089,844.7683912231983,807.8917058777479,797.7351769123646,825.7861903850636
1731655482.8927937,853.987928179758,808.1709829041266,799.1413367211738,832.6456609704387
