timestamps,eeg_1,eeg_2,eeg_3,eeg_4
1731655021.3383842,791.3161699465359,804.0108304276989,802.1510157992337,795.844289567277
1731655021.354,786.5817358252058,803.2283094939127,803.7645448535943,793.9817134893389
1731655021.3696158,792.7758437705628,803.2978109266521,804.1950494457326,798.813118176552
1731655021.3852315,810.4713056018778,804.4644307845077,802.5907651547994,809.9907476989599
1731655021.3860652,828.2487265666941,806.2075595494864,798.8485946122095,819.3994632133765
1731655021.3899674,831.9665925103126,807.6792416249932,793.9049468069574,818.0637735553042
1731655021.39387,817.9228483931059,808.4345814713048,789.5180665132738,805.2368729788262
1731655021.397772,798.1609032538348,808.8518754116685,787.4448752271189,791.1839878461157
1731655021.4008477,791.5556331871926,809.8173561370763,788.4441431990906,789.6864587440443
1731655021.4016745,807.0473948754286,811.8657068033549,791.7751815397014,805.7204090305323
1731655021.4055767,834.1395966650117,814.5234106617714,795.5539343918311,829.5420006376328
1731655021.4077425,850.7710041975453,816.5249019712959,797.7625610874319,843.8278474832736
1731655021.4094791,842.8456770519559,816.8175183653137,797.3385278657292,838.5479929272085
1731655021.413381,817.7611961218279,815.4935485420427,794.7626705017756,820.1406939911295
1731655021.4164634,798.6950178000375,813.7689037723693,791.8156818682824,806.0066462441142
1731655021.4172838,804.100775025847,812.9686032566734,790.5697359824682,808.9377449934727
1731655021.421186,831.0829853096317,813.410488520325,792.1368007840728,825.7980210479245
1731655021.4250884,858.0122655520048,814.1899274121542,795.9552088341023,840.8649134808692
1731655021.4266288,863.8618003275506,814.0388793829969,800.1436858861567,840.4333251279957
1731655021.4289906,846.4015413109549,812.465777019983,802.7233256285833,824.999846128851
1731655021.4320793,822.9020456081739,810.1833867349116,802.8448051658496,808.1267811093791
1731655021.432893,813.4195597861169,808.5178495082744,801.1489618061507,803.6536580375033
1731655021.4367952,822.5434723181203,808.3605840880632,799.0734196397566,813.2929277991766
1731655021.4406977,836.3841784252173,809.5139895678772,797.7294654103569,825.7325970881249
1731655021.4446,837.0963154470957,810.8624596931664,797.2494438735047,827.6069464409494
1731655021.4455154,820.8053055165478,811.1496724495416,797.0435332318613,815.9927032869156
1731655021.447695,801.6960357279429,809.7860263952329,796.6134744246667,800.9612418838353
1731655021.4485023,798.2816351769017,807.1861710796759,796.1291087035066,796.0480300703138
1731655021.4524045,815.0547163620066,804.4667845579095,796.2581524211791,805.688410791473
1731655021.4563067,837.3403196725689,802.7137930344824,797.471231235622,821.3333425034622
1731655021.4602091,844.5991821471945,802.3041452328241,799.5213842231896,829.6321857358814
1731655021.463311,829.6937614667755,802.758341689269,801.5767489241035,824.7023794033586
1731655021.4641116,805.8112808114244,803.2137544907865,802.8353713050001,812.9149737985075
1731655021.464402,794.3486920058922,803.0957084337828,803.0454932271072,806.0222287183066
1731655021.4680138,804.937347405274,802.4095198836179,802.5342144675525,809.5095544942591
1731655021.4719162,826.1434928543442,801.478219408106,801.8251937429218,817.2937060206572
1731655021.4758184,835.5972711261634,800.5116986021052,801.2162471791969,817.6705329099232
1731655021.478927,820.5240048025496,799.5166938148078,800.6252534830884,804.8556411112072
1731655021.4797208,790.0909283806465,798.6152697097996,799.7721811632553,785.3287242775708
1731655021.4832883,768.2757535749076,798.3277876137898,798.5518918831726,772.9965827997281
1731655021.483623,773.4583727372176,799.3665799790641,797.3409894149297,777.3709909371332
1731655021.4875257,802.7579561178524,802.001573569791,796.9886015428442,795.2271744635265
1731655021.4914277,834.7011755453266,805.5578321882589,798.3973705072764,813.0222740158839
1731655021.4945426,847.4476202716643,808.5663304376087,801.8890478340229,817.834558718587
1731655021.49533,836.4724133248741,809.5441600135525,806.7964960518234,807.3993964251576
1731655021.4992323,816.8700326032132,807.8484261073994,811.6660507612419,791.0678142627803
1731655021.502175,809.2451316629355,804.0033249990612,815.0193197006586,781.4888632740884
1731655021.5031347,821.8205306526885,799.3409986448629,816.1422814338506,784.3117212668993
1731655021.5070367,843.7016007207707,795.3015850556446,815.3253097046174,794.2785780393699
1731655021.507048,854.4173847876451,792.8806599521434,813.4540444410206,800.52724317618
1731655021.5101583,841.5529435098167,792.4435640121649,811.371779940517,796.449896695959
1731655021.5109394,811.8669815000886,793.7846184507051,809.4938595797496,785.7800833962074
1731655021.5148416,786.5149769160207,796.2451831959299,807.798377285252,779.5831736113452
1731655021.518744,783.9616916291699,798.8903873028036,806.0173322930497,786.4340190942248
1731655021.5210617,804.6793250337631,800.8385599711248,803.876971571084,804.2001021288829
1731655021.5226462,830.7288640787538,801.6594467075168,801.372611200954,820.9488998123205
1731655021.5257745,840.9196008524063,801.5538367974475,799.011638878259,824.7522360271763
1731655021.5265486,828.7794587922467,801.1355749663809,797.7893537935923,814.1456362813424
1731655021.5304508,807.9602608191673,800.9946169963979,798.707226022001,800.0257497503472
1731655021.5343533,800.437425843979,801.4124977098062,802.0067624618025,796.9720993218572
1731655021.5382557,817.5256021735867,802.3960822185048,806.6600016487093,811.0827344701836
1731655021.5399482,849.6460403486476,803.8424923100613,810.6279208872025,834.4729367840843
1731655021.5413902,873.3332328893636,805.5671031766453,811.9048923412247,851.1216862570568
1731655021.5419998,869.885707519496,807.1895346147803,809.7466603479916,849.5239771015438
1731655021.542158,840.7463834136408,808.1287478981586,805.2102875450537,832.0749181800293
1731655021.54606,807.0977587061799,807.8725528985537,800.5144508898259,813.4962974384006
1731655021.5499623,793.4517552009258,806.349069426753,797.6000554181363,809.1960832933156
1731655021.5538647,808.0697559829163,804.0457469164791,796.9715809913854,822.7799545927571
1731655021.557006,836.3253095688999,801.7326311859132,797.7268122456807,843.120836528959
1731655021.5577672,852.9482539543731,800.0304257881626,798.6629124304384,853.7347102100678
1731655021.5588348,843.2171224974162,799.1945618321248,799.3967855206349,846.7141232254946
1731655021.561669,815.2711129485147,799.2252765228342,800.4927056291111,829.339495770222
1731655021.5655718,793.0937296860316,800.0692400097809,802.6005428780898,817.6731213388299
1731655021.569474,796.1576550011712,801.6463059963547,805.5659180597918,822.633460730877
1731655021.572622,822.9288523119142,803.7285280386739,808.4249597335463,840.4291407819354
1731655021.5733764,851.9036203012644,805.9253144875822,810.2106980304114,855.3874006413014
1731655021.5769515,859.0353155158621,807.8763750516816,810.6740650601636,852.7403146048044
1731655021.5772786,837.0570456817132,809.4147590366223,810.2713602276417,830.817235783476
1731655021.5777214,801.0886395652293,810.4265122762605,809.6404832947568,802.7792748086648
1731655021.581181,776.2935180622137,810.544195333305,809.1658873286553,786.5246994895263
1731655021.5850832,777.7498755479513,809.1837010480098,808.9046725840722,790.7848744503576
1731655021.5882378,798.803494948357,806.1852496819135,808.7446434189909,808.4715834057946
1731655021.5889857,817.2727804590562,802.5547513482036,808.5732424682298,822.6618028664993
1731655021.592888,814.3610461364003,800.3643272472074,808.3488334976191,820.4905783222476
1731655021.596608,790.6107309706534,801.4458669199582,808.0865211489147,803.6731780443848
1731655021.5967903,765.5205302564542,805.7308610991466,807.8164380456368,786.9575479842034
1731655021.6006925,760.99038108977,810.7408403434187,807.5563721726948,785.7113446564026
1731655021.6038537,782.3729801742911,812.9875132924659,807.3076974144253,802.903997535499
1731655021.6045947,813.0514105811661,810.4176070971616,807.0638748346363,826.2613148950666
1731655021.6084971,827.2661656652836,804.0088122620882,806.8190491114209,837.9164770138067
1731655021.6119032,810.8385637619692,797.2094084587628,806.571315711735,828.6486738472721
1731655021.6123996,772.9867362227064,793.6503605134825,806.3216562247471,805.2239455523668
1731655021.6154945,739.626593235602,794.9016629862593,806.0716769851618,785.0360531332952
1731655021.6163018,733.3239007667119,799.8425842549883,805.8222464445969,782.3503308346376
1731655021.6194694,755.7221003171278,805.7839788605918,805.5733708065733,797.0639092507457
1731655021.6202042,786.5542642885398,810.2035463143587,805.3246803726681,815.0048283485631
1731655021.6241064,800.3238745564058,811.8613380845848,805.0758746956112,819.700482932271
1731655021.6280088,787.2856368707098,810.9152624716484,804.8268704627524,806.1290841663777
1731655021.631911,761.3268396011529,808.4413447132471,804.5777261013878,785.0044957873858
1731655021.6343813,747.9116256689473,805.8609854427558,804.3285150136949,773.8726797378007
1731655021.635085,762.0960217909214,804.4403536530484,804.0792584584564,782.4964539681781
1731655021.6358137,795.2366802837926,804.829971889276,803.829936567601,804.8551021683314
1731655021.6397157,821.710263798731,806.7383296698531,803.5805399791799,824.2718472605771
1731655021.643618,820.0283789859454,808.994513739149,803.3311081639629,827.0052783994669
1731655021.646855,790.698542742913,810.1352799760862,803.0817085175763,812.8709081678506
1731655021.6475203,756.0300765865933,809.2756127905909,802.8323442002492,794.4677121870716
1731655021.6507013,742.1082289521555,806.7173464755411,802.5828475005899,786.2185615738902
1731655021.6514227,757.7767418196472,803.8295649919,802.3328929404473,792.5016479951553
1731655021.6532676,787.8378693448456,802.2021143524679,802.0822611842381,804.4616473605371
1731655021.6553247,806.0625494260617,802.6037633732813,801.8312964756326,807.9013375965416
1731655021.6592274,797.3620288948634,804.4586919298719,801.5811480064705,795.752867342246
1731655021.6631296,770.6904347897307,806.2163874404682,801.3331593697806,774.8277632664824
1731655021.666317,751.5974824869223,806.3547867490569,801.0871654714233,760.9291570511366
1731655021.667032,760.3043358475298,804.3059575231604,800.8397242575979,765.8847638607182
1731655021.6709342,793.674429336758,800.6920962870271,800.584767329196,787.0923893545802
1731655021.6721542,826.5531557992209,796.8212712162392,800.318932410381,808.5927628875453
1731655021.6748366,831.8181517563645,793.9237473521421,800.0500377549712,813.3500245657045
1731655021.6787388,802.8349087951544,792.6666448071333,799.800551857928,797.0351777253793
1731655021.6818068,759.9730336878415,793.1052876739633,799.5943902801803,772.1123974982805
1731655021.6819327,735.7153668955884,794.8572395840627,799.4241605215921,758.6608393170857
1731655021.6826413,749.8906564234809,797.2639561756931,799.2206718240234,768.8805378318496
1731655021.6865437,794.2936813657358,799.5350655731887,798.8724600723057,797.3426809362242
1731655021.690446,838.7182065354684,800.9917884392594,798.3345903528939,824.8102716004115
1731655021.6910408,853.8617034532432,801.3767423432178,797.7909978164262,832.9665760664171
1731655021.694348,833.3460334407177,800.997260210857,797.7176874233229,818.6033209026037
1731655021.6975489,797.6648140683658,800.5250818088697,798.6612256371926,795.8737774969263
1731655021.6982503,777.1138640359983,800.5729369217603,800.7543203462604,784.60397894728
1731655021.7021527,787.4823379704395,801.3740368304827,803.3583358538658,794.0592650163246
1731655021.7060552,817.934311857552,802.768167583763,805.3070613215971,815.4455917616016
1731655021.709927,840.4941065143312,804.4045235153129,805.7219909269079,829.288181092803
1731655021.7099574,833.1452571084102,805.9428330909114,804.7198141137062,821.5781334835777
1731655021.7131646,797.9004795407798,807.1596432410487,803.3201218546335,795.4744787817174
1731655021.7138598,759.5581148887168,808.0104880944822,802.58086791513,769.1337286885131
1731655021.7167585,746.3302640651593,808.6561136266861,802.7019083890264,761.5347881574885
1731655021.717762,767.7970731061051,809.3466737967229,802.8493575736962,777.7420966380705
1731655021.7216644,807.6892758428902,810.1287858477775,801.8229823756719,805.3606062759061
1731655021.7255666,837.2180634084117,810.5933925369096,799.0418207100195,824.8317154854504
1731655021.7287805,838.1438590962637,809.9938436463489,795.1617649938725,824.9947719999777
1731655021.728814,816.7339575138652,807.7930190937282,791.9304482329974,811.1408937904422
1731655021.7294693,797.1456253066543,804.248630256951,791.3021858330505,799.1838351543602
1731655021.7333713,799.9170488326192,800.494696759102,794.206932557291,801.2734336515997
1731655021.7372737,823.8759561187271,797.9469633419374,799.6725413017824,815.2628270823437
1731655021.741176,846.9661575116316,797.4429589338197,805.0309080164795,826.9026577780954
1731655021.7443964,845.4181895319042,798.7812302704637,807.3782917784529,822.6503555021676
1731655021.7450783,815.0566886954982,801.0056634399788,805.475249311613,802.0543450081275
1731655021.7477005,776.6426825022971,803.1648334135944,800.6917354006865,779.2202797467394
1731655021.7489803,760.3713987698487,804.895103073202,796.1444643492397,772.0186649118413
1731655021.7517102,781.7790619957757,806.3630424166499,794.5542113216605,787.6667673720508
1731655021.752883,828.4658437555395,807.7084058021873,796.4169225173429,816.2499905126682
1731655021.7567852,868.6632569629735,808.6105452886044,799.8701408407393,837.5912221641473
1731655021.760012,875.3228394660096,808.4755653574646,802.2779374447972,836.4020604607629
1731655021.7606876,846.7061273246956,807.0860143235268,802.1954027103938,813.9002303556354
1731655021.7645898,806.8851912621423,805.0219376837764,800.1677285042978,786.5945363835082
1731655021.7665868,785.7584857706579,803.3401894172173,797.9088848113231,773.158563683865
1731655021.7684922,795.0693305882814,802.7415650587631,796.779124616046,780.0634541548345
1731655021.7723944,820.1512634610186,802.9927630991207,796.9206764400632,797.612733850757
1731655021.775628,833.7542263890052,803.1434931075495,797.6192313231716,809.2111789048145
1731655021.7762969,819.7661522224846,802.3366971692033,798.2756769834778,805.6427642511522
1731655021.7801993,786.7960516063154,800.4964963520526,798.9231543760242,792.3028944428947
1731655021.7841012,760.7393865867798,798.3416977884209,799.855591228257,783.7329634978262
1731655021.785473,763.2063207693543,796.7828096205488,800.9315619253297,790.5956457771721
1731655021.786662,793.9241150056371,796.2364785202476,801.4452676428074,810.2397530454946
1731655021.7880037,831.2329519695247,796.371941368996,800.800333834715,828.6524718991247
1731655021.7912438,849.7414904696966,796.4040608975879,799.2984975371779,832.0960297337353
1731655021.791906,840.4758978567772,795.6545405273665,798.1530764466147,818.7827046710019
1731655021.7958083,817.0736629177493,793.9952411181241,798.5814623981554,800.7579879053715
1731655021.7997105,803.0897402749027,791.946309571532,800.7595280241095,794.0643945885474
1731655021.8036127,811.2658809158909,790.4311183010605,803.5920302012265,805.1623051296999
1731655021.80436,832.5598755598006,790.3372294136828,805.5151814211249,825.1494903302179
1731655021.8068595,844.44613936462,792.0771623405527,805.6503314250991,836.9906306707064
1731655021.8075151,831.2849710976456,795.3318181859971,804.4005442716408,829.8640308492503
1731655021.8114176,799.0430357514036,799.1120071926061,803.1212189423347,808.5491033809529
1731655021.8153198,771.5546433993445,802.160308814411,803.2127466566594,789.9390146234214
1731655021.8192222,771.3373597785495,803.5347279649492,805.2962790453071,789.5358893196478
1731655021.8216136,800.8990251078903,803.0680209068768,808.9453843515307,808.9150001538576
1731655021.8224757,839.8314085768401,801.4260788324013,813.0254001015253,834.1223734380018
1731655021.8231244,860.0361090437531,799.7198862290048,816.3362065161886,846.1825568340118
1731655021.8232465,847.1313202825227,798.9017620739315,818.1332453816526,835.5878879569213
1731655021.8270268,811.4358939052662,799.2964207411115,818.2551290127113,809.705102805816
1731655021.830929,779.9682215587,800.5118500923618,816.9067042542379,787.327605988412
1731655021.8348317,775.4819761557419,801.7405605280004,814.3960251150347,784.2983290487149
1731655021.8380914,798.8218396012287,802.2558959462863,811.0937558830733,801.2124644224006
1731655021.8387337,828.660698841667,801.832266607593,807.5985994047085,823.0049669246464
1731655021.842133,839.0444573061454,800.8763821467275,804.820207850077,831.0329587745293
1731655021.842636,820.6781837093288,800.1979188943097,803.707420143142,818.1006997774512
1731655021.8465383,788.5874892308623,800.5245613527022,804.6789878995354,794.2353215775361
1731655021.8504407,769.8508503934722,802.0250203581456,807.1833939392288,778.4639581706932
1731655021.8537073,781.4988044627723,804.1485754435266,809.8568636783308,783.341537562415
1731655021.8543427,816.6601036639319,805.9333376548242,811.3211556981317,804.8980341357749
1731655021.8565657,850.0443820369711,806.6241525199598,811.0603167752337,826.1017889636144
1731655021.8582454,858.0142587604614,806.1846169200606,809.6389478047666,830.8164095735982
1731655021.8610196,836.9068058104934,805.3125511630832,808.0958006911117,816.7508315841344
1731655021.8621476,804.9672495981137,804.9146738243244,807.1335151351813,796.824250115188
1731655021.86605,786.5989975848474,805.4307109132407,806.811313605951,787.8752473549108
1731655021.8693233,792.0260648118192,806.545463374389,806.8032868415892,796.1564357954285
1731655021.8699522,809.3465980408064,807.501874271326,806.7887495422357,811.9542856344923
1731655021.8738546,815.7431260179651,807.6872243260337,806.638948582105,818.1609294947874
1731655021.8777568,798.3421476678913,806.9434143524578,806.3846018253028,805.632376130596
1731655021.8799062,766.6910409468289,805.4034676211987,806.1046474605048,781.9990467191294
1731655021.8816593,745.7397883061203,803.203124339795,805.8490582974298,765.96626749405
1731655021.884939,754.8618048357121,800.521258953638,805.6240117117361,771.6440894687858
1731655021.8855617,790.5081648716523,797.9161821597672,805.412960617563,796.185674051915
1731655021.889464,827.2974467513809,796.4218359648963,805.1999153838211,821.356368056013
1731655021.8915172,837.1704639569069,797.0108454148885,804.979111123309,827.9354721178447
1731655021.893366,811.3566149491338,799.7524636342243,804.7527769497672,811.1131783578825
1731655021.8972683,767.4641079173322,803.4918861412712,804.525183190929,784.2693525925649
1731655021.8987927,735.8990766782625,806.5158849905341,804.2988076634228,768.1532252411864
1731655021.900555,736.3805962841143,807.7470278716949,804.0738079169288,774.3882904157642
1731655021.9011707,763.2604887152921,807.4683999911148,803.8492439934322,796.6852121424669
1731655021.9050732,791.3110105857878,806.977165201217,803.6242894720315,816.7153696028571
1731655021.9089754,797.1168076563714,807.4909502086022,803.3986809976981,819.5884924312351
1731655021.9128778,778.4254665608819,809.2049137255948,803.1725602441347,806.0353885665193
1731655021.9161708,755.434193944887,811.1717442594733,802.9461541471483,791.2236933138474
1731655021.91678,753.0673722381274,811.9742969674883,802.719585212491,791.4107506106819
1731655021.9176793,779.2759689694375,810.6277802065841,802.4928543116215,809.8535096258697
1731655021.9206824,817.6240496842418,807.1322650970037,802.265905218736,833.8221348600946
1731655021.9245846,840.3006085381058,802.4544418966311,802.0386825997267,845.0240749683916
1731655021.9264688,830.7233724459207,798.0857803042571,801.811155742787,834.5932427701562
1731655021.9284873,797.1868091452319,795.4613968865217,801.5833248731899,810.3108873300883
1731655021.9317863,766.4491563894057,795.4506238710959,801.3552276322883,790.3305662345565
1731655021.9323893,762.3858401756344,798.0299960447527,801.1269350667452,788.6195390181819
1731655021.9362917,786.8861307838736,802.2431427222851,800.8985064491229,803.8455096162559
1731655021.936566,818.522806620987,806.5555177611262,800.6698964392081,820.6070687239031
1731655021.940194,830.296357178975,809.5577731950411,800.440881909633,822.0657084121042
1731655021.9440963,812.1141380197971,810.6861926185126,800.2111448940153,803.8802076072295
1731655021.9474025,779.4562349811573,810.4918817174536,799.980603301688,778.1628585559213
1731655021.9479983,760.8519298731431,810.230900252657,799.7498397235187,764.1190389065471
1731655021.951901,774.3588924125763,811.0225287371137,799.5201348438164,772.8191725585091
1731655021.9554524,812.4162027039004,813.120664553907,799.2925311528945,798.3562899389023
1731655021.9558032,847.4724851571102,815.7248924589352,799.0660008334476,822.4807239763877
1731655021.9597056,853.7222091259727,817.3916079810864,798.8361926945427,828.9481055986674
1731655021.9614203,827.3970415062383,816.8080519614704,798.5973482836625,816.105185898926
1731655021.9630182,789.534801290401,813.5603855349227,798.3488066146991,797.7348332814698
1731655021.9636078,769.2345022282427,808.4830977986189,798.1027304986502,791.5425791158267
1731655021.9675102,780.7673756992707,803.2850444971531,797.8834487578737,804.5153849208264
1731655021.9714124,812.7222115716838,799.5778850101469,797.7082656413764,827.017392271545
1731655021.974339,837.8928284248283,797.9812296869111,797.5531024757981,840.647648186998
1731655021.9753149,835.9824994860991,797.9990999686629,797.3329582186682,833.6873155803816
1731655021.978634,810.5038680406649,798.6532519774927,796.9457455375667,811.3800269999898
1731655021.9792173,785.6433945050059,799.2053795812831,796.4013691730366,792.1358539833273
1731655021.9831195,785.4623470509325,799.4258651373394,795.9661626214373,792.406661575936
1731655021.9870217,812.9342458993008,799.4308803265236,796.1474856868326,812.7909918179691
1731655021.990924,846.7081972461182,799.4073317459317,797.3731273615495,837.1914035618281
1731655021.9932256,858.4569102871328,799.4540218952277,799.5071170527785,845.8719372590111
1731655021.99425,836.2692379057426,799.5695914211484,801.6810673863006,831.5329797115568
1731655021.9948263,794.7116309914514,799.7102993312532,802.7974900498366,805.1356956803093
1731655021.9963722,763.4508434451527,799.8414627457918,802.392470949873,786.8661048730287
1731655021.9987288,763.7974981235776,799.9539470930339,801.0599371375649,789.7712690563703
1731655022.0026307,792.1206206651595,800.0553035517904,799.9902271868041,809.396924206302
1731655022.0065334,823.4962217495121,800.1555381164816,800.0159120298126,827.8141243585362
1731655022.0098658,832.5761079616689,800.2594623017482,800.9963856023347,828.695407378953
1731655022.0104356,814.4314312273056,800.3666513882365,802.0181810622521,810.9256247383703
1731655022.012112,787.9150352907692,800.4746983530034,802.1537271334578,789.2912983326624
1731655022.014338,778.6675296121938,800.581851109948,801.0998056536486,781.5886307466923
1731655022.0182402,796.2726465083557,800.687736849671,799.2295964955406,793.0979683068499
1731655022.0221426,825.2463825229885,800.7928116264096,797.1747471279466,811.7498148823821
1731655022.0254817,837.7640378624383,800.897605981662,795.4458376939153,818.2087907193611
1731655022.0260448,817.3880682399661,801.002354209452,794.444266821927,802.3647553370996
1731655022.0299473,773.7346245853729,801.1070199827568,794.6901626843185,772.382983163882
1731655022.0309987,735.8192076078103,801.211476105539,796.7640205525371,748.8689126969382
1731655022.031324,729.5784148253805,801.3156382037076,800.7510400706956,748.9575038111966
1731655022.0338497,757.7189805083804,801.4194956309453,805.6432406150542,772.9788874091674
1731655022.037752,797.8162271206928,801.5230798976708,809.4480898077519,804.0119357220484
1731655022.0410976,820.0017745132782,801.6264266012415,810.2243570296133,820.5812981951465
1731655022.041654,810.2223055931279,801.7295571728603,807.3625092231351,812.7367237133528
1731655022.0455563,780.6542486703976,801.8324768829991,802.0864898186392,789.1323296971186
1731655022.0494587,759.0086208809731,801.9351769602501,796.7643111039042,769.6227859860169
1731655022.0498853,765.4717449579181,802.0376379634458,793.5722821261483,769.3256930444096
1731655022.0533612,796.1291376901771,802.1398426907834,793.4623806401834,786.9935446687706
1731655022.056713,826.3012403317489,802.2418040397404,795.9870154085255,806.9549052849333
1731655022.0572634,830.7435376489888,802.3435914794223,799.8453325538904,812.616734910828
1731655022.0611658,804.0551575091624,802.4453143422935,803.6258869309992,800.109336866486
1731655022.065068,765.0387988997744,802.5470259004258,806.299345671995,781.0001418497075
1731655022.0662758,742.1248838049557,802.6485807704343,807.3516890384875,772.4210670334957
1731655022.0687718,751.8281856398809,802.7495908703147,806.7387771684907,783.1616156833502
1731655022.0689704,786.9205169477485,802.8496753413258,804.8741657656128,806.9707267420807
1731655022.0723293,822.8732214125918,802.9490316712541,802.6354977877947,827.984451662233
1731655022.0728726,837.0698026340392,803.0489240512361,801.1613894298908,833.4681314396502
1731655022.0767753,825.7515389510795,803.1512691212748,801.3288834387814,823.5186124489159
1731655022.0806773,805.5297103597713,803.2567236922306,803.2040741408534,810.0334795003527
1731655022.0845797,798.4723998181105,803.3620667244015,805.9689661522633,806.0212772975888
1731655022.0876584,813.13216333931,803.4597441955513,808.4878134121226,814.3285585817396
1731655022.0879452,837.4064429614984,803.5431046747697,810.0760409850559,825.417652067695
1731655022.088482,849.2920222835689,803.617254436262,810.8342097937716,826.160691326597
1731655022.0923843,836.4063848002381,803.7071783481321,811.3287848266514,812.0942572498611
1731655022.0962863,807.5996176182391,803.8476072110817,811.9664223578831,792.4610344869151
1731655022.100189,786.5813372196538,804.0448797390617,812.5725215067525,783.4365283544463
1731655022.1012275,792.5758819958102,804.2282668026841,812.4323447857504,794.9640749771331
1731655022.1035607,823.8829246892327,804.2450061849081,810.7354149012824,822.0294979948154
1731655022.1040912,858.0317424218339,803.9564579127352,807.1796607525866,847.626043660568
1731655022.106545,868.967998685458,803.4126452283731,802.3922850643636,855.3116157012678
1731655022.1079936,847.9176222211797,802.9489664404738,797.8234001977278,841.6707697789122
1731655022.1118958,811.0115175453166,803.0290371496636,795.0245085042378,818.9035347279557
1731655022.1157982,786.739655963712,803.8780455619628,794.7091039496161,805.2613569084834
1731655022.1191769,792.7508349995687,805.2209632377933,796.297891312313,810.6520296614839
1731655022.1197004,821.1217875618674,806.4044628186751,798.3663360214066,828.9360232351762
1731655022.1236029,844.9357105133627,806.8259000145923,799.683530612117,843.3370229877185
1731655022.1254315,841.1109221911629,806.3090307137463,800.0237752703052,840.6131650148308
1731655022.1275053,810.2215627027001,805.1518733300443,800.1413488867191,822.1520630401571
1731655022.1314075,776.361920578115,803.8962809626325,801.0165431801587,802.6368180458293
1731655022.1347928,767.1270009072016,803.0779214855396,803.0373942702579,797.473618310099
1731655022.1353097,790.614503087369,803.1280798281674,805.7333957325496,809.6941123577021
1731655022.1361792,828.5768307138607,804.3528411177256,808.1665247500915,827.364522729579
1731655022.139212,851.0752341734409,806.7972299376903,809.5912260198389,833.5465478384702
1731655022.1431143,840.2623248575021,809.965638476261,809.8743272585743,820.3540934516236
1731655022.144318,803.8741488970145,812.6729376426056,809.4301522547232,795.3964947140689
1731655022.1470168,767.911440859815,813.3939347902888,808.8239430155961,775.3724342410483
1731655022.1504085,755.1375904372641,811.1370592597367,808.4082134375341,772.2719204605274
1731655022.150919,767.3714089509313,806.3033483155729,808.2315596519393,783.7364121957949
1731655022.1548214,785.9490191700494,800.7670131411611,808.1729494478518,795.6030007136135
1731655022.1587236,789.2827769004115,796.8967699500846,808.1091260116249,794.4110427163923
1731655022.162626,772.1609167530361,796.1139473893188,807.9912865101844,779.2614321851438
1731655022.163205,750.3696843521521,798.0547329377117,807.8326029849138,763.002646339061
1731655022.1660244,747.0182026665948,800.9718808855232,807.6644868862768,761.7046370546155
1731655022.1665282,772.347844120495,803.020809388542,807.5065083814609,781.0523946016381
1731655022.170431,813.8745341746238,803.4014812635489,807.3609028870668,810.6904498003614
1731655022.171131,844.9076726811451,802.5501586880426,807.2210531470871,831.1232565318003
1731655022.1743329,844.6749652152397,801.4488968562657,807.0806702891069,827.9673121693785
1731655022.1782353,814.3147304517544,800.8028798224979,806.9375360288581,802.7402409493785
1731655022.18164,776.3743343571513,800.7267115104246,806.7925679854252,772.0016671076738
1731655022.1820912,758.122729032975,800.9573577753284,806.6474584770037,755.4232851996552
1731655022.1821375,771.3002069056325,801.2054428495737,806.503175452666,761.7216200312014
1731655022.1860397,803.7639726047006,801.3407452519341,806.3597707174848,783.0653747364536
1731655022.189942,829.5551937558134,801.3794618590292,806.2168699953278,802.1192406215633
1731655022.1938443,829.6021200102554,801.3895151394381,806.0741498552496,806.0267309439195
1731655022.197256,806.638556941036,801.4182694480372,805.9315107331241,796.1144079398503
1731655022.1977468,782.3316925566728,801.474546775048,805.7890107270495,785.6233980730827
1731655022.2009778,779.0015893336449,801.5450570629602,805.6467376185128,787.649883834104
1731655022.201649,800.9153874231596,801.6153019528382,805.5047348604912,803.4979128958807
1731655022.2055514,830.4721242394614,801.6793228902168,805.3629987821591,821.1526470036732
1731655022.2060826,842.4593178405718,801.7385577780818,805.2215101917718,825.1295891361934
1731655022.2094536,824.8851109958496,801.7967288106893,805.0802607153222,809.5682666396963
1731655022.212872,789.408576149916,801.8562180759118,804.9392551051928,783.7010090278872
1731655022.213356,762.5522398270396,801.9173471065382,804.7984925435751,764.9705007853527
1731655022.2172582,764.4483007272506,801.9793547482233,804.6579456664871,765.2538423740322
1731655022.2198644,792.411048763193,802.0414939929523,804.5175639662262,781.5660437033241
1731655022.221161,823.1395454337259,802.1034945502953,804.3773199764984,799.0977616551188
1731655022.2250628,832.0816701827418,802.1654636390572,804.2372809750714,804.1022421865152
1731655022.2284875,813.9433600915095,802.2276071858743,804.097634154806,795.6701604293642
1731655022.2289653,787.0734093096759,802.2900481146446,803.9585685713448,786.264680497491
1731655022.2328677,777.9569919933523,802.3528003228377,803.8199975217743,790.5147493227971
1731655022.23677,798.8593259206418,802.4158264279811,803.6813142040903,811.8822096078485
1731655022.2387507,837.3188458333168,802.479095577103,803.5415798989133,838.6470184274744
1731655022.240672,866.0618293567655,802.5426040429055,803.4004443860861,852.743471737848
1731655022.2410345,864.9650812990384,802.606364536078,803.2594315778263,844.2506450273208
1731655022.2441037,837.1024259206195,802.6703868195178,803.1222058182232,819.7173132620437
1731655022.2445743,806.0184640293287,802.734668710244,802.9920794913976,797.4739464748827
1731655022.2484767,796.5855677841345,802.7992054264764,802.8667252083641,793.485865036657
1731655022.2523792,815.0060468761818,802.8640117587897,802.7340696459582,808.9649948813319
1731655022.2562814,844.2948705762739,802.9291368730588,802.5769006476726,829.7803525597133
1731655022.2576375,858.9985234721645,802.9946434384766,802.3910333295154,838.2945472713193
1731655022.2597196,846.8957118674547,803.0605386374523,802.2085664295264,827.992241282499
1731655022.2601838,819.3881402957514,803.1266958854362,802.0990281923968,808.7702241909271
1731655022.264086,801.7189873201493,803.1928686848536,802.116968131716,798.4433621902219
1731655022.2679884,811.2865654030104,803.2588976341774,802.1997617702735,807.5719622325743
1731655022.2718906,842.4771861215828,803.3250650573223,802.093908509021,830.3253327687556
1731655022.2753353,870.854683709343,803.3922773367565,801.4417280460362,848.9909192064873
1731655022.2757933,873.1187500782189,803.461581521936,800.0751090780827,848.3461828727852
1731655022.275986,846.1308006181746,803.5328360627112,798.3063321311513,828.072941773883
1731655022.276524,809.3630063237119,803.6033460943046,796.8552550020961,803.159375589576
1731655022.2796953,788.9498087873633,803.6684002738846,796.3469719304935,791.9849088773502
1731655022.2835977,796.5146915645176,803.7254516821615,796.7996536559541,801.6080039391122
1731655022.2875,820.1360476443274,803.7807005054601,797.5674455060553,822.0941483446236
1731655022.2909513,834.9196121914295,803.8517000457255,797.7717721387294,834.6768180321619
1731655022.2914023,824.459369156677,803.9569370450685,796.8823695080309,827.3762648465507
1731655022.2953043,795.1964949837879,804.0902989643413,795.0731220217422,805.277336856513
1731655022.2954106,771.4096436966186,804.1976343008752,793.1452419891884,786.6740668969015
1731655022.299207,774.856451596459,804.1926789449624,792.044097963743,787.9369314019649
1731655022.3031092,806.1097689040237,804.042716388844,792.2507821547398,809.5783557069669
1731655022.3065672,843.1881127417503,803.8959500075516,793.4787083057251,835.2174844151398
1731655022.3070116,858.5826266265819,804.1330573935687,794.9547142994381,844.4828107541032
1731655022.3109138,840.7538542847627,805.1998418526272,796.1132509226886,829.3814045547274
1731655022.310938,802.9503740455134,807.2205802413497,797.1191608850422,800.8898514568912
1731655022.3142972,772.6926514878702,809.6439961830563,798.6910282021682,780.4956368232235
1731655022.3148162,770.454136740716,811.2817093859554,801.2957854270704,783.4254651153134
1731655022.3187184,794.1702505691145,810.8851963049983,804.4395646327791,806.8230347586548
1731655022.322183,821.5036672673276,807.9928357059777,806.8123763496516,832.2197554513418
1731655022.3226209,828.0331127860543,803.4683353602175,807.2947912598411,840.3106596486518
1731655022.3265233,807.0123330306282,799.2249943665157,805.9659614918331,826.1382590138733
1731655022.3304255,774.8591044466259,797.1592761288059,804.1585834078368,802.4191427822884
1731655022.3331838,757.7998125062239,797.9784572259283,803.4466619899201,788.5382261067394
1731655022.3343277,770.4005151739058,800.8044154923375,804.4193638543635,794.5800352962256
1731655022.3377988,803.4372324807949,803.8770404928106,806.2568974775043,813.5804476153701
1731655022.33823,830.9941503533834,805.7954254557775,807.3854838646146,827.9447087291136
1731655022.3421323,831.0926929617528,806.3180909151861,806.6041511502215,824.2151029089562
1731655022.3458896,803.283853000485,806.1632664156351,803.8216982469485,803.9455142402892
1731655022.3460348,769.0981256823078,806.105380709064,800.001845286882,782.1306311390414
1731655022.349937,754.9359693263955,806.2082952882441,796.5488554128567,774.8885918972704
1731655022.3520703,771.0378869846477,805.8514343772042,794.6312567037303,786.5581421533636
1731655022.3534143,803.4637103493432,804.4924431149466,794.7743817783071,806.5740579680898
1731655022.3538394,825.7269825100489,802.4596770366143,796.7817141234272,818.515915643093
1731655022.3577416,820.7620407915912,800.99897940154,799.9281071997129,813.8792398844855
1731655022.361644,795.0872799123192,801.3990884031806,803.3427221041627,799.1565571293363
1731655022.3655462,773.1038500221482,803.8514533062237,806.4130634744926,790.1444522949358
1731655022.3690305,776.0610105611852,807.0523480681702,808.9589815757982,798.0388950293801
1731655022.369449,803.4393901591785,809.0102799144355,811.0429562680227,819.0535566634738
1731655022.370957,832.6766816575602,808.4587304486465,812.5905688559347,836.6159137165744
1731655022.3733509,837.6499432744381,805.6800441163331,813.2081486617548,834.6714804915888
1731655022.3772533,810.5472291961332,802.0679436176596,812.4490562386469,811.2217981459114
1731655022.3808413,769.0475377157928,798.9343935705507,810.3612522011665,780.9130176647604
1731655022.3811555,742.9183838875196,796.7245815659369,807.8004312634961,764.3830585935204
1731655022.3846464,750.8311402566729,795.2819251537545,806.0708883482334,772.7078715536585
1731655022.385058,785.9292934668539,794.6742967731625,805.9984865258992,799.1394056466096
1731655022.38896,821.5834111408255,795.5398378283393,807.1402724905953,824.539272181848
1731655022.3898437,832.6174441918904,798.4842540961977,807.9018546685768,832.1455970277814
1731655022.3928626,814.8712645169372,803.1295457652334,806.65645503403,819.9882044735422
1731655022.3967648,787.2815919677407,807.8569471254009,803.0577782478028,801.1926854300345
1731655022.400262,774.972119566556,810.6528044168987,798.4693354200708,792.2108815079871
1731655022.4006672,787.6190738352615,810.4059357190397,795.1168568658155,798.8604721810074
1731655022.4045694,811.3103358645872,807.5765735259893,794.6036889061912,811.7786311169641
1731655022.4084718,820.6575373466926,803.7452618307607,796.8869662414576,814.9363379059456
1731655022.40873,800.809925675173,800.5230873408992,800.3730399119626,799.9099832957006
1731655022.412374,760.9130612363753,798.7239807324698,802.9473498756428,773.9068358367304
1731655022.4157927,727.9511561826888,798.2768730830328,803.2070132960048,754.8347667013859
1731655022.415878,725.9726090042872,798.6435760964348,801.1846815627019,757.3062214513095
1731655022.4162765,757.1827881062904,799.2243664070946,798.2355265126909,780.732439868921
1731655022.420179,799.7777741290147,799.5206775827485,796.2036417550378,809.0924221253334
1731655022.424081,824.423716796394,799.2163376530852,796.3369781367954,822.8981856729309
1731655022.4276166,816.7310288431258,798.3580834613748,798.5839438872675,814.1775861893153
1731655022.4279833,787.9928921705243,797.5038100224357,801.7266708443893,792.5438526639215
1731655022.431494,765.389166478548,797.5292914510123,804.2617174683062,777.2603091935939
1731655022.4318855,769.4009284642071,799.0544959256883,805.3747579493161,781.5535159937657
1731655022.435788,796.9051239413254,801.9177899648251,805.2906425249158,801.925558296734
1731655022.4396904,823.9060274220874,805.2179166453303,804.8383590649643,821.1725845749602
1731655022.4435923,825.5425598605294,807.9486437041428,804.7382460576938,822.515778129967
1731655022.4465032,796.7432209711482,809.6523366822613,805.2402376617096,803.2495495576088
1731655022.4471097,756.6935741685708,810.4938598427378,806.2438577484203,776.993417584708
1731655022.447495,733.7730182392072,810.7706569648028,807.5117963204433,762.9947884825993
1731655022.4507446,743.2149773750089,810.4598418292906,808.6314806803287,771.1003722746103
1731655022.4513972,775.1823206414776,809.3101247970155,808.8769479060107,794.1766895561286
1731655022.4552996,802.6541514596726,807.3324300704348,807.4131419002393,813.863604952617
1731655022.4592018,803.0748753540207,805.0755083103886,803.9405876807757,815.1448001387755
1731655022.4627256,776.6940934446552,803.3183502398326,799.2559887812743,798.1573426702474
1731655022.4631042,746.625336826097,802.4816147814681,795.0666217080814,777.6542524504704
1731655022.4653895,740.0371155433368,802.3878374656856,793.009316711303,770.4926054781189
1731655022.4670064,765.5629828813932,802.6133841289557,793.5980021628824,781.5496537931014
1731655022.4709089,805.751917219619,803.0121335571625,795.9538631406016,799.9663754848006
1731655022.4748113,831.1718590395312,803.797719065445,798.5176847509764,808.9207822035244
1731655022.4783416,824.485720571424,805.0734115584069,800.1325474030801,800.522582723816
1731655022.4787135,794.2974596336355,806.3563236189585,800.6395857412782,782.9883532584089
1731655022.4826157,767.3990407662535,806.7267594337801,800.6109459793277,773.9019794917527
1731655022.484276,766.3936616535043,805.6056338284228,800.5883249090693,785.2661747886766
1731655022.4856963,791.5731601028027,803.4474818167798,800.5600445257729,812.9694594609772
1731655022.486518,821.7595729256653,801.5989388995577,800.1069384196956,839.561557457863
1731655022.4904203,832.836601984947,801.3195312802918,798.9777958323679,848.1645698918727
1731655022.4939573,818.2367001895494,802.7861728412056,797.4559695406112,836.0442561702434
1731655022.4943228,794.1906191527727,804.9695220626993,796.1416347736754,816.454081214085
1731655022.498225,785.2878039636472,806.4794217506729,795.429565210713,807.0820545438961
1731655022.5021274,802.6826970217195,806.6011551295278,795.3024887226796,814.9373675894749
1731655022.5031626,833.9367752828209,805.6412736280881,795.682788200807,830.7926354669044
1731655022.5060296,853.6487293138669,804.4172697881872,796.8888583389587,838.017914119924
1731655022.5095732,845.772117845491,803.488170880955,799.5374032667486,827.9153348036899
1731655022.509932,818.0419828001191,802.8135940435889,803.8168612468369,807.9354107529687
1731655022.5138342,795.7767328376449,801.9994846140729,808.8184239371018,795.5471860793202
1731655022.517737,800.3510090310299,800.7693187806761,812.689628375555,803.1422473667235
1731655022.5206482,830.7709787560101,799.2441583137755,813.647691075293,826.9729571781398
1731655022.5216389,863.8452944061667,797.9041985351669,811.109092721102,849.4676313123032
1731655022.5220492,872.7015605556237,797.3476975940454,806.1166325974694,853.0033507872879
1731655022.5251887,848.5057851066941,797.9967016146102,800.8326191533308,833.9582431941426
1731655022.5255413,807.9469375385761,799.8599288929352,797.4809142284107,805.7918468607907
1731655022.5294435,780.4361734316486,802.4673240651781,797.3341982162984,788.631669648892
1731655022.533346,784.9798357135822,805.0525966020214,800.2317704157626,793.5081477020534
1731655022.537248,815.1090428569739,806.9000256616,804.8548160923285,813.7869475211662
1731655022.5408049,844.2500475064318,807.6299688345081,809.593143275657,830.8214406951547
1731655022.5409358,847.5746142014513,807.2653618400011,813.42160700086,829.3990951727972
1731655022.5411506,822.6121295712707,806.1332683689567,816.1460204274299,810.383362646674
1731655022.5450528,791.4661441984879,804.7470627685879,817.9044798182804,790.0606203934645
1731655022.5489552,782.5085025922001,803.6989580617019,818.5226544998926,786.63862537797
1731655022.5528574,806.5761406516646,803.4813506928473,817.4761026197216,805.0440215824982
1731655022.5556,847.41085190544,804.2349335351713,814.5665793901236,832.5939864852169
1731655022.5564208,874.312333779609,805.5793408781793,810.609375870811,849.091619713941
1731655022.5567598,866.6935039184283,806.69185860841,807.3204930631932,843.0434603155691
1731655022.5598223,830.5569015659436,806.6485670410549,806.3213521710089,820.7499841179799
1731655022.560662,793.4780970031843,804.9010660350996,808.0146323754884,800.8178548126278
1731655022.5645645,782.0896311312426,801.7023776808713,811.2368084934864,798.5103905160547
1731655022.568467,800.4778535654418,798.2464037034124,813.9772222621441,812.8748290291466
1731655022.5720365,827.4981039023571,796.2812117574167,814.6480765625544,827.6273246539805
1731655022.5723689,835.4416709496455,797.1937588088288,813.0236762858391,825.3809962134145
1731655022.5762713,814.3206237840456,801.0432774574173,810.2472420487219,803.2641581364081
1731655022.578709,780.961071237239,806.3012831327142,807.9728563397356,776.4361818092458
1731655022.5801735,764.9429260672181,810.6660362694222,807.2838395135543,766.1670597979718
1731655022.584076,783.2157825149627,812.440151218328,808.1145247045871,782.2654491624572
1731655022.5876524,824.8272590930349,811.4224605068354,809.469937381629,814.3989330790837
1731655022.587978,858.6257982182599,808.6721074737679,810.153878480578,839.4515503341768
1731655022.5905516,857.7196233678927,805.4918989518062,809.4456044944665,839.0391776554035
1731655022.5918806,820.8664868440142,802.5721576854851,807.3630717242073,813.3279187465811
1731655022.5957828,773.6060670982661,799.9099667415777,804.5387141380362,780.434103279171
1731655022.5975957,748.302890366035,797.3209596897093,801.9187074019513,762.1516963218319
1731655022.5996852,759.1621522502701,794.9245042461453,800.4003329564663,767.4925483387987
1731655022.6032684,792.2508435050058,793.2056742908185,800.4247536808303,787.0817898092301
1731655022.6035874,818.3098497843073,792.7319546683905,801.6637336844399,802.4939472858009
1731655022.6074898,817.4577815914339,793.8291539584113,803.091572469786,802.3138585922512
1731655022.611392,795.1548306827293,796.4227548134783,803.5646545349606,791.2653317323275
1731655022.6152945,776.3124474658291,800.0652478123737,802.5728862792105,784.8734214565025
1731655022.616482,782.9339531626223,804.0725627936274,800.5705966413597,794.6333908326349
1731655022.618884,814.3979090480249,807.6860443291168,798.5966574063101,816.7484880153204
1731655022.619197,846.9901769497819,810.2199961490625,797.4942078704761,834.2898470526212
1731655022.623099,853.1287456927562,811.2159478044875,797.3459903013667,831.1248983246003
1731655022.6255033,824.5287787217738,810.6284423396,797.497651394275,806.0018365515216
1731655022.6270013,780.2602268372162,808.9593158871573,797.0516990813758,774.9023267608785
1731655022.6309035,752.6590304606542,807.1471023039061,795.435260368767,759.2592091477455
1731655022.6345,761.9190896707852,806.1142852763418,792.7226180440111,769.2215836365592
1731655022.634806,799.7564705273152,806.1930579132784,789.6297419093454,795.4874858787686
1731655022.6353686,835.7360510811496,806.8801018064282,787.2505100928164,816.5886841335074
1731655022.6387084,841.5909880243078,807.1888380620815,786.6319568844065,816.0046222613362
1731655022.6426103,813.8772173214194,806.3695939210724,788.3036026827923,795.2787667462871
1731655022.646513,776.3366795198999,804.4368242457382,791.9470279282189,772.4141184453033
1731655022.650116,760.0207469364659,802.1138844775744,796.4283736153878,766.9119940727253
1731655022.6504152,777.6702052629263,800.2942702313838,800.2884275372165,783.8017102145823
1731655022.6542552,813.4451576526327,799.4668371010999,802.5000253763778,809.649720995409
1731655022.6543176,836.1957341294565,799.5140559495854,803.0546098828356,823.5388902240562
1731655022.6582198,825.1988527845866,799.9542577359559,802.9604892526171,813.9530683962305
1731655022.660455,787.4299295200798,800.3472848774769,803.5749528131566,788.0742544534065
1731655022.6621222,752.4197121151773,800.5221820312722,805.6418546587128,766.2173212071648
1731655022.6657317,748.6577205619108,800.535158326762,808.6473507884652,765.8117250350009
1731655022.6660244,780.3444612105516,800.5092408055815,810.9568471036354,787.5626310328432
1731655022.669927,823.4385745621054,800.5207022567815,810.7351580712726,814.9062665055219
1731655022.6731417,844.788394559957,800.5785156767273,807.1511403882213,827.4590684939552
1731655022.6738293,829.202374546196,800.6572679017249,801.1246594186181,817.699225378807
1731655022.6777315,792.1006727967414,800.7326927202633,795.0638808012473,797.0435622102584
1731655022.6813476,766.7808675358177,800.7961949521292,791.625295696469,786.0272709921206
1731655022.6816337,776.5787994090874,800.851291107269,792.2056798947269,796.758801194221
1731655022.685536,815.2120822942825,800.9045084473568,796.1628741565457,822.5453898601721
1731655022.6894383,851.7497173734238,800.9595909722242,801.3252877152414,843.420153657509
1731655022.6920283,855.8375211065512,801.0167478039182,805.4086951040998,842.6760472250396
1731655022.6933408,822.1816426364816,801.0745388096271,807.2788155738031,820.4650216520168
1731655022.695407,774.609799134568,801.131715773393,807.2144123546705,793.4948568477464
1731655022.6969633,747.0685585249748,801.1878942498062,806.2309404616464,781.5352651433803
1731655022.697243,757.1104574884704,801.2433031046611,805.2331206719076,791.8387773248046
1731655022.7011454,792.806146355561,801.2982938337817,804.6594655914388,813.8231755672132
1731655022.7050476,823.1581995457819,801.3530525128671,804.6313702203057,828.0656203009705
1731655022.70895,823.4719383623564,801.4075781674869,805.1720378371891,822.3096557288312
1731655022.7109149,795.0979482432474,801.4617895924562,806.1938819602427,801.4827858218972
1731655022.7125793,763.4160949745421,801.5156229593439,807.3716543834164,783.4078368767605
1731655022.7128522,755.8658528424314,801.5690678473833,808.2024463093248,783.6188628183779
1731655022.716755,778.5429398749229,801.6221552070155,808.3310502120427,801.9299319925144
1731655022.7206569,811.0509199996119,801.6749260507526,807.8712306529645,822.148499036993
1731655022.7245593,823.7633839038582,801.7273978129112,807.3694892634949,825.3285034094077
1731655022.7281952,802.8101724499938,801.7795395051236,807.3514897541232,805.5484198910544
1731655022.7284615,762.0132885720524,801.8312768233211,807.8052563895604,775.1606957590819
1731655022.7298014,732.2236231199704,801.8825529846721,808.0928454530884,755.2914188132601
1731655022.7303584,736.9298201399456,801.933436971935,807.4643115883226,759.3208616644896
1731655022.732364,773.6424228044799,801.9841925044435,805.8037566995505,782.4591080841845
1731655022.736266,815.7674642965464,802.0351589809852,803.9463300050111,805.6101815247818
1731655022.7401686,833.6409484004653,802.0863675944196,803.1832477362498,810.5910683202078
1731655022.743811,818.1435547788042,802.1370974529106,804.2491540442774,794.75250806968
1731655022.7440708,787.7037798299276,802.1859360352532,806.5970198059053,773.1141316374012
1731655022.7479732,772.5402370783344,802.2319248374716,808.6261613522529,765.8890980864687
1731655022.748688,788.9448442389428,802.2765646741981,808.7895862688557,781.4341461015928
1731655022.7518754,825.2652429414924,802.3249062388546,806.759760427693,808.941683486845
1731655022.7557778,851.6631607969805,802.3829271083706,803.7285607760904,827.2914004561675
1731655022.7594268,845.4917436797058,802.4500813950364,801.5881002488485,822.7635518395562
1731655022.75968,810.8033246168561,802.511446883894,801.633279958763,800.6808003149187
1731655022.7635825,775.5976900657643,802.5403453704794,803.7753171747732,781.2011098564058
1731655022.7653103,769.2287686793775,802.5215018795725,806.7755190365547,782.8542334251215
1731655022.767485,798.6501479093091,802.4882659423234,809.1639000623851,807.4496219575811
1731655022.7675743,842.6602894064015,802.5382682689511,810.049543527872,838.5133177784013
1731655022.771387,868.4753194840553,802.775617022567,809.2919701751933,854.2362972877957
1731655022.7750428,857.2570503656035,803.1645855892278,807.1446586091727,844.4025318181006
1731655022.7752893,818.4088200951708,803.3850632854646,803.8804431233755,817.86924812571
1731655022.7791915,781.4649951051628,802.8868191706886,799.7601387032671,794.8680355563371
1731655022.783094,772.234929627625,801.2799955629536,795.2573943921964,790.5780208508814
1731655022.786461,792.5569708617827,798.8628186170638,791.1847324804861,803.4156082216554
1731655022.7869964,820.091775714811,796.7466642088908,788.4958330711303,817.4786134003845
1731655022.7906585,828.0099803578256,796.2294576704428,787.8710571187262,816.7391726474407
1731655022.7908986,807.907088981602,797.7854609903095,789.3960800005029,798.8505008871982
1731655022.794801,776.8203175441062,800.5198021769367,792.5690676927493,777.0609037972986
1731655022.7987032,762.8091247177209,802.6312607827825,796.6082960344371,768.9857560739649
1731655022.800262,781.4282760867212,802.6378831720365,800.7937272269199,781.9412397375878
1731655022.8026056,822.5723098418754,800.511964414403,804.5749985834876,807.037235882409
1731655022.8053477,858.2446067818722,797.8629076014554,807.450765586852,826.6497636254281
1731655022.8062744,864.7715029635062,796.919366472443,808.9101016469792,828.9230774581744
1731655022.8065078,841.5524364723789,798.9476245888366,808.6715653726121,817.4129994386809
1731655022.8104105,811.2184020300335,803.2758996276041,807.0519200644715,807.9340055857198
1731655022.8143125,800.8607900209257,807.7346147696601,804.9987699187423,814.9450421121107
1731655022.818215,819.4941122353639,810.2013613635933,803.5540898571971,838.5158567268351
1731655022.8218904,850.5082598789239,809.9937982872542,803.1134286872144,862.95392735012
1731655022.822117,865.7413541154276,808.0141601320852,803.1642177912796,868.8917151422094
1731655022.8242342,849.5574323368742,805.6993585881288,802.8171168195929,849.2942499864959
1731655022.8260195,812.6245718935913,803.8492919761222,801.6968894689519,816.1143604828916
1731655022.8299215,783.6863306360982,802.3467201989001,800.3650263426495,791.7302235624514
1731655022.8338242,786.1154404025555,800.8179795091652,799.8262241469017,791.7893052783089
1731655022.8352137,818.6611187844363,799.4128626714994,800.5200800235551,813.201390104136
1731655022.837506,856.2078939763468,798.885567461237,801.7446341240087,836.9215126074997
1731655022.8377264,869.9251275604254,799.92741684998,802.143438153181,843.2998888103959
1731655022.8416288,850.4323975759942,802.4436527765238,800.9141189917902,827.7155412115179
1731655022.8431208,815.077117403693,805.4874127924986,798.6332363898327,803.900479698156
1731655022.845531,793.170064470393,807.902802134891,796.8425910539154,792.1605434524955
1731655022.8494334,801.1460272604618,809.0725739320334,796.7199053593619,802.0655871103728
1731655022.853122,828.435145699164,809.1481075522577,798.130174886513,824.0817105452411
1731655022.8533356,846.3828250470209,808.703147835038,799.951513150197,837.462801671823
1731655022.857238,833.1048813071598,808.2451531299814,801.161377499648,827.9676798091787
1731655022.8611405,793.1790534907947,807.9795161884734,801.5067390063529,800.3664581028795
1731655022.8620074,755.1176155804567,807.8676021382212,801.3385514595828,775.0108973987661
1731655022.8650427,748.442258226535,807.7946273406794,801.1022087631196,771.3155700049035
1731655022.8687377,779.43384799112,807.6862956235744,801.0229962821046,791.9385267690836
1731655022.868945,825.5450487857462,807.5326249556203,801.096548054809,820.5688445078304
1731655022.870165,852.8937318725923,807.3576752968394,801.2243791856054,834.8641747073527
1731655022.8728473,842.6120433528715,807.1851597259054,801.3296950090865,823.9712968988154
1731655022.8767495,805.0436712834828,807.023845282829,801.39320824004,796.7114328609354
1731655022.880652,770.7162903829981,806.8706053024405,801.4324691951166,774.1146458356523
1731655022.880894,765.5344762043245,806.7191591889913,801.4699211970717,772.4274140464184
1731655022.8843536,790.1500992736726,806.5657983706969,801.5160988844691,790.2841225505819
1731655022.884554,820.0575652539051,806.4102398689823,801.5698429912777,810.3812421617741
1731655022.8884566,826.2436078991875,806.2538524755967,801.6256980809007,814.2390113688458
1731655022.8923588,799.5749001704581,806.0978619781592,801.6797763393346,797.9285892231978
1731655022.8962612,759.0765745181949,805.9426688271944,801.7312984782774,775.8162033287497
1731655022.8997805,737.3573184599486,805.7880704206495,801.7813138521559,769.1744079622746
1731655022.8999696,754.8577196470748,805.6337335585459,801.8310078755039,788.8089262728739
1731655022.9001634,803.3156799439404,805.4794793914682,801.8808896384603,825.5958883158312
1731655022.9040658,851.277232446641,805.3253095010135,801.9308654549985,856.4840326172248
1731655022.905117,867.2552354099848,805.1713035907351,801.9806472469064,861.4459531819405
1731655022.907968,842.7373302028365,805.0175248986735,802.0300496717372,838.4064218696918
1731655022.9118705,797.5284831266829,804.8639880382877,802.0790537697108,804.6046517730647
1731655022.9155853,763.5276652536644,804.7106761503461,802.127730480522,783.1922669998326
1731655022.915773,759.8467771468402,804.5575729749747,802.1761517121168,785.5040102364906
1731655022.9186673,779.1630002166048,804.4046840681501,802.2243516200032,803.1842578638302
1731655022.919675,796.2411679410886,804.2520349481061,802.2723336559379,816.586658350283
1731655022.9235773,791.2341072471821,804.099644394905,802.320092878758,812.3507370303978
1731655022.9274795,767.7396256585823,803.9474855955564,802.3676308782008,795.1206983393157
1731655022.9312012,749.8781338822158,803.7954697660011,802.4149581920815,783.2785640366916
1731655022.931382,760.7549676333899,803.643498323451,802.462089830721,792.4297547222093
1731655022.9352844,800.9702856067955,803.4915950837768,802.509040628306,821.0382958821828
1731655022.9375536,845.9630178662691,803.3400327994201,802.5558234175002,850.6640986627052
1731655022.9391866,864.8822045305233,803.1892644072801,802.6024495510394,860.663636989198
1731655022.9400687,845.4309283937041,803.0395011997205,802.6489300990427,845.056539490307
1731655022.943089,804.1041939397836,802.890083052796,802.6952765813974,817.5932707346766
1731655022.9468172,773.2638559579436,802.7392800533084,802.7415010353735,800.8109902177495
1731655022.9469912,775.4786840310169,802.5853858640462,802.7876157478714,807.9207489975885
1731655022.9508936,806.0402648359349,802.4292270705836,802.8336330033821,832.2819391878961
1731655022.9547958,837.8827156790279,802.2763199862853,802.8795649886926,853.1373474938214
1731655022.9564402,844.5589385949455,802.1350748449568,802.9254238169764,852.8887049138038
1731655022.9586985,821.9344002821938,802.008423403744,802.9712215805815,831.5008462159328
1731655022.9624329,790.6575807793715,801.8823434892573,803.0169703755787,806.0247166617521
1731655022.9626005,777.9740616295272,801.7239280707764,803.0626822912213,795.8910117166926
1731655022.966503,794.6904169421074,801.504719598981,803.1083693832849,806.6435392030806
1731655022.970405,826.478738976414,801.2496810800872,803.1540436495015,825.7830447734384
1731655022.9743073,846.1098198596007,801.0770139194361,803.1997170136177,833.8055728074172
1731655022.9750206,835.9459573455814,801.1661528307799,803.2454013155119,820.794387258668
1731655022.9753268,802.318212566372,801.6278149862277,803.2911083025214,794.7620624139885
1731655022.9780488,770.5387515628857,802.3696088934603,803.3368496191683,775.1377220806689
1731655022.9782095,764.7065810359027,803.1208050079023,803.3826367950882,776.8808773542087
1731655022.982112,788.2502313234424,803.6389819605486,803.4284812321769,798.0970267143985
1731655022.9860144,820.7818391271425,803.9023174996589,803.474394191874,821.2709501697489
1731655022.9899166,834.3689163683264,804.0968764251228,803.5203867829832,827.4060949717109
1731655022.9936647,816.6564243447222,804.4266519001487,803.5664699501344,811.7166068988234
1731655022.993819,781.8196845294841,804.9233616823791,803.6126544628991,787.8078122844582
1731655022.994213,759.4748402160081,805.394808587621,803.6589509053165,776.5263281797633
1731655022.9977212,769.9454808193595,805.5323581739581,803.7053696650215,788.5064893515704
1731655023.0016236,806.3659342738932,805.1113830303967,803.7519209207785,814.9104153314327
1731655023.0055258,839.0457673763036,804.1872543284735,803.7986146280169,834.1146430294423
1731655023.0092804,839.1293094548198,803.190835719444,803.8454605044778,828.9089656595711
1731655023.0094285,802.4720364211977,802.8398464136316,803.8924680209527,800.3263585610727
1731655023.0099723,754.3375867393147,803.8195090040497,803.9396464015937,767.2260383283253
1731655023.0131,730.8328059170378,806.2997845091761,803.9870046306044,752.1395706199243
1731655023.0133305,751.2733652352919,809.5499287699174,804.0345514489139,764.3491433445759
1731655023.017233,802.8202441066371,812.024692714291,804.0822953175564,793.0268554606677
1731655023.021135,849.5714706686664,812.0970600307714,804.1302443423172,815.6104409668551
1731655023.0248964,859.5602783477232,809.1060719903246,804.178406203647,815.1002910503694
1731655023.0250375,828.8737223136012,803.9784990052906,804.2267881869186,793.0401303401195
1731655023.0289395,783.9188104914435,798.8436932848333,804.2753973887408,768.083366810028
1731655023.0319865,760.0795232566765,795.7911754909654,804.3242410199522,761.2465335005784
1731655023.0328422,773.9392422803548,795.6272920056111,804.3733264804974,779.4559526747278
1731655023.0367444,811.1687687424376,797.5212792344639,804.4226607825843,810.2492621908757
1731655023.040512,839.1108914378783,799.7407998991454,804.4722492844552,831.5376183031373
1731655023.0406468,833.2048135515273,800.8670845017541,804.5220946497669,828.569905394176
1731655023.044549,796.0189896506804,800.6130498204794,804.572197833877,804.978766976351
1731655023.044924,754.4761246877194,799.7691092391108,804.622562341822,779.7163365118295
1731655023.0484514,738.4084656972784,799.4531721487283,804.6731998985238,772.5473044627795
1731655023.050873,757.6967556121376,800.250568268913,804.7241311527152,789.2555628068465
1731655023.0523536,795.564708597272,801.807730657775,804.7753737947861,817.7405712784873
1731655023.056128,822.6912591195791,803.1054722719772,804.8269186577089,837.8491211017871
1731655023.056256,820.6834016480857,803.2069883845954,804.8787125947357,837.1799438421482
1731655023.0601585,796.2011949481431,801.9684663446791,804.9306820073082,820.2654735735892
1731655023.0640607,774.4241556742246,800.1995553789619,804.982816738619,803.7292432979036
1731655023.067963,777.3009348251538,799.1270651553762,805.0352724490192,801.5934080933193
1731655023.0697596,804.7018591174054,799.5432247770551,805.0883671630388,813.2569337801879
1731655023.071744,834.2803675438504,801.2896681717167,805.1423366190706,824.3427923321022
1731655023.071865,840.175797083441,803.4598195605126,805.196884109956,819.5303693739952
1731655023.0757675,814.9552336554241,805.0969017227873,805.2509065955652,796.3550078817209
1731655023.07967,776.6294294973856,805.7829603991266,805.3030290795609,768.3457351848919
1731655023.0798757,754.9808709548686,805.7082690765113,805.3532426654422,754.8934352075672
1731655023.083572,768.2516776053246,805.3262972794911,805.4047292705343,766.1197029252704
1731655023.0873597,808.8246340121013,804.9865408585363,805.4634684681423,794.9441672398507
1731655023.0874746,849.1663106513648,804.8006448194075,805.5332572482677,822.6296228550727
1731655023.0886462,863.1595302342732,804.7164551339622,805.6073016436086,833.236009243558
1731655023.0913768,845.8168578237095,804.6466619141969,805.6640685704739,825.3115007781971
1731655023.0952792,815.772662026596,804.5442613668687,805.6791183921731,811.4993857776532
1731655023.0991814,798.9072300130523,804.4092220863313,805.657036343105,806.7491186198322
1731655023.1029756,806.8316759826519,804.2618106260595,805.6640755440645,815.3014598753639
1731655023.1030838,828.0260081669961,804.1183817487029,805.8161390085868,827.5105338550071
1731655023.106986,838.6448699115588,803.9833967852427,806.1838226045334,829.0043845961652
1731655023.1075327,823.5416496746774,803.8534179612375,806.6532901709688,814.0814066231255
1731655023.1108885,789.8390077405315,803.7237588864016,806.8908666415576,791.7478473165402
1731655023.114791,761.9123545117827,803.5921226927074,806.5338361106627,779.1779750432389
1731655023.1148274,761.9884366534678,803.458672619354,805.4957742342284,787.9190726744066
1731655023.1185915,792.0706341471652,803.3245252641917,804.106695285773,814.1001265207095
1731655023.118693,831.7320916305005,803.1905074743685,802.9657415322523,840.6990062830682
1731655023.1225953,853.6892294168553,803.0568034048692,802.6425115800267,850.3361493005393
1731655023.1264193,844.8086394945816,802.9232046770932,803.3973800400707,838.5706410975955
1731655023.1264975,815.5429322204001,802.7894631354998,804.9922984129149,816.9615601940019
1731655023.1304,790.0061962055203,802.6554668003046,806.6689056726852,803.1957291320186
1731655023.1342072,785.1036346921395,802.5212297194164,807.4241848716124,806.3094420764763
1731655023.1343024,796.6805350955863,802.3868090004372,806.5793148253488,819.4497277923856
1731655023.1382046,804.6637662000992,802.2522443226661,804.3187178175428,826.4028496312898
1731655023.142107,792.40976153248,802.1175466064669,801.7291756587048,816.2286991318942
1731655023.145306,762.894433665271,801.9827135644998,800.1839547755148,793.2391563161899
1731655023.1460092,737.2937577021896,801.8477406495431,800.4749617501067,773.6383596768787
1731655023.149779,737.0514284675262,801.7126142064311,802.3431117262581,771.7238819923705
1731655023.1498232,764.8460601288406,801.5772994259955,804.7374282810266,787.4527644056024
1731655023.1499116,800.8829491273975,801.4417510516419,806.5626380923421,805.9684286844798
1731655023.1538138,818.1756384392926,801.3059641265725,807.3524365971361,809.6600729112728
1731655023.1577165,804.5307663663629,801.170038822586,807.4288221087437,792.8347240324376
1731655023.1616185,772.8509080983584,801.0341783698888,807.5082753052669,766.7124523507083
1731655023.1641924,750.5854484371417,800.8985322681787,808.0880199005703,750.3403936195373
1731655023.1654391,756.6602205203476,800.7629081097698,809.0553265199172,754.8439291326468
1731655023.165521,785.3087362753715,800.6265980587303,809.7613929990212,774.2169316466571
1731655023.169423,810.8576814098212,800.4887251822695,809.4578645657596,790.4513978421404
1731655023.1733255,809.7191792001327,800.3492958499666,807.7730965677314,788.6927121391025
1731655023.1772275,780.9126521277777,800.2103646364704,804.9466915367246,769.6644208488078
1731655023.1810548,747.5525363416192,800.0757672338576,801.7542625892833,749.0364978161294
1731655023.1811302,737.9661465122228,799.9479098450313,799.2313093099476,744.4401404501567
1731655023.1830788,762.2416834865273,799.8223773324456,798.3246301758921,760.9400595371216
1731655023.184731,803.5634442552002,799.6853038119957,799.5309896494402,786.7424771077444
1731655023.1850324,831.3686761415117,799.5209895449698,802.5847818488645,802.51142769526
1731655023.1889348,825.7382276907458,799.3322743138128,806.3619199062778,796.8749998839896
1731655023.192837,793.430355640052,799.1609440932544,809.2019446025894,775.7441592918723
1731655023.1966708,762.4546094997305,799.0784626573679,809.641858850672,757.7057845261756
1731655023.1967394,759.2470366150634,799.1208674698215,807.2082713448038,758.8183200764314
1731655023.2006416,786.936023854597,799.1875755887191,802.7641986639035,779.1422412592007
1731655023.201965,822.7346908841387,799.0007839658086,798.1481816124248,802.465422321965
1731655023.204544,836.8133247228527,798.2570313367949,795.2953268566633,809.8558605294136
1731655023.2084465,817.0296789024449,796.981409907431,795.3318698067604,795.800849038278
1731655023.2122865,779.0595613600001,795.8156574359542,798.1028645526796,773.264227095604
1731655023.2123487,753.8648051438843,795.8387886094524,802.3180542514282,763.3514508935549
1731655023.216251,763.1649475170102,797.8726247268719,806.1853428613178,778.2316518578186
1731655023.2196827,802.7895842221999,801.7876470256089,808.2008755040928,811.3346223737864
1731655023.220153,846.5706305428621,806.4034925664366,807.7461280211872,842.4537074953333
1731655023.220852,866.7716584093789,810.0674615993004,805.2716120753618,853.1908035400618
1731655023.2240555,854.599536719779,811.4845945010248,802.0219724271393,840.3063167677922
1731655023.2279024,825.1214800096359,810.2971608815992,799.4137656780326,816.770129225268
1731655023.227958,803.48870860953,807.1665608459024,798.3270177457376,800.2993775441486
1731655023.2318602,804.0018225524559,803.3989059465633,798.6825120124116,799.0000954680129
1731655023.2357626,819.1142180852099,800.3281503678523,799.5986153462816,805.8209722689123
1731655023.2396648,827.3104696571085,798.7409732497936,800.0711296473045,806.1491296329217
1731655023.2397385,813.0658498342816,798.6112683295268,799.707026599159,791.8830423674792
1731655023.2435184,781.812809081202,799.2735321453224,798.9520805746552,769.8740984791029
1731655023.2435672,756.9672298551817,799.924605471263,798.6377244994849,757.4175986060401
1731655023.2474694,761.1753814738346,800.1431847207929,799.2405989443403,768.3768592507786
1731655023.251372,797.138986132709,800.108527823953,800.492722111598,801.2728471468221
1731655023.2546344,843.7644891165454,800.3980714959538,801.65333999743,839.0069558351515
1731655023.255274,871.0817466654362,801.5124081599204,802.1395005757524,860.5676322873844
1731655023.258625,862.5582081341583,803.4442471963405,801.90202060075,855.7771662929036
1731655023.259134,827.5779991137016,805.5814983261771,801.2389927869076,831.9333771014673
1731655023.2591765,794.2016643881296,807.0317555418233,800.337688784772,807.4311436866726
1731655023.2630787,787.4174736579852,807.183914447506,799.0926218460486,797.356815237686
1731655023.2669811,809.7436285386864,806.1358162331029,797.4030433151786,802.3218328051454
1731655023.270883,839.8619126126504,804.6551525390728,795.5982644643435,809.4530056821773
1731655023.27475,850.7943093604106,803.6424680624048,794.4725397711321,804.7276722015772
1731655023.2747858,832.8117982581856,803.4706111514678,794.7974772230652,786.2681730454095
1731655023.2775116,801.7961678613276,803.7503198749341,796.7106159645446,767.0762067266501
1731655023.278688,785.7587446303309,803.7676116045088,799.5268154571354,764.4833205288849
1731655023.2825904,800.7239996644367,803.2300752107227,802.156388002589,784.982727535069
1731655023.2864926,836.2780739885052,802.6176272557309,803.7932327351822,817.2733608766395
1731655023.289586,863.0712698710172,802.7677373017566,804.3300326940395,839.7524798074269
1731655023.290366,856.4108534339908,804.0591951055497,804.2254313903104,836.9122453221686
1731655023.290395,816.8297599103003,805.9564221860809,804.0168006818967,811.7072354055178
1731655023.2942972,770.720413925221,807.3405896302056,803.9189412774801,783.7767045394216
1731655023.2963982,749.9710034917291,807.3447646851914,803.79717283571,774.3541210721668
1731655023.2981997,766.6514991961274,806.0098600185986,803.4429994947224,789.4892097600764
1731655023.302102,803.417202612735,804.2795904586458,802.8446157702141,815.1840419767888
1731655023.3059816,827.9391170541174,803.3802923840029,802.2109337897832,828.8655461668167
1731655023.3060043,819.7420953594687,804.0371129780225,801.7786132572311,818.1297116437871
1731655023.3099065,787.0795931724654,806.0380198984288,801.628737398625,791.2456740811273
1731655023.313809,759.6850050501185,808.4071843689176,801.6750902735599,770.5369091109557
1731655023.3152847,763.7021772547262,810.0482836024381,801.7788139114856,774.1027197385536
1731655023.317711,800.004966304934,810.398585847017,801.8508954583855,801.0344618002722
1731655023.3215976,843.7235249389727,809.641475520401,801.8747194646188,832.1315472264937
1731655023.3216136,864.6898018226028,808.3965784723181,801.87366084632,845.2215329151379
1731655023.3245378,851.4840237547652,807.2303403149253,801.8731877942574,832.4965411074634
1731655023.3255155,819.5580917294112,806.396995882471,801.8835963512174,806.0281403887741
1731655023.3294182,797.452032244662,805.8970400825652,801.9021773539332,787.3590761820288
1731655023.3333204,802.9558025732133,805.6396237094582,801.9223092071447,789.888782654612
1731655023.3341713,828.9169457056591,805.5292952395669,801.9398224601161,808.4962883803618
1731655023.3372135,850.1716128809627,805.485080801533,801.954207265449,824.8076804758757
1731655023.3372228,845.5565208697063,805.4510679325982,801.9668472286783,823.4859806018478
1731655023.341125,816.4415472608823,805.4034709592657,801.9790778642605,805.6464001749898
1731655023.3450274,786.0758821686402,805.3427601961705,801.9913825371109,787.9201069432759
1731655023.3489296,780.0995068564673,805.2781024538866,802.0035796369485,787.9682297288851
1731655023.3528292,804.5259157541589,805.2162077581817,802.0153188261454,808.919035833607
1731655023.352832,839.8274790513726,805.1583851627146,802.0264000522793,836.1130517914896
1731655023.353058,856.389259456082,805.1027541452424,802.0368170464734,848.94779988728
1731655023.3567345,838.8059288171719,805.0472211687127,802.0466552168291,837.8192580224412
1731655023.3594894,799.0759228329033,804.9909028239961,802.0559907541701,812.0411719849075
1731655023.3606365,767.6919089762283,804.9339847531645,802.0648532981968,792.3053026590836
1731655023.364539,769.6354297432894,804.8769940120835,802.0732392480666,794.0496157604998
1731655023.368441,804.7143203700394,804.8202731971162,802.0811385213918,815.4583275050611
1731655023.3684452,848.1151506229617,804.7638696289546,802.0885503707566,839.7364114445686
1731655023.3719444,870.1288516473977,804.7076721004919,802.09548461101,849.1627340076044
1731655023.3723435,858.0929651056053,804.6515685655112,802.1019558055303,838.5308851542114
1731655023.3762455,822.7628861946657,804.5955142937495,802.1079780551534,816.8446196701124
1731655023.3801482,786.2174972796092,804.5395189573178,802.1135632984789,797.633187139952
1731655023.3840504,764.453758129754,804.4836069433462,802.1187221796123,788.3992717577465
1731655023.384061,759.505516409393,804.4277909600434,802.123465473232,788.0202700280872
1731655023.3879528,763.8910532388422,804.3720678522717,802.1278048546005,791.2204608874673
1731655023.390831,769.3537110601499,804.3164265820498,802.1317529025483,793.7402132622092
1731655023.391855,771.9318995225855,804.2608564557595,802.1353227664138,794.2573017684297
1731655023.3944411,771.8129844115379,804.2053503213731,802.1385278920018,793.4860341499117
1731655023.3957574,770.7945792817316,804.1499036107306,802.1413819393424,792.5528724050249
1731655023.3996596,770.2250812751632,804.0945121992975,802.1438988293249,792.0521920625441
1731655023.3996768,770.4114581240316,804.0391711000658,802.1460928114794,791.9766216343161
1731655023.403562,771.0194202692428,803.983874337366,802.1479784932316,792.0643039697803
1731655023.4074645,771.647402756194,803.9286154121094,802.1495708288992,792.1075614764359
1731655023.4097176,772.1157345250483,803.8733877361133,802.1508850927046,792.0518415732215
1731655023.4113667,772.4524208095459,803.8181847874549,802.1519368561052,791.942608686709
1731655023.415269,772.7573134470538,803.763000054661,802.1527419753528,791.8400354433531
1731655023.4152927,773.0988500028773,803.7078269309305,802.1533165852685,791.773147678757
1731655023.419171,773.4893026587201,803.652658659002,802.1536770933868,791.7395762946392
1731655023.4230735,773.9092345764209,803.5974883383719,802.1538401714362,791.7250660657696
1731655023.426976,774.3378246461324,803.5423089610347,802.1538227443256,791.7192863643836
1731655023.428604,774.7667663738044,803.4871134434627,802.1536419783663,791.7201731548226
1731655023.4293933,775.1984219282137,803.4318946433382,802.1533152703718,791.7306283430349
1731655023.4308782,775.6383620189863,803.3766453656247,802.1528602381452,791.7539964184481
1731655023.4309084,776.0901539640878,803.3213583666166,802.1522947111765,791.7918418382155
1731655023.4347806,776.5543726750452,803.2660263610361,802.1516367188933,791.8441040580109
1731655023.4386828,777.0300447481408,803.210642032691,802.1509044741002,791.9101776335127
1731655023.4425852,777.5162360239702,803.1551980469757,802.1501163529301,791.9897149828219
1731655023.4464874,778.0127086936859,803.0996870633456,802.1492908790077,792.0828081950849
1731655023.4465244,778.5197675895798,803.0441017463927,802.1484467231268,792.1897901329461
1731655023.4474907,779.0378537541422,802.9884347746704,802.147602721768,792.3109960613672
1731655023.45039,779.5672834925662,802.9326788475562,802.1467778944993,792.4466574224047
1731655023.454292,780.1082138243233,802.8768266927265,802.1459914151602,792.596919273599
1731655023.4581945,780.6607279196171,802.8208710789892,802.1452624988008,792.7619004092887
1731655023.4620967,781.2249187709856,802.7648048378197,802.144610238058,792.9417338167082
1731655023.4621403,781.8009172962976,802.7086208889078,802.1440535404988,793.1365714751255
1731655023.4643447,782.388874059084,802.6523122530162,802.1436113723763,793.346568155645
1731655023.4659991,782.9889290117052,802.5958720316286,802.1433033410215,793.5718656836581
1731655023.4663773,783.6011998972265,802.539293353728,802.14315019825,793.8125921607051
1731655023.469901,784.2258030457143,802.4825693380699,802.1431734076857,794.068878694631
1731655023.4738038,784.8628956625364,802.4256931607528,802.1433931423951,794.340881463684
1731655023.477706,785.5126994773804,802.3686582837569,802.143825520268,794.6287830032298
1731655023.477756,786.1754509230415,802.3114587397564,802.1444820634376,794.9327470333178
1731655023.4816084,786.8512592044142,802.2540891475937,802.145375096074,795.2528342440615
1731655023.4852638,787.5399595798111,802.1965440921373,802.1465290891989,795.5889506594295
1731655023.4855106,788.2411684706941,802.138816940064,802.1479893271871,795.9409460815232
1731655023.489413,788.9547262608427,802.0808990776944,802.1498117219642,796.3089174207523
1731655023.4933152,789.6813969566771,802.0227812512721,802.152023550726,796.6935470162259
1731655023.493372,790.4231478261987,801.9644578625218,802.1545735982676,797.0960303353885
1731655023.4972177,791.1820453762174,801.9059319071905,802.1573301029591,797.517153470687
1731655023.4992964,791.9575372163006,801.8472142418474,802.1601928816119,797.9557336241365
1731655023.50112,792.7439298911553,801.788310732075,802.1633080762082,798.4078444628233
1731655023.5041504,793.531988831716,801.7291998994991,802.1672094539125,798.8689933517276
1731655023.5050223,794.3178023719811,801.6698209685521,802.172583400222,799.3400009344919
1731655023.5089245,795.1156599480765,801.610103494584,802.1795000274122,799.8329469955626
1731655023.508988,795.961548082446,801.5500506713904,802.1865198990131,800.3686268179069
1731655023.5128267,796.8897355943998,801.4898264308359,802.190809924146,800.9579537724251
1731655023.516729,797.8807864192426,801.429724757019,802.1904387130185,801.5730466212218
1731655023.5206316,798.818667131226,801.3699095842765,802.1884060428065,802.1363467942144
1731655023.523037,799.5313541186472,801.3099990673642,802.1948500445337,802.5674994344243
1731655023.5245335,799.9666388398106,801.2488921319756,802.22180892698,802.896462175893
1731655023.5246036,800.4267979117076,801.1854108585906,802.2682837961223,803.3662361952723
1731655023.5284362,801.5987343782369,801.11990714283,802.3044765327966,804.3620115773432
1731655023.5323384,804.0634093808724,801.0557773032425,802.277101168536,806.0391468512718
1731655023.534248,807.3037309345644,800.9985610992134,802.1562468741517,807.7903149370742
1731655023.5362408,808.9778751294438,800.9507316121651,802.0115400368555,808.110103498802
1731655023.540143,805.8359464812996,800.9040369536596,802.0480695929296,805.572008894583
1731655023.5402195,797.033348612484,800.8372890644035,802.5035951074232,800.9451247566684
1731655023.5419235,787.9142899376318,800.7300706534444,803.3943536314639,798.7989784392599
1731655023.5440454,789.2607850467314,800.5936455735796,804.3087204579484,805.6843963929415
1731655023.5479476,808.8776075680258,800.4972517003545,804.5641482423753,824.1352835657017
1731655023.55185,841.3250329135558,800.5463285524885,803.7668468408377,847.3769818338698
1731655023.5557525,867.7645187031121,800.7833362860034,802.3030766885765,861.9002102921477
1731655023.5558355,869.9803343519487,801.0611701761894,801.1794721087449,858.2535066001666
1731655023.5596547,847.2288719204664,801.0422975000735,801.2109352089776,840.7850224223993
1731655023.56081,819.6243218099323,800.4462372674118,802.2798375877401,826.264654271491
1731655023.563557,813.3284157877955,799.4127427147821,803.4404700103013,831.0989855025888
1731655023.567459,839.2510843103668,798.6116881152172,803.856325217849,857.4988189395589
1731655023.5691998,883.0827208134278,798.8674601978776,803.6838808684727,890.4481222057669
1731655023.5713615,915.3810665503655,800.5101681578388,803.9885490619124,908.5395177936504
1731655023.5714512,914.1356280872346,802.972631189582,805.7021261609005,900.3709123454347
1731655023.575264,881.9974586392148,805.017967012413,808.5988440549324,873.5686874098003
1731655023.5791662,844.2778062049416,805.5021099085078,811.2854408843322,849.163278597828
1731655023.579697,828.964190470655,804.1207804383663,812.2474307421937,845.4838556242431
1731655023.5830686,844.594956403583,801.5554958078085,811.0302457543918,864.0687889123988
1731655023.5869708,873.9800060495181,798.917664440129,808.5724690900503,888.7108330569675
1731655023.5870671,889.0885922345665,797.0102858929525,806.5072968769659,898.5026670865217
1731655023.5908732,874.9259757704665,796.0737770920499,806.0804654345608,884.596798984096
1731655023.5947754,842.5632613373226,796.1454742635356,807.4966804848367,857.3558658168756
1731655023.5985832,820.4108195002179,797.4680698306911,810.022101088314,838.2382422385626
1731655023.598678,830.8813024322412,800.3147946153789,812.5721523683645,842.9261067559991
1731655023.60258,871.5328187233217,804.3074323286218,814.2773160096294,868.988035150169
1731655023.6026828,915.924787161654,808.0329488053923,814.7195324721417,897.5466518507761
1731655023.6041515,933.4781563302527,809.6406616442347,813.8909889482983,907.4361650771308
1731655023.6064825,912.682672080371,808.1404045107988,812.1001133132179,890.8984429306705
1731655023.6103847,869.5247788764424,804.2960749545183,809.9270113808226,858.932072928701
1731655023.6142871,834.6207899463767,800.2306703083128,808.1198106295509,832.4219494539775
1731655023.6174698,829.3031654912231,797.9789742272548,807.3087271943153,826.1452336316834
1731655023.618189,849.7832052698153,798.1622237465034,807.6348673079682,838.3261402101648
1731655023.6182988,872.0680483745259,799.8288194982002,808.592903573939,853.9115679518476
1731655023.6220918,873.2694265070317,801.4832743657103,809.3074223201723,858.3942894069676
1731655023.625994,851.294978024511,802.373779806829,809.1262565090237,850.1953226133766
1731655023.6298964,826.3782763985888,802.9988261999086,808.125196052947,841.070003360421
1731655023.6337986,823.3922318001123,804.5041908580847,807.1492683521012,844.5759637738914
1731655023.6339147,850.0745604991748,807.5327135028766,807.3307288771127,862.9773597207571
1731655023.6363564,889.4239765324692,811.4709887808699,809.3550112621967,884.0574965179378
1731655023.637701,912.491028690604,814.6659002425772,812.8902093767762,890.6365047497839
1731655023.6391034,901.1407561595591,815.4101095057944,816.5351753313169,874.8969207941155
1731655023.6416032,862.5270051347645,812.9595569105832,818.4121420210923,845.6570294013352
1731655023.6455057,823.6842651991101,807.9305790509795,817.1652212017218,822.3476918373146
1731655023.649408,810.3922594623642,801.9518188518348,812.7913636632015,820.1067899903397
1731655023.6495304,827.128878895247,796.9119950758674,806.7268851763064,837.7806027864513
1731655023.6533103,854.3315557063681,794.229622498635,801.0696581985123,858.6661549871236
1731655023.6552427,865.2612468358122,794.3889060024801,797.4360304596412,863.7052682936443
1731655023.6572125,848.5464348025993,796.8317882665481,796.2185091263,846.6069481985952
1731655023.6611147,817.6009494393448,800.2460556590061,796.6919428226088,818.6253108175491
1731655023.6650171,799.0339689412772,803.181025952948,797.7793118781141,799.165209106029
1731655023.6651464,809.8526473444977,804.7036924883641,798.8389150014832,800.0572038606972
1731655023.6689196,842.6382839405612,804.7073424551422,799.8956746011334,816.4030910290426
1731655023.6728218,871.0211626734556,803.7082950884615,801.2356990930027,831.1844751830628
1731655023.674055,870.7758357526591,802.3579111231096,802.817082179025,829.421177800969
1731655023.6741295,839.149015744191,801.0745263810337,804.082384349887,810.1551137188856
1731655023.6767242,796.805270931296,800.0058139821937,804.361033624471,786.7312465360031
1731655023.6806264,771.038379979412,799.1993870974696,803.4674753873359,775.5008440748363
1731655023.6807623,774.0130275011619,798.7216231178102,801.8902149725675,782.3723465351147
1731655023.6845288,793.8227405377368,798.6085013380246,800.3613445358338,798.3153497308456
1731655023.688431,805.6950779670697,798.7633507245762,799.2253244726405,807.5208379049967
1731655023.6923337,793.8510924850224,798.9885460019375,798.2476922723731,801.1993182157056
1731655023.693016,765.3079491310167,799.1835348378113,797.0610267808717,785.006729679823
1731655023.6962357,743.6531589199506,799.5221418951206,795.7657334648027,773.5642605678195
1731655023.696378,748.140950066205,800.3772606790478,795.0017321544409,776.9686262608649
1731655023.700138,776.2467153584521,801.9715781928834,795.3406532073296,791.3088751433068
1731655023.7040403,804.782149090782,804.0194049551053,796.5925939484457,801.556645810063
1731655023.7079427,808.6706710910933,805.7068719212864,797.7794524707708,794.2637224160806
1731655023.7090068,781.606506357379,806.1328777880324,797.8900893758007,769.1739724016555
1731655023.7118447,741.5608743643751,804.9755142938376,796.7406603239417,740.1026633647451
1731655023.7119026,716.8027516133811,802.9302506899776,795.127447335374,724.5038417608819
1731655023.711994,723.7678783384656,801.53060057885,794.1113954922372,730.1204776729887
1731655023.7157474,754.3329028819841,802.2919549494843,794.0738727242694,749.1145760827162
1731655023.7196496,782.5216351346758,805.5964552594689,794.392054431659,764.1698957718211
1731655023.723552,785.4034466113905,810.0969592497772,794.0349360970187,761.9279490273468
1731655023.7274542,761.5555784152411,813.2749397292129,792.5798134995638,743.42339068243
1731655023.72761,732.0515055182289,813.0061408909352,790.7872833179703,723.2709481297352
1731655023.7307892,722.9047502599617,809.0829042541123,790.2303433833343,718.0366942765476
1731655023.7313566,743.2647419447347,803.4888630714569,792.2152647916926,732.9550916140518
1731655023.7352588,777.4663861273764,799.1417727228718,796.7634005117143,757.7324514359059
1731655023.7391613,797.6531837490622,798.0693889700771,802.388127893126,774.9052155586506
1731655023.7430634,786.549980751011,800.3918068372939,806.869073714685,773.8859480473853
1731655023.7432256,751.5904556999023,804.6713601439254,808.5592720360432,759.1240160480572
1731655023.7439585,718.9561403196159,809.01031318067,807.3851576553037,745.7839851397218
1731655023.7469656,712.6424204402743,811.8984628557258,804.8662630760277,746.7540848661339
1731655023.7496758,735.6026304592389,812.4457287688999,803.1064429724505,761.8712806509766
1731655023.750868,768.0308523920264,810.3845638791818,803.4060440297983,778.270787080875
1731655023.7547705,783.9789198248722,806.2391613790421,805.4487241129698,781.5242162016026
1731655023.7586727,772.7477122857377,801.4872727171622,807.655266314412,768.2410969022154
1731655023.7588415,747.4642682351571,798.2130080202751,808.4336930726698,749.4246658747034
1731655023.762575,733.5626007947986,798.1139017577801,807.3282114472684,741.4763921994311
1731655023.766477,746.6237319534894,801.408595622433,805.1594601328029,752.2229117920949
1731655023.7685623,778.2814813950641,806.4900668878955,803.1627091632691,773.7939780587758
1731655023.7703795,802.4132362083778,810.7462128416614,802.0207154864323,788.6100292621586
1731655023.774282,796.793168495336,812.1083533807085,801.6611359164085,783.7715020525195
1731655023.7744572,762.2821589684917,810.271987264352,801.8086801256708,762.0572215826314
1731655023.7781842,723.5609644821901,806.725537639673,802.5212739112018,740.4190726443119
1731655023.7789102,710.5469303751164,803.6344923317291,804.078946848066,736.9661483093143
1731655023.7820866,735.2525605924153,802.4934648296058,806.392441306608,756.6826485911515
1731655023.7859888,782.383461625204,803.5113371290271,808.6519488014205,787.1995610615886
1731655023.787449,821.0143188244828,805.9403646416647,809.6939933530573,808.1102266169568
1731655023.7898912,828.1342123588441,808.7739698140778,808.8336941371427,806.6946452349457
1731655023.7900732,805.6096822789572,811.1554602926177,806.4425871857803,787.7119734240225
1731655023.7937934,777.3422602781355,812.4094562882019,803.7782168590053,769.3586114133922
1731655023.797696,769.1595025218982,812.0981689273174,802.2312387715325,768.4327333343894
1731655023.801598,787.8624492948874,810.3453410850501,802.6029398609464,786.6045119691374
1731655023.8055005,816.4492928416396,808.1035479879735,804.8738583773394,809.0069012496391
1731655023.805689,829.1018799104166,806.8288922333392,808.4105565679101,816.3473938253247
1731655023.8063354,813.216259428133,807.5343292458512,812.2534803753339,800.642716595168
1731655023.8094027,780.2131098099751,809.9200356867057,815.2916381413278,771.7795771235234
1731655023.8133051,756.388334765872,812.4082349084464,816.4447916829465,749.6763064926439
1731655023.8138618,761.4300290253543,813.2035978545856,814.9941344202163,748.4849927692657
1731655023.817207,792.1381995542185,811.5754082593999,810.9280595976041,765.6188637159541
1731655023.8211098,824.6528234932376,808.3001270109552,805.0160935052647,784.4390746653141
1731655023.8213048,833.5810626626615,804.9147066046767,798.5315687470738,788.3384518665775
1731655023.825012,812.5984233906855,802.4890280939061,792.840379857026,774.5985456694261
1731655023.825222,779.5653408634621,801.0208269962483,789.0715370509726,756.4909047270246
1731655023.8289144,761.6464232296524,799.8895715635075,787.8522862428898,751.8065508712931
1731655023.8328166,772.5614406562988,798.7533985902537,789.0473336236016,767.4147465418837
1731655023.836719,801.0294294985573,797.9251638412652,791.6997135590577,792.930950644531
1731655023.8369207,820.3283697322672,797.9452647872137,794.4875527470696,808.9821827460468
1731655023.8406212,811.0426374972275,798.9680907257563,796.6057190538993,803.2471377983554
1731655023.8441086,777.8125625956324,800.6820277185334,798.3895211124702,780.9092982197707
1731655023.8445237,745.9912931444456,802.7508741294531,800.9830124101261,760.857536746706
1731655023.848426,741.0283302910838,805.1268820128787,805.1495071290265,760.727477051731
1731655023.8488135,767.6407225849367,807.7894812543004,810.2167599755155,782.8599516039337
1731655023.8523283,805.7597645899642,810.2218694032265,814.197769718275,812.3688710968003
1731655023.852537,826.4372410138789,811.3425554709623,815.1686560345831,828.7928306665358
1731655023.8562305,814.8059119091329,810.1907589948418,812.8400739635995,822.0399519408058
1731655023.8601327,781.5938369386942,806.8555654162079,808.9624030674839,799.924251671845
1731655023.8629951,753.9574894858105,802.7645497795803,806.0818148728237,781.2975115946145
1731655023.8640351,753.1977448487075,799.9045646391662,805.5498222801265,780.4621208708364
1731655023.8679376,777.6620249005011,799.4611993699589,806.4311124426838,795.746589143934
1731655023.8681524,804.7740212297299,800.9366548969792,806.3221580420407,811.6310606433551
1731655023.8718398,810.1505064722297,802.4998884480415,803.480555074985,812.359114450816
1731655023.8757422,787.7048982145319,802.3409498610833,798.4477836469354,795.356704987222
1731655023.8796444,754.358548303733,799.9724518509221,793.7291473485361,773.2721327757324
1731655023.8818817,736.1855135151962,796.4881338076017,791.8338856514134,763.3545230798956
1731655023.8835468,747.8084891853366,793.6842274785713,793.4369514412095,773.3902153662575
1731655023.8837657,781.4440054200224,792.8352514556038,797.1858471810812,795.7550242989047
1731655023.8837683,813.5774493959165,794.0322202100699,801.0618828273091,814.0228443312792
1731655023.887449,823.4158064341553,796.3880164675718,803.8841791074057,816.3552828245643
1731655023.8913517,808.5479629394479,798.7538292221604,805.7030276755322,804.7044987976768
1731655023.8952537,785.6727542201622,800.3773043886606,807.0560528189877,792.4512133474485
1731655023.899156,775.9906867885007,801.1372890171913,808.0403707356581,792.5469432761842
1731655023.8993845,787.2252712447752,801.3212783732138,808.0888510169981,806.0957382074015
1731655023.900768,807.3061265628877,801.178422909793,806.5319784811802,821.1132045247483
1731655023.9030583,815.2839697099491,800.6101945883624,803.328664553987,822.7930589945066
1731655023.9069607,800.3867630781157,799.2770991826645,799.3079809872361,806.8100638970983
1731655023.9108627,772.7737123252625,797.0787600484451,795.7733647078081,784.302949340958
1731655023.9147654,756.262463994424,794.5894297199665,793.8563569133137,773.870199190796
1731655023.915,768.6365706034688,792.9517442223697,794.1089455399033,786.6973492656971
1731655023.9186676,805.9057383754099,793.1397527041677,796.4774194985263,816.7957133573815
1731655023.9187171,843.894059904107,795.1250586031015,800.4288093045825,844.4516537865118
1731655023.9196546,856.4577257580834,797.7186355664714,805.012187145742,850.6292881442491
1731655023.92257,836.1021482102824,799.372785412636,808.9527587841594,831.4271767062683
1731655023.9264722,800.4554465389197,799.3677387139751,811.0192609544184,801.3138580092914
1731655023.9303746,778.8452290159828,798.3758090568998,810.6134892854122,782.1968445230251
1731655023.930616,789.0956696633453,797.867386823164,808.141145940716,786.4746575260721
1731655023.9342768,823.1194464449364,798.8304834493835,804.7730613997,807.4730092774465
1731655023.9381793,853.3624996380913,800.9037884996218,801.7283385995622,825.2115850922403
1731655023.9385412,855.1873862316705,802.6681665659257,799.6515958961309,823.0361345244794
1731655023.9420817,826.9132784678253,802.813687981032,798.5383426236193,801.5249831142166
1731655023.945984,791.0988800242613,801.1537469324321,798.1345396541392,778.2365475691522
1731655023.9462316,776.2507965147365,798.673511738516,798.3492990510587,773.6095222169557
1731655023.949886,794.0610048510956,796.7138523381932,799.3025895686827,794.6205189869914
1731655023.9536688,830.3536521376934,796.0849560978378,801.023941604259,829.2576398646613
1731655023.9537885,856.4301758677924,796.761882428461,803.1368276100153,855.7879127597641
1731655023.9574275,851.445219598965,798.1393034030781,804.8643471656906,859.0830638904076
1731655023.9576907,818.316045067185,799.4164437311938,805.4116667776583,841.2098820183274
1731655023.9615932,781.0020260710418,799.8852292074913,804.4481436356186,818.4829400613831
1731655023.9618475,765.4159160856527,799.2334214929497,802.292903602706,807.8957665073402
1731655023.965495,779.0265095734583,797.8762352984166,799.6332828857323,813.9940996643048
1731655023.9693978,805.5105318145444,796.9568435955375,797.025211951904,826.606064299688
1731655023.9733,818.9302679607266,797.6993648680556,794.6503027316139,830.8484819544221
1731655023.9763143,805.8356098640038,800.4441351035637,792.5576336948272,820.6450346832951
1731655023.9772024,776.8026752626793,804.219150819008,791.0938862296006,804.1102211552145
1731655023.9774635,757.5657684154728,807.3542210660032,790.9765113009662,796.1875705365748
1731655023.9811046,767.0823954197526,808.6789541211509,792.8026834410525,804.9666776822278
1731655023.985007,800.9705407708112,808.283183821627,796.3853869314438,823.6370903063473
1731655023.9886203,834.3242668832576,807.249910943615,800.5442214846157,835.3024152505365
1731655023.9889092,841.7584453193672,806.712393339119,803.6198052743201,826.9446732866712
1731655023.9928117,818.2007038086675,807.0875892307608,804.3892841814389,800.95095438642
1731655023.9930792,783.238761363155,808.0108145191076,802.7553503049259,774.3583566380048
1731655023.9952009,765.2408137360077,808.8108715196404,799.7600551529263,765.9145344618651
1731655023.996714,778.0758177667065,809.0182798030078,796.9543800153731,781.132636373817
1731655024.0006163,809.5908367061317,808.5804229182847,795.5818851532324,807.5375762935881
1731655024.0045185,831.6541525915193,807.7968666215328,796.1024440823044,824.3478621324322
1731655024.0084207,823.7708358911195,807.1132731949671,798.2359107669736,819.0486327140227
1731655024.0086951,790.685697384346,806.8569293388995,801.2670639686393,797.3931754327292
1731655024.0123231,759.1377391224778,807.0031058137029,804.2752240827284,778.6037706862248
1731655024.0140874,756.325575788638,807.1469580542143,806.2869018068443,779.7561169916715
1731655024.0162256,787.8411030753203,806.7934443436172,806.6046036094695,802.1658096341073
1731655024.0201278,833.0101240577262,805.7976167314458,805.3110021352851,830.6737241543559
1731655024.0235722,861.0941529087203,804.5717895457992,803.469572932344,845.998828919203
1731655024.0240302,855.0601114566687,803.8234916411076,802.5624680812161,839.8892182412609
1731655024.0243113,824.0266043460535,804.0081437710875,803.4156343827856,820.9730640446701
1731655024.0279324,794.9297198468547,804.9653013152473,805.5284729696326,807.0272711830848
1731655024.0318348,790.5633693350444,806.0659877340198,807.4985838935925,810.3006012241868
1731655024.032974,811.8352655558452,806.7414736087153,808.2135828388692,827.8645033669385
1731655024.035737,838.4462062618326,806.904071810349,807.7213155472652,844.6447098839935
1731655024.0396397,847.0597759948351,806.8672577891476,807.0201296519876,846.3969465670345
1731655024.0399268,831.5744314038774,806.8728618949006,807.08355441359,831.8176460668793
1731655024.0435417,808.3917327942934,806.7462509739611,808.1095743646918,813.7776122884635
1731655024.047444,802.2733539076353,806.0668598835541,809.6143514266612,808.6991091806415
1731655024.0513463,824.8057279085048,804.6802265507278,811.0744995334267,822.8857491682119
1731655024.0518606,863.6078126135121,803.0081327551711,812.3568691347176,847.0204486079587
1731655024.0552487,891.2592725189797,801.8415910989457,813.5524731418783,863.2376139799931
1731655024.0555427,886.6895939193735,801.839379095847,814.536448894714,859.0376020955848
1731655024.058524,851.9521082801357,803.190361031888,814.8483947243109,837.0704891333994
1731655024.0591507,811.1985873165644,805.6272062123084,814.0990776146378,813.2307651841959
1731655024.0630534,792.5656118499393,808.592494459272,812.5037136971857,804.5581259725016
1731655024.0669556,806.8913026292732,811.3203160989178,810.9432328471877,816.2586828878326
1731655024.0707471,839.8466509972345,812.8975692885688,810.3722709706487,837.9478504318305
1731655024.070858,863.8425644135251,812.5627389685187,811.0330799289426,852.1742828548372
1731655024.0711586,860.3542631917989,810.2512319563367,812.1786853436306,848.541778351384
1731655024.0747602,834.5899042887945,806.9338485121216,812.602319979491,832.0295902002152
1731655024.0786626,810.4472356846635,804.2279199461308,811.5657233227225,818.6334340507248
1731655024.0825648,810.0223713183833,803.3595627674649,809.3479075663158,821.8589466811245
1731655024.0864673,834.8476655726591,804.2866110684313,806.9431190731165,841.2478468014625
1731655024.0867743,864.4265277816725,805.7997877556022,805.1735319157151,862.4303658492482
1731655024.0896337,873.054240611307,806.5518264232533,804.0058937361363,868.6091344194303
1731655024.0903697,850.9478842285748,806.0773383081197,802.6910681754654,854.0377963546363
1731655024.0934758,812.5268418398017,804.9097844349553,800.6130170216285,828.5802517446655
1731655024.094272,785.213687043005,803.8309976334083,798.0875887204398,809.7322626883617
1731655024.098174,787.696132800203,803.1103300741615,796.367014925606,808.6060164852745
1731655024.1020763,815.1230316047512,802.4674226492274,796.7689021643862,821.3333491229199
1731655024.1023903,843.3774936285679,801.6358899988272,799.5905373350206,833.0197203474868
1731655024.1059787,849.0970746765257,800.7937578753057,803.6750016234716,830.9380685829835
1731655024.1085205,828.8413064149435,800.3921687842345,807.0055759759723,815.6620873405104
1731655024.1098812,801.2165018262606,800.6560380434572,807.9208210268391,800.4166498579914
1731655024.1137834,790.168696680274,801.3528855558682,806.0854996913739,799.1232567976617
1731655024.1176858,803.9005169550953,802.0305161231331,802.561794752871,813.618893102115
1731655024.118006,827.6449988840213,802.3926724935826,799.0042483687187,831.339393280593
1731655024.121588,836.4294923159831,802.4379352696856,796.6102529326291,835.5930734746734
1731655024.1254904,816.7673837291885,802.3339907718944,795.561950274136,819.6433321529281
1731655024.1274068,778.8907565301852,802.2360106176841,795.2709300220858,792.715546160739
1731655024.1284275,749.3779404126725,802.2035970263329,795.1247340761624,772.997124088292
1731655024.1293926,750.2128212224533,802.2202301216402,795.0790692697265,773.3864420020055
1731655024.1332953,781.1596456292549,802.2477052611385,795.6086471439818,791.4401600453307
1731655024.133622,819.6704809309995,802.2625980699808,797.1042657239227,811.5256324602551
1731655024.1371973,838.6306060744589,802.262545854326,799.3046074170875,817.4853755910623
1731655024.1410997,827.7784920214134,802.2557364545769,801.3176431012998,805.6287344246136
1731655024.145002,801.2494257263093,802.2497813862955,802.2403184583335,787.390683466348
1731655024.1462934,784.8646803324684,802.2472879619986,801.8426049355711,779.3668380635934
1731655024.148904,793.7976348618971,802.2470811544403,800.7351046202969,789.0326564855566
1731655024.149238,819.5561807391433,802.2470916189033,799.8890663321791,808.2168605742222
1731655024.1528063,837.3116824929837,802.2461557171116,799.9053445286106,819.8593651546047
1731655024.1567087,827.2246810096864,802.2442231997377,800.6131232346736,812.3199695792636
1731655024.1606112,791.6687619464107,802.2417505659206,801.2974752635535,789.2296945880123
1731655024.1633792,754.0328820221788,802.2391234033062,801.3296954263664,766.7923298263313
1731655024.164513,740.328614196282,802.2364524101515,800.6335145510425,760.9150855581091
1731655024.1648536,758.7559762692358,802.2336581735711,799.5856547414144,774.7073647344757
1731655024.16518,793.5967651071592,802.23062772724,798.5085753182842,796.3396215753962
1731655024.1684158,818.0997645453283,802.2273037441983,797.3381974762287,808.8697774827443
1731655024.172318,815.9554821661687,802.2236868282411,795.8778514437284,804.1308295686642
1731655024.1762204,794.0682101184672,802.2197957968383,794.4019524050298,789.4124482086916
1731655024.1801226,776.085862092199,802.2156338464939,793.9096300249802,781.2381932627503
1731655024.1804695,781.7764594202374,802.2111842506819,795.5857581869936,791.0453758602811
1731655024.184025,809.3993178901706,802.2064344680185,799.8011309876309,814.5995973317685
1731655024.1840663,836.1549732464387,802.2014081623955,805.5053812582938,834.2905077416532
1731655024.1879272,836.7358793874704,802.1961704699899,810.611230234271,832.8764570406515
1731655024.1918297,804.6971970984158,802.1907744344949,813.1751176238348,807.6268770301551
1731655024.195732,758.9822421413683,802.1851567519009,812.5479311782967,773.3434689030273
1731655024.1960857,730.2233606653552,802.1790690796639,809.6931014281918,751.734001926715
1731655024.1983309,737.7009380955496,802.1721899356497,806.4794864678477,755.4603086329148
1731655024.1996343,774.9073476601928,802.1644916315672,804.4704208816164,779.1760032637798
1731655024.202953,814.7042289039875,802.156666040953,804.045690765643,804.2793211610299
1731655024.2035365,830.0636624548277,802.1500684798765,804.4189149334984,813.5779298166589
1731655024.2074387,814.4990477135095,802.1456226572321,804.4587153626982,804.4720622507008
1731655024.2113411,786.2211952353416,802.1419008235606,803.6484884659449,790.2476129392886
1731655024.2117012,772.4724566430758,802.1340759954254,802.4449159890115,788.3044360631095
1731655024.2152436,786.5277704319254,802.1164262745204,801.7928624723789,804.8674954931454
1731655024.2191458,816.4219135884289,802.0894630672021,802.2436102912704,829.0476747107392
1731655024.2218397,835.1121697511473,802.0674561114547,803.4336817730945,841.5438031775507
1731655024.2230482,823.7097090287497,802.0759470526218,804.3460081485042,830.824468758345
1731655024.2269504,788.12882520114,802.1295991908823,804.0960377680555,803.1312713860649
1731655024.227317,754.9776181011117,802.196540259159,802.5660099033078,777.8709834444949
1731655024.2308528,750.0461169796877,802.1832443488319,800.3985440402647,772.275001572938
1731655024.2332826,777.2888571906664,801.989572461312,798.4475650467995,787.980367333111
1731655024.234755,815.6354713335184,801.6482473655741,797.2278644745172,810.315836428731
1731655024.2386577,836.1235462418726,801.4617670486534,796.8214637353684,820.5636415421048
1731655024.2407262,825.1663919198135,801.9458740685604,797.1907832634645,811.0391444551859
1731655024.2425597,794.838023363933,803.4406656143991,798.4154317407414,790.7241394198869
1731655024.242933,771.8580317389485,805.5756069567904,800.4724509718283,777.0004154526413
1731655024.246462,774.7068401633123,807.1466368796265,802.764070409485,780.5525011708382
1731655024.2503643,798.2599143420277,806.8273531308236,804.0410592293231,796.2985123228888
1731655024.2542667,818.8792442424702,804.3433999260747,803.0873665589739,808.1436913141216
1731655024.2581687,815.3440919931672,801.0588200668112,799.7096060872697,803.450366481909
1731655024.2585487,787.5387742371136,799.2391975271504,795.108742416036,784.6540652483259
1731655024.2596128,757.0876473076258,800.4076337731923,791.2047882839073,767.899518874784
1731655024.2620714,749.6960396686417,804.0964820161739,789.4671867984863,769.7066974679088
1731655024.2659736,774.0444697830612,808.0534441892776,790.2227516231856,792.7843813913295
1731655024.2682345,814.3696659334721,809.7866114220573,792.8582387801988,822.8037708727408
1731655024.269876,842.467742036274,808.257885678196,796.4743999684723,839.0176624600914
1731655024.2737782,839.5097217796853,804.4636956267155,800.3053912565281,830.4557833511628
1731655024.274165,810.5591011270549,800.5783827634478,803.7275016613858,804.8289284490722
1731655024.2776806,780.3711839879478,798.4278488248463,806.2171899044259,782.8194341347686
1731655024.2784994,773.5903548483311,798.4219226127843,807.5183303876067,781.9413265677957
1731655024.2815828,794.9193957887412,799.5620484092054,807.8055590163694,802.6840082760956
1731655024.2854853,825.3252589541456,800.3307478256324,807.5549141184242,828.2023921491426
1731655024.2893877,837.7446858162087,799.7737059285312,807.21994216395,838.0488889517264
1731655024.2897804,819.694312881127,798.0864555520108,807.0202539993774,824.8499462840689
1731655024.29329,784.1085315635398,796.3825121259537,806.9569122250726,800.2111753893124
1731655024.297192,759.2728538904983,795.8469064564896,806.9426310618505,785.0409502357307
1731655024.297386,766.0310212579471,796.8978467953566,806.9087261556134,792.4311201597704
1731655024.3010943,800.8227672888203,798.9704410664616,806.8380908304699,817.1696935104791
1731655024.3031862,838.1385246952714,801.0307150783314,806.746697095331,840.1545159022188
1731655024.3049967,850.3274489718611,802.3275552954894,806.6548307920569,843.7737655842052
1731655024.3053963,829.1263317913717,802.7620388935995,806.571985168647,825.801838136685
1731655024.3088992,792.0523081608363,802.701215675293,806.4970959203046,800.8963950099536
1731655024.3128014,768.5669366735781,802.5638848439514,806.4252338200397,788.70557309017
1731655024.3162725,776.7890921391302,802.5620015065432,806.3528945360051,798.1146068344342
1731655024.3167038,809.2974666701791,802.6967742245831,806.2793812784427,820.1934136322902
1731655024.320606,839.60503092324,802.8815189091549,806.2056444320659,835.5023974009246
1731655024.3210125,844.1248979372384,803.0470583664219,806.1327532959561,829.8895975753685
1731655024.3245084,821.5085275557275,803.1753312193001,806.0611647534212,806.02622356075
1731655024.3284106,793.3444992263798,803.2816534911193,805.9907916400346,781.3981878981695
1731655024.3323133,785.8719152871049,803.3861591655866,805.9213721954022,774.4783619289732
1731655024.3351593,808.1416814096895,803.4984883574899,805.8527377623273,790.2229517124232
1731655024.3362153,844.5645521542634,803.6177544756431,805.7848687083872,816.2675148492916
1731655024.336628,867.5389073796273,803.7391048784594,805.7178236631293,832.5038392765964
1731655024.338138,859.6488349549139,803.8590180854416,805.6516589699471,826.3851585661745
1731655024.3401177,827.6674416331699,803.9767485975817,805.5863967619757,802.1952710757565
1731655024.34402,797.2600781443152,804.0932132297519,805.5220375078918,777.312365171223
1731655024.3479223,792.4535297692207,804.2094736950235,805.4585847904226,768.5137722978399
1731655024.3518243,816.2079638579439,804.3259940047463,805.3960532161719,779.2032397592732
1731655024.352244,848.0465373872954,804.4426952167985,805.334449453508,797.8266831567828
1731655024.3540456,861.1074769792476,804.5593187904188,805.273741527487,808.5998921596957
1731655024.355727,844.6972709218155,804.6756950113363,805.2138538468773,805.276482933968
1731655024.3596292,813.339590173613,804.7918016600905,805.1547261199494,796.0766582660307
1731655024.3635316,794.4818704726379,804.9076948112256,805.0964290594336,795.6261920571371
1731655024.3674338,805.2267672144391,805.0234288060587,805.0392403889379,811.11711738857
1731655024.3678598,837.8189110254848,805.1390257015366,804.9835177478806,834.8766450132059
1731655024.3713362,865.9545522545993,805.2544907163384,804.9292851836859,849.8912477682909
1731655024.3729322,866.2938809163489,805.3698387629979,804.8757556094922,843.7426519891277
1731655024.3730896,837.2211838148152,805.4850978506934,804.8213988889415,819.3831779928037
1731655024.3752384,799.7347619506456,805.6002769782525,804.7651802447828,793.7428179099325
1731655024.3791409,780.1455589985358,805.7153212505984,804.7087211415345,784.9254520459062
1731655024.3830433,788.8525994407848,805.8301111726619,804.6574657441666,797.9976724350274
1731655024.3834755,812.5261158693428,805.9445627627226,804.61784075005,820.8843118070184
1731655024.3869455,826.1251217697289,806.0588105682949,804.5892305018886,834.0976156870372
1731655024.3908477,814.7427692849417,806.1733138661319,804.5555801515361,826.704864430529
1731655024.3918188,786.7900750911008,806.2886294679861,804.4884158708519,805.3890125315054
1731655024.39475,767.0739756581003,806.4047404737835,804.3722704117797,788.8514356212086
1731655024.3986523,775.3505717925941,806.5203289097971,804.2459933425401,792.0313626925745
1731655024.3990915,808.4322472474043,806.6329755716861,804.2231765038516,813.2877614974791
1731655024.4025548,841.1191959861658,806.741226329825,804.4411009044675,835.2738955415359
1731655024.4064567,845.569460295397,806.847996691409,804.9385298026943,838.8088520091859
1731655024.4080412,813.5165891061495,806.9621403836327,805.5785122477463,818.3603764048721
1731655024.4103594,763.4702084536734,807.0934658629953,806.1653686089156,786.6120672358355
1731655024.410705,727.123955076564,807.2397525959884,806.6957554094485,764.5775560835584
1731655024.4142616,725.6228146549107,807.3740253866023,807.424160915852,765.2853156605254
1731655024.4147074,754.2094030271878,807.450917335114,808.5399911408538,784.0298718834298
1731655024.418164,787.1569673680701,807.4481595839508,809.7319955653592,802.864261046909
1731655024.4220662,798.9108208357601,807.4293774547423,810.1755641910771,805.6059068736996
1731655024.4259686,784.3746480940003,807.5648506440881,809.1213913640423,791.0752506547159
1731655024.429592,761.8610666538502,808.0233129934352,806.6177606671023,773.6168133863013
1731655024.4298708,756.4538688779473,808.7179860174847,803.6597470544076,770.4823342528009
1731655024.4303231,777.9041534441411,809.0733646498843,801.5267010822508,786.7935408289794
1731655024.4337733,811.7769894277474,808.1362651042891,800.8235480812901,810.9185062286182
1731655024.4376757,831.2920080467663,805.1950153026434,801.0569506185099,824.153190674399
1731655024.441578,819.8079561406726,800.5366819282019,801.133848821741,816.3428783128296
1731655024.4429927,785.1029101109939,795.6066739294952,800.3619913178584,794.1951181453068
1731655024.44548,753.6572506220883,792.235823265329,799.0948814470652,775.5394429375642
1731655024.4459393,749.6845674414012,791.4787075184562,798.4760080579119,774.6757126116644
1731655024.4484785,775.8938001427739,793.0169492405296,799.4919266204029,791.0218588822352
1731655024.4493823,811.3853027790148,795.580145670449,802.0879153488157,810.1027590442737
1731655024.4532847,828.3830136223582,797.9487589330724,805.0331684710668,815.7282820528802
1731655024.4571872,814.4679287439963,799.6735963559712,806.6523216713656,803.3266372792518
1731655024.4610894,782.3575493632964,801.0072923808353,805.9005203027895,783.6334505339495
1731655024.4615548,759.1377201327056,802.2859872736036,803.0020512237593,773.764028024297
1731655024.4649918,763.7196604639342,803.4282381779923,799.2066763214202,782.9535676514257
1731655024.467365,791.2267820155135,803.9919993254358,795.9186350487889,804.6720472541784
1731655024.468894,817.3197876715876,803.6334932390141,793.93746139582,821.6800172337008
1731655024.4727964,818.7856964246614,802.4493236706234,793.363707657176,820.0198356693248
1731655024.4766986,793.1896022441847,800.8875367711585,794.0442613827568,800.6054521821319
1731655024.4771707,761.2958405590392,799.4155133798645,795.9467593736936,778.9620413875854
1731655024.4779446,750.2696142667454,798.3548997666794,799.0382091800129,773.189636148326
1731655024.4806013,771.4072269622924,798.0011116666946,802.8595805311711,789.6875964414531
1731655024.4845033,810.5978473755449,798.7267188375075,806.3602095356988,818.0472354428506
1731655024.4862516,839.4622628883681,800.7695687405491,808.306583316294,839.2884258183137
1731655024.4884057,838.3176802834905,803.8448926293881,808.0005581929639,840.885622126064
1731655024.492308,812.2020934733557,807.0478338872541,805.731801657418,826.3453375292903
1731655024.4927866,786.5186640363372,809.292163271892,802.6142164331949,811.3872865527156
1731655024.4962103,785.6310921788838,809.979292147837,799.9394367482677,809.9497917943027
1731655024.5001123,812.1767544003413,809.323456326982,798.4871459192747,821.9820946551922
1731655024.504015,844.4685775399428,808.0722758265778,798.206198793498,833.5406745710488
1731655024.5051382,854.1975988680887,806.9205186574652,798.4415630234635,829.1146030711973
1731655024.5079172,829.7331673920988,806.1445055494557,798.5653957172003,805.6243090810132
1731655024.5084023,785.9759867399189,805.6871512753216,798.5791124461259,776.2185221059608
1731655024.5118196,753.0436387059455,805.4483424402524,799.1860906003403,760.6179329821601
1731655024.5128963,753.097940803276,805.3799196633627,801.1817355824306,769.7560764339408
1731655024.5157218,783.647324596805,805.2812846904167,804.609739524319,796.9555057763872
1731655024.5196242,820.1695153769945,804.5984497146075,808.4420278194594,822.6709364080656
1731655024.5235264,835.6665943418071,802.6011632612165,811.1487867396892,829.2186876311986
1731655024.5240183,821.5950398891625,798.9524243216362,811.7233556584656,814.0614538540033
1731655024.5240247,793.6400343272063,794.2314446262103,810.3051928531105,791.2303185702308
1731655024.5274289,777.9266518825033,789.8770072705474,807.9409043557408,779.7717608628365
1731655024.5313313,789.0488003325994,787.433618567433,805.8116549253406,788.4964984918721
1731655024.5352333,817.9763766027258,787.5935034773632,804.6273199487988,809.3168667564005
1731655024.5391357,839.7545032296399,789.7801531511067,804.5487764813968,824.4207296152177
1731655024.5396342,834.5082189074351,792.6181695009684,805.4156368113148,821.1968660436512
1731655024.5429113,804.2951108048459,794.8947725465622,806.862712336928,802.6457401990127
1731655024.543038,771.9026900680375,796.2291995995246,808.2332868107734,784.9360042888858
1731655024.5469403,762.5660096846462,796.9926655900036,808.5968249811299,784.2333626949189
1731655024.5478482,783.4503027670673,797.7122903617955,807.1546448532002,803.3925598740228
1731655024.5508423,817.5737768348946,798.5694840342587,803.861291703848,829.1549865453077
1731655024.554745,837.332007255943,799.3744486877579,799.7078765782067,842.3064402689502
1731655024.55525,826.9355321997949,799.8876819866167,796.2829124725279,832.9883535645437
1731655024.5586472,795.4530783648075,800.0878273181045,794.8455494648567,808.8685344005767
1731655024.561798,769.348279562957,800.1451131867427,795.6108750796691,789.1204877348617
1731655024.5625496,770.2315285401663,800.2089956971147,797.7845646450995,788.6365440495525
1731655024.5664518,796.3090970059712,800.2920432561243,800.2467390446402,805.4437302590873
1731655024.5703542,823.4823410296513,800.3905417580468,802.2777727929123,822.2150737040797
1731655024.570866,825.6536357968602,800.6989161360817,803.7873222322595,821.0451934627282
1731655024.5742564,797.3083961091658,801.6413881443622,805.021608660312,799.110006456198
1731655024.5781589,759.252167756688,803.5961133582332,806.1510234738844,771.7874675559943
1731655024.5806842,742.4783468742983,806.4874111369056,807.1102083195528,760.4420514882611
1731655024.5820613,763.3098430437815,809.592857202424,807.7167866553579,775.0480317316022
1731655024.5828,809.9385893273314,811.7863896848127,807.8494822115881,805.9813301700568
1731655024.5859635,851.0838759190143,812.1066398684017,807.516687333274,831.5449379231266
1731655024.5864818,859.8636617369539,810.2785565528952,806.8226390400542,834.9831270417812
1731655024.5898657,834.0717430212476,806.8552251858707,805.910717201005,817.2612927401967
1731655024.593768,796.9336894222481,802.9480428990883,804.9191814401053,795.441877513547
1731655024.5976703,777.9162417292746,799.7840019762693,803.9482157236737,788.1804021718185
1731655024.5995708,789.2541592106529,798.3199514667378,803.0507018230372,800.4057381992155
1731655024.6015728,817.3566139696912,798.9517617744616,802.2593301906112,819.9112465380217
1731655024.6020975,835.794304624302,801.3060840949913,801.6220099668642,828.5258245301181
1731655024.6054747,828.4248229837408,804.2720446460623,801.1967384425944,818.1529705136405
1731655024.6093774,802.955863512876,806.4762555409376,801.0039477176551,797.9431763226833
1731655024.6132796,783.8765140353304,807.0566108455005,800.9942970975185,786.6281735336531
1731655024.617182,791.3483603650413,806.1688095193366,801.0746368728418,796.6709291159947
1731655024.6177137,824.0028107336541,804.7588562208842,801.1642988655249,823.4966943586196
1731655024.6177516,859.6333439383492,803.7875182290082,801.227639776225,848.52885807579
1731655024.6184573,872.8511852668217,803.6023668291311,801.2671413754708,853.4759786106755
1731655024.6210842,855.3646872240541,803.9334199705435,801.2989782891678,834.5428643204011
1731655024.6249866,822.6577758807141,804.3298671878322,801.3347264024321,805.4202973364365
1731655024.6288888,801.506212051592,804.5347265232028,801.3766231177506,786.6375856680098
1731655024.6327913,808.0740284603071,804.5470892401759,801.4214461089654,789.6224468641886
1731655024.6333294,834.449086980927,804.4839003686327,801.4656183484038,808.2266814671461
1731655024.6366937,855.1244166388423,804.4420399498174,801.5076326891744,824.5488379865425
1731655024.637344,848.428615461361,804.4499963064327,801.5478036085364,824.1103253195665
1731655024.640596,815.0449690042557,804.4893125889303,801.5870233508003,807.7456955777475
1731655024.644498,777.9723635463281,804.5329703444115,801.6258667356353,790.5469879383651
1731655024.6484003,763.9030178206667,804.567182623449,801.6644049832842,789.0982389723309
1731655024.648945,781.5135370686426,804.5924757669578,801.7024405613614,807.6655770798685
1731655024.6523027,814.445066947504,804.615204958847,801.7397762413902,834.4106595870568
1731655024.6527033,834.4214682762739,804.6402632079294,801.7763307426452,850.3934435099743
1731655024.6562052,823.7520368272889,804.6688602099509,801.8121161802284,844.1548799501858
1731655024.6562304,789.3452949926435,804.699868606692,801.847170208398,820.5688832876268
1731655024.6601074,757.2724174050134,804.7318625384842,801.8815110940527,797.092997947675
1731655024.6640098,752.1245273091314,804.7641800450234,801.9151307218121,790.1364140333728
1731655024.664561,777.3851336990763,804.7969020788245,801.9480082776328,802.0652514669732
1731655024.667912,812.5698235036484,804.8303789648509,801.9801242743765,819.3384007433635
1731655024.6718144,829.782722524124,804.8648582210365,802.0114659643274,823.757368599543
1731655024.675117,816.4939633843558,804.9003884912458,802.0420256710942,808.0182063060602
1731655024.6757166,785.7935540522476,804.9369021790956,802.0717971235827,782.6256062350919
1731655024.6796193,765.3983719342267,804.9743232548892,802.1007732248787,767.9027046439464
1731655024.6801767,774.3584362277976,805.0126185169911,802.1289458347991,777.2460762969173
1731655024.6835213,806.8025826664705,805.0517925148009,802.1563065564943,805.4323668848941
1731655024.6874237,836.2749953471144,805.0918614249573,802.1828474656128,831.9043495144831
1731655024.687655,837.1793908462239,805.1328342013404,802.2085613614942,836.6590591325688
1731655024.691326,805.8288657750546,805.1747086273101,802.2334416581173,815.951024128981
