timestamps,eeg_1,eeg_2,eeg_3,eeg_4
1731655592.8134582,784.7504522018835,799.9899133737197,801.3862221559814,795.1102869811461
1731655592.8290837,785.8604841422361,800.2241146503336,800.895822017375,795.6819248039736
1731655592.836084,787.4394463068592,800.4054826915904,800.7059710522667,796.7431341243513
1731655592.8447092,788.8897017797879,800.4715226850916,800.8418403557982,797.9479572620412
1731655592.854958,788.7468010283765,800.4208152644459,800.9625470944258,798.1981113792044
1731655592.8603346,786.3385933103527,800.3978463696084,800.5634295255863,796.8191522637508
1731655592.8738325,783.6185288656131,800.6341821573965,799.421216378699,794.9487908250319
1731655592.8759604,785.0453580732103,801.2041941553404,798.0276191759223,795.6189136534316
1731655592.8915858,794.3033978935941,801.7933068639248,797.6461088019315,801.6273462742173
1731655592.8927066,809.5048444184732,801.7782364031822,799.7715066471119,812.2681123264755
1731655592.9033678,821.350575683032,800.7047144461544,805.1890362127308,821.9461261387438
1731655592.9072113,818.0978003238041,798.8391185096909,813.2407790966515,823.2817568184634
1731655592.9072642,795.6506765722265,797.2399179530516,821.8843490279544,813.582396406243
1731655592.9111607,764.6409189525879,797.0647031389509,828.5635037166448,799.2793173219122
1731655592.9115808,746.2260609361757,798.5128014584806,831.2917385564715,792.972203591065
1731655592.9150572,757.105015972947,800.3300454107741,829.305653080737,803.7113883622899
1731655592.918954,794.9783183834961,800.5418413937997,823.1636008229711,828.1854145510989
1731655592.9228368,837.5154272815798,798.0484205312383,814.5672308736484,851.2207781060372
1731655592.9228504,857.5704034905158,793.7932935492656,806.0252529653294,856.5919721541345
1731655592.9267468,843.506868200462,790.3906401577242,800.1658947445368,839.9323068555364
1731655592.930455,808.4374990350025,790.3637871928776,798.6834994028956,813.0370248536614
1731655592.930643,780.5375648656486,794.3641542738219,801.4732804076073,795.5174615273793
1731655592.9330552,781.5403519210938,800.7647919621578,806.6885265258713,800.005693788181
1731655592.9345398,810.1290599260856,806.868357947743,811.8411539105009,822.510366282296
1731655592.9384365,843.5500690311095,810.7115897118462,815.2034744521296,845.7253377780853
1731655592.9384625,856.555497161729,812.119716046268,816.5289696115581,852.9135950270684
1731655592.9423327,842.4946980504868,812.3914457080358,816.7165969733176,841.3146747594172
1731655592.9462297,818.8537454513952,813.0700911421494,816.8787450630124,824.0287749328974
1731655592.9493294,812.0144877121612,814.8245764922538,817.5777877037749,818.6105841392222
1731655592.950126,833.8444830309168,817.1830747393425,818.6293348704999,831.8449615875612
1731655592.9540224,870.3972967407711,819.0878600623529,819.3415477023293,853.6769896799863
1731655592.9540875,892.9622297995649,819.6575226598555,818.8835993849106,865.574773687406
1731655592.957919,882.3042266189635,818.5737879537066,816.6398972714073,856.2126102861079
1731655592.9618154,845.4061269896137,816.0058748114103,812.5430799191004,831.1810765781773
1731655592.9657118,810.5429325054308,812.4174416878949,807.306432108373,808.76044551973
1731655592.968,804.9346819222284,808.5548859038867,802.3646990779038,805.5816919257234
1731655592.9682035,833.3627807285245,805.4887959269957,799.3945070839179,823.9361932998866
1731655592.9696083,874.6819389764376,804.3173521229454,799.5300029581649,850.488604805213
1731655592.9697132,898.4942151534027,805.4569557518931,802.6705783412153,866.8080915091579
1731655592.9735048,888.6012611310274,808.0751339474596,807.3870118761802,863.2208825282768
1731655592.9774015,854.9355879778846,810.3925867451215,811.6586686681255,845.3818709232686
1731655592.981298,824.8198612585718,810.8939067356253,814.0507620634038,828.7809736026737
1731655592.9851944,820.7197890722305,809.5169943918183,814.4644973574221,825.8073466853107
1731655592.9853387,842.486020486215,807.7000856624043,813.8535323662704,835.8934423466811
1731655592.9870777,868.40812933228,807.1227210700628,813.2066305741012,846.7574367300845
1731655592.9890907,873.8966518316796,808.2352996465812,812.765648617753,845.5569201195862
1731655592.9929874,852.1280276280551,809.9569921844845,812.1486693672662,830.4306439753681
1731655592.996884,819.6463715602483,810.8508067465106,811.0944132404466,812.5846968327585
1731655593.0007803,802.6231515449092,810.6382930956751,809.9611093428044,807.1244856109073
1731655593.0009644,815.3769925240852,810.531589994694,809.4684965637957,820.3556773110082
1731655593.0029447,848.7153923791703,811.9802286159266,809.999528393244,844.1818920743535
1731655593.0046773,877.2735660380962,814.9909308454581,811.1917798045308,862.2503341068171
1731655593.005952,879.651845294418,817.6480485482226,812.2023681427366,862.8354192595734
1731655593.0085735,855.115663091069,817.3787476208682,812.3611697971434,847.9803195647883
1731655593.01247,823.4835178348521,812.9198147158069,811.5970856553818,831.3822901538048
1731655593.0163665,808.3043499661188,805.3494240129523,810.2906939603412,826.6279213666113
1731655593.01659,817.1534068826329,797.4368813577524,808.7784598223113,835.53545194776
1731655593.020263,835.6404204483348,791.9973340809139,807.0623573663067,846.6568487067071
1731655593.0241594,840.4730043842343,790.5600959350202,805.0436113137738,845.5477724732573
1731655593.0248263,820.5643906218189,793.0679329250943,803.015469795229,828.0677514129725
1731655593.028056,787.8860689117259,798.3380424343554,801.8087794819311,804.9440834084215
1731655593.0319526,768.2966513845851,804.6338023923424,802.275654697271,793.2100546382206
1731655593.0322154,779.7200317769316,810.0620479572679,804.4714059946754,801.5820973006229
1731655593.035849,815.9831287858906,812.9739564789672,807.284141558584,822.2727285607648
1731655593.0378897,850.1135511133801,812.5324758149366,808.9573674350919,836.4498155843663
1731655593.0397456,854.9393423385006,809.2056665992387,808.2133142363342,829.192521245563
1731655593.043642,824.6409215959108,804.7012043949628,805.1645583972983,801.900072107433
1731655593.0437005,779.8430791539041,801.1408069556583,801.327306118799,772.0021041821994
1731655593.0475385,751.7324081967897,799.8853986842183,798.6949400544048,759.8431908528333
1731655593.0478408,757.4956229834431,800.7932190705513,798.4897314644777,772.8506169352119
1731655593.051435,786.7650532940736,802.4440187548046,800.423435737619,799.5165724752818
1731655593.0553317,810.3584887967229,803.1761911924286,802.9464117681939,818.234391598709
1731655593.0592282,804.5783534984203,802.225018556865,804.299559890553,814.2481717659058
1731655593.0625746,771.2652749766622,800.2257438247306,803.6444753947144,791.2636411185109
1731655593.063125,736.8881347108231,798.7860081340531,801.5043693007249,768.3294344949018
1731655593.0634663,731.080583254582,799.3901876920709,799.2509244859992,764.4171024086522
1731655593.0670211,762.0317814784771,802.2967512771576,798.0702110237296,783.0800645352567
1731655593.0709176,808.8355453509381,806.1712350384021,798.2047634675001,809.4777087881522
1731655593.0728345,837.1640810498923,808.8234552934155,799.0055110822339,822.0802911063586
1731655593.074814,825.8279763654498,808.6519761652629,799.6505288601111,809.6904335666433
1731655593.0787106,783.1170665797329,805.7600918193775,799.8661106806516,780.3174720886662
1731655593.0790918,740.0769528934742,801.8516382303612,800.0509786676375,754.9892855595767
1731655593.0814488,726.2789394916838,798.9740581682673,800.766351568422,751.4860844876118
1731655593.082607,747.4482712479166,798.1336161053731,802.1012099598586,770.871975938256
1731655593.0865035,782.5689937941461,798.8602873575747,803.4935864929478,797.3975216658605
1731655593.0904002,802.2241918242778,799.9032744055805,804.1605814213424,811.6092162928459
1731655593.0942967,792.7503598216526,800.2724357950685,803.7551655412672,805.8589165451967
1731655593.0947175,766.3701648563282,799.7169600251713,802.687243745226,789.6006696806162
1731655593.0981932,749.5160999216018,798.469321366082,801.8577084501042,780.5116275761036
1731655593.1003232,759.8348246091211,796.8243322985376,802.0555092847043,789.2690420957806
1731655593.1020896,791.3694035748637,795.0975068260062,803.5019975594164,810.7418906236259
1731655593.105986,819.9293984711412,793.863846620708,805.8218326568904,828.555262366063
1731655593.1077793,823.5735566515946,793.947683444024,808.3338186523631,828.791238512903
1731655593.1098826,800.8546246318277,795.9235385787849,810.371837128564,811.3664845153079
1731655593.110343,771.7572257148261,799.5278777022356,811.4688213740806,789.8980014802626
1731655593.1137793,760.7842998397854,803.6098722649123,811.4342053023198,780.4005265537653
1731655593.1176758,776.4223997584813,806.7796538741951,810.3854593051024,788.2095713090908
1731655593.1191974,804.2122752353429,808.222604953243,808.6905555537946,803.9061959314542
1731655593.1215725,819.3540470020728,807.9648715414953,806.7578162640456,811.5968704022596
1731655593.1254687,808.361167687916,806.4256597853101,804.7578124988394,802.6211384799323
1731655593.1259685,781.3969821278281,803.8348715469017,802.511759528057,783.1337915493019
1731655593.1293652,764.4631493239177,800.224436190632,799.718886511576,769.1084773675341
1731655593.1332617,777.5447268936443,796.0132719545303,796.4165851024865,772.9787289252886
1731655593.1371582,816.8905391268195,792.4207765570529,793.3013840840744,793.2169908980235
1731655593.1380715,856.4463271568821,790.9906977662399,791.553176078915,815.5180170402756
1731655593.1410546,867.6957519089511,792.439991487821,792.1594567913851,824.3415597167912
1731655593.141594,842.066402103161,795.8871971935855,795.1800446487132,815.060909951917
1731655593.142724,797.9354528758477,799.3049595806029,799.5330396401021,796.8721978696482
1731655593.144951,766.5157986269347,800.9244895236463,803.5400778610132,784.5154534561007
1731655593.1488478,767.6675054868905,800.4115639354119,805.888744834038,785.9725995578411
1731655593.1527443,794.8414466110061,798.8503930127114,806.335941442752,796.3766525841517
1731655593.1566408,821.2791597162188,797.680644888634,805.6735600475299,803.0895723741353
1731655593.1569457,822.4532618788439,797.6135090702711,805.0347533720283,797.5359776972936
1731655593.1572194,796.3423811838541,798.3868723944057,805.0745193318057,783.5791621013428
1731655593.1605372,764.9022889254906,799.3174034500754,805.581283196037,774.997956185438
1731655593.1644337,755.7781880377154,799.9606273023716,805.7197347869467,783.8630623030635
1731655593.1683302,779.59697719158,800.3407693326574,804.6853977088944,809.5262622184614
1731655593.172227,821.3865436901408,800.7817745513433,802.3371923249626,837.6838290158292
1731655593.172845,852.6129786230741,801.6677246207097,799.4208115813019,850.7186316030999
1731655593.17582,853.6187097163136,803.2855580425281,797.2219989750698,841.2525847329371
1731655593.1761234,828.4889198802849,805.6397765075798,796.8060358341891,818.1524667835092
1731655593.177669,800.9415831547461,808.183526636104,798.2984875627884,800.0512618439792
1731655593.18002,794.8258205206291,809.7195415294918,800.741011054032,801.0861071957773
1731655593.1839163,814.75255170433,808.8402308187035,802.7311844354028,819.7667394915238
1731655593.1878128,842.4508508066934,804.8963408529365,803.4438602759501,839.9261653691409
1731655593.1884704,852.1990466465518,798.8673339848115,803.2283749348558,843.5451354998997
1731655593.1917093,833.0145040990574,793.3022367326969,803.2453421939617,825.5430968679389
1731655593.1946945,798.9084718374567,791.0748028999377,804.42098246043,798.3858531266004
1731655593.1956058,777.7710909892941,793.6618755461099,806.6220146201185,782.227574519589
1731655593.1995025,787.584686065778,800.1598030717543,808.7570947977907,788.3522869884996
1731655593.2033987,820.2040495350766,807.7980034879249,809.6601408630502,809.685402393255
1731655593.204096,847.1422580544328,813.6163360461246,808.9378756819455,826.5041608545422
1731655593.2072954,843.0708604794777,816.1169825869115,807.0933835230875,822.6974491044607
1731655593.211192,807.3885111924359,815.7737102406905,804.9615347351748,799.0488980648774
1731655593.2126138,765.6665101723464,814.216215678992,803.0623930319756,772.6892372553747
1731655593.2135684,749.5364061458228,812.9087698682681,801.41197030742,763.4797308634862
1731655593.2150884,771.2658215118362,812.3657683274953,799.8155990014536,778.5758655044825
1731655593.2189848,813.5683567872082,812.2901177930819,798.2537267798506,807.3858487443683
1731655593.2197216,843.0583603335393,812.201270103082,796.985737967777,830.4432532821787
1731655593.2228813,836.79049138966,811.8921171301114,796.3257717754807,834.6392905230366
1731655593.2267778,800.4402984189959,811.451014267198,796.3350145179475,822.4854888022769
1731655593.2306745,763.1285111018777,811.0446865742817,796.7090526149582,808.2667525055846
1731655593.2324426,753.1671199151942,810.7516896604114,796.9655019871764,804.895239134548
1731655593.234571,775.0972505720831,810.5471312518014,796.8223198908746,812.9155926698379
1731655593.235347,807.1412169345798,810.3691521597042,796.5128751081272,820.9472238405975
1731655593.2384677,820.5611461935276,810.1757724511224,796.7712573636464,816.7917030721824
1731655593.242364,803.9850860552176,809.9588525139933,798.3962084926394,799.2725052522705
1731655593.2462604,772.3714650629531,809.7295827023507,801.6211955072076,780.4503410342426
1731655593.2475586,753.9562699714487,809.5003743387043,805.7478038640592,776.2177695043932
1731655593.2501569,766.7449395850784,809.2763800605419,809.3839841146885,793.0287662432812
1731655593.2509725,803.8009340331248,809.0564062830471,811.197939977149,821.6189148617144
1731655593.251317,838.6972007927053,808.8372777928533,810.7004736589178,842.965423923518
1731655593.2540534,846.4198602827657,808.6169542074343,808.5335457155065,842.2025623885005
1731655593.25795,823.1842196633095,808.3951610861093,806.0804874905422,819.9642005506133
1731655593.2618463,789.4814981175949,808.1725578979515,804.6589178832901,792.2348618084226
1731655593.265743,773.6496670237126,807.9497968610959,804.8155492823419,778.3614563053279
1731655593.266598,788.8918257783998,807.7271230638479,806.1554803884778,786.2691724851796
1731655593.2696395,822.4689530507604,807.5044572876661,807.7561743621139,806.5911582657017
1731655593.2701912,846.1991097730132,807.2816345281392,808.8064221768369,820.5686664285871
1731655593.273536,839.7630815335641,807.0585598754193,809.0090817882184,815.4089253202216
1731655593.2774324,807.5534551218524,806.8352305392856,808.5730494669326,794.6221001318708
1731655593.281329,775.217828994558,806.61168604856,807.976957430813,774.9984767144435
1731655593.2822237,768.9409066853254,806.3879598774847,807.7355387870006,772.8602887191477
1731655593.2825034,794.5271733035223,806.164065356054,808.1751204560695,790.8493685208553
1731655593.2852256,833.114349111796,805.9400088217102,809.1384905072557,815.8419423993081
1731655593.2890654,856.6587688854905,805.7158051802505,809.7957348353356,829.4946579311649
1731655593.289122,850.4918821268784,805.4914741419191,808.9685097320584,822.8678649104652
1731655593.2930186,824.6390545677145,805.2670131003977,806.0634247459133,803.3808909939692
1731655593.2969153,804.602232871556,805.0423690765805,801.9607721937114,788.4718786388635
1731655593.2978487,809.1233513091336,804.8174535947626,798.8543187181689,791.0828609868285
1731655593.3008115,833.554390753983,804.5922332911442,798.7590456082622,808.9099503083489
1731655593.304708,853.1376354241678,804.3668611109306,801.7346563766096,826.4119979820557
1731655593.3079395,843.802898762508,804.141709175102,805.4540074336489,827.9775790925914
1731655593.3086045,803.1658326229445,803.9171251322838,806.7614006848489,811.2290372596602
1731655593.3125012,754.139685656945,803.6929002855929,804.0958594918117,789.2650484120976
1731655593.3134744,728.0314741618272,803.4678410537526,798.7900672242923,779.9371255824478
1731655593.3163977,740.746630890017,803.2402039976986,794.1539703280278,791.1353260451208
1731655593.3174484,780.9988755605406,803.0095074070765,793.0841884167916,814.3261883310009
1731655593.320294,819.4908750912529,802.7789117786539,796.0808412119561,831.5950074810786
1731655593.3241906,831.3878842753118,802.5554631678997,801.1122210191712,830.202937123424
1731655593.326814,814.2492231781966,802.3450104050536,805.2407969923637,812.5716084242605
1731655593.328087,787.5973149012989,802.1421188360138,806.6100147810575,793.5838971040621
1731655593.3291,775.1848424056009,801.9230028968454,805.2987637344917,787.721149351421
1731655593.3319836,784.9867414314302,801.6557474413489,802.6464890753073,797.0030452511553
1731655593.33588,803.6100239792709,801.3358669696678,799.932938146212,809.9092437183084
1731655593.3397765,809.4944344800555,801.029041247167,797.6481602911817,812.0489383933702
1731655593.3436732,793.1414954030065,800.8681737341024,795.7870213949705,799.2652449683358
1731655593.3447256,766.5575623055412,800.9476911544426,794.5255096657995,781.7831606106381
1731655593.345688,753.4880704439998,801.1300722572861,794.3773173328932,775.7205039286785
1731655593.3475697,768.6680432335216,800.9221784823328,795.6663066765691,789.0780184818973
1731655593.3514662,803.844550431714,799.6714731705769,797.9911208632263,814.0198932203472
1731655593.3523932,832.8051817039549,797.1526735641708,800.3622827401342,832.09767573646
1731655593.355363,831.8850133756068,794.1172937399717,801.9157848855273,828.4978366381796
1731655593.3592591,799.4409939461518,792.104893638813,802.476438632317,803.9888783104551
1731655593.360351,758.1811200197122,792.4153409122441,802.4496700195125,774.8794521185981
1731655593.3631556,737.8819541240359,795.1089792858343,802.2630874375133,760.7237924884154
1731655593.3645625,752.0696628314284,798.965322382455,802.0046952668306,769.3526819596876
1731655593.367052,787.5612227554412,802.3836131646502,801.602786159812,791.1927286989211
1731655593.3709488,815.5922586930611,804.413171356742,801.2680907544359,807.5654844428684
1731655593.3748453,815.532719338435,805.1843767662333,801.642555977463,806.2844520372828
1731655593.3759766,791.6076584220448,805.6137728651571,803.4023164424218,791.6899730567233
1731655593.3787415,768.8072656504772,806.7135379807995,806.6056868019623,780.7345899263817
1731655593.3826382,771.6098890819816,808.9126284845048,810.3563419386036,788.3852871827406
1731655593.3834364,803.3585571160622,811.6922002797298,813.1408790699297,814.5831256052148
1731655593.3865347,843.2021917724323,813.7353109222141,813.6815574930133,843.6537370349411
1731655593.387338,862.8035029153741,813.6239290181597,811.7285469027124,856.68986640493
1731655593.3904312,849.1047105487968,810.7877577038485,808.2249343780438,846.7891450623292
1731655593.391602,814.901509004515,806.0913827703721,804.716645182174,824.6999056591071
1731655593.3943276,788.8114591223699,801.5124769561437,802.4228360865919,810.1296171180966
1731655593.3982244,792.5676929605104,798.9586365091383,801.6071591753959,815.6211678439863
1731655593.4021208,823.7626753457258,798.9966506839143,801.6213477770759,836.2012794274905
1731655593.4023108,857.9892411351842,800.4578977984723,801.4813618850674,853.5338027929704
1731655593.4060173,868.7190679067928,801.2753663109153,800.5332004539827,851.3434429011105
1731655593.4072275,848.7786622749552,799.971419089149,798.8524167487464,829.342460371097
1731655593.4099138,815.9911420119366,796.7201510281171,797.2626054532658,804.0456471376468
1731655593.4138105,798.5761802796728,793.2279457591184,796.9860385760899,795.8088028366237
1731655593.4177067,812.3436764629212,791.540958887641,799.0110269785605,812.774827715207
1731655593.421185,848.0501869362874,792.6602975218939,803.4396025876105,844.6070046725812
1731655593.4216032,878.7393633664265,795.9617321933735,809.2348288895109,870.5499717252928
1731655593.4222827,880.910147205747,799.7734880267635,814.6203532789615,874.9592189371626
1731655593.422853,852.766092113864,802.5620472113307,817.9203518398509,858.2104575707876
1731655593.4255,815.3878556220479,803.7746179494111,818.2881029653389,835.1673027330111
1731655593.4293964,795.9967778232241,803.8188218579373,815.8938469397216,823.0400243132855
1731655593.4332929,806.443605020822,803.449699048731,811.5990652040688,828.2027203901648
1731655593.437189,834.0636978119749,803.1985259302029,806.4973022105045,842.0318643143424
1731655593.4384787,852.4930435407749,803.2037683044946,801.6527767818695,848.8102775701814
1731655593.4400592,843.8731167903795,803.3595462409111,798.0317951661785,839.253097800408
1731655593.4410858,814.1588028273065,803.5246939340669,796.3904397905007,818.5778603202808
1731655593.4449823,788.5548046472069,803.6322515032616,797.0048812463629,802.3348363656172
1731655593.4488788,790.5612204894211,803.6893759620438,799.4384317640541,803.3457709205751
1731655593.4527752,821.9957944917394,803.7307371664771,802.6435520176254,820.6894429667625
1731655593.4541042,860.7339871166118,803.781212411453,805.4480010644357,840.0753798811074
1731655593.456672,878.1567050980582,803.8459433904503,807.1231182860623,845.3856135896345
1731655593.4572277,861.9647542411122,803.9183850815568,807.6364317472065,831.8528047771604
1731655593.4589334,825.7505815483951,803.9910647315168,807.4505800012358,810.0820590278447
1731655593.4605684,797.6618193185578,804.0607851068831,807.0976976994494,797.6317746799368
1731655593.464465,797.4544766303395,804.1281892276883,806.8775533797456,804.8505069178368
1731655593.4683614,820.6742745074012,804.1951736086947,806.8260528142907,826.3191935344626
1731655593.4697297,843.0573963562126,804.2629928993506,806.8501399046529,844.9700428064989
1731655593.472258,841.6288183997862,804.331845850574,806.8617157904637,845.8201266419497
1731655593.4761543,814.7406019285686,804.401356847609,806.8305933235864,828.1680157112207
1731655593.4778078,783.7857885299038,804.4711421328591,806.7705822011579,806.0085860948302
1731655593.4800508,774.850692877236,804.5410594591984,806.7058576989555,796.1611311439768
1731655593.4839475,795.9580809110425,804.6111657474834,806.6499763718155,804.1251389511576
1731655593.4853551,829.476329909486,804.681573890932,806.6034743762999,819.7116563598689
1731655593.487844,846.2747889171909,804.7523521447854,806.5609650633966,826.0888570278739
1731655593.4917405,829.7766229139789,804.8235022413394,806.5178884725888,814.3854922152452
1731655593.4921725,789.9547292975873,804.894988663575,806.472895100364,791.4158802726924
1731655593.4956367,755.8333468441592,804.9667841190671,806.4268641055156,774.1348780454879
1731655593.496682,752.5785665098298,805.0389084845353,806.3810884935068,775.6191883230987
1731655593.4995334,781.5276697388873,805.1114394571615,806.3362362400038,794.2508504477368
1731655593.5009806,819.1142723670295,805.1844675056205,806.2922940639097,814.9554385266686
1731655593.50343,835.6679443602425,805.2579886222286,806.2489686992833,821.4350286191357
1731655593.5073264,819.117949332042,805.3317987867941,806.2060340812558,809.3980173189381
1731655593.5112233,784.3847989330355,805.4055373663673,806.1634383485709,789.9627485215651
1731655593.5151196,760.6659202282036,805.4790111842053,806.1212407479476,780.4037603049024
1731655593.515556,767.0457395588729,805.5527018976023,806.0795148475823,789.7658628828416
1731655593.516606,796.6209226281151,805.6279645938301,806.0382977423363,811.0738705482548
1731655593.519016,822.1678162872137,805.7062205486851,805.997590763287,826.4962276983923
1731655593.5229125,818.4811896735654,805.7869833758461,805.9573818798482,821.4181795828717
1731655593.526809,783.097646079821,805.866039929934,805.9176634267164,796.3719018831845
1731655593.5271173,738.9065821925361,805.9366354609299,805.8784367436488,767.4902666350819
1731655593.5307057,716.8473966776176,805.9959260413885,805.8397082899615,754.9767353309232
1731655593.5322316,732.3173623851214,806.0543080574041,805.8014845217069,768.1804721980563
1731655593.5344305,773.4342827872356,806.1378863974743,805.7637694374569,798.4993836494326
1731655593.534602,810.153732471943,806.2714138473509,805.7265648043909,825.6193268975145
1731655593.5384986,817.4071511535419,806.4406652384041,805.6898713952377,832.5980613284704
1731655593.542395,794.4129660387456,806.5618723248014,805.6536898871393,818.3075661154694
1731655593.5462916,764.732624867495,806.5126642077837,805.6180210541298,797.421468164739
1731655593.5478573,756.6651686773068,806.2631126517832,805.582865536532,787.9081535420186
1731655593.550188,779.7822958320718,806.0552909777514,805.5482235736403,796.3161280817402
1731655593.553305,816.9845218555655,806.4534920640485,805.5140948889284,813.0953108963578
1731655593.5540843,838.712786772441,808.0784069621473,805.480478714049,821.7061489586135
1731655593.557981,827.5598721881966,811.0933047469794,805.4473738592181,813.5537052011517
1731655593.5618775,793.081814357186,814.846039913472,805.4147787615038,795.9313853918205
1731655593.562062,764.7798385679814,818.0378999159033,805.3826914955955,786.1378496982778
1731655593.5634828,768.7918243882996,819.347241126267,805.3511097640787,796.547103020584
1731655593.565774,806.7034875288235,818.0856971266103,805.320030887535,823.0862479304894
1731655593.569671,853.3696177564134,814.5077931316716,805.2894518035064,847.094825752922
1731655593.5721788,875.9868148447121,809.6566268568627,805.2593690728606,849.7202036937995
1731655593.5735672,859.7701924734125,804.888008056098,805.2297788884871,827.365671881773
1731655593.5774636,819.6129865138591,801.3659285466866,805.2006770828698,795.169129704482
1731655593.5791082,787.8072058762918,799.7754044282659,805.1720591339301,775.0583821651278
1731655593.58136,787.652828681627,800.2778437895289,805.1439201701352,778.0669369670229
1731655593.5852566,815.0272538838034,802.5590928532607,805.1162549759216,795.8455254184933
1731655593.5891533,843.3619744535538,805.8873631523273,805.0890579978466,808.5791810244114
1731655593.591053,847.2411270109641,809.2814464618397,805.0623233513329,802.3825457579121
1731655593.5930495,823.9518331699895,811.8651384182997,805.0360448277231,781.2115633097953
1731655593.5947337,794.7566342709266,813.218210636932,805.010215901487,763.3247855281791
1731655593.5969462,785.6341170773219,813.4130574081818,804.9848297376031,765.6310505245253
1731655593.5970068,804.601605903541,812.713831223572,804.9598791992016,789.2901251994122
1731655593.6008427,834.9438499320527,811.2961673723319,804.9353568554718,818.5168477936337
1731655593.6047392,849.6969509645016,809.3029061394012,804.9112549896871,833.3329632711067
1731655593.6086357,834.7716359941395,807.1011034726304,804.8875656071157,825.5172679786123
1731655593.6099272,801.0329503243552,805.3154307477334,804.8642804427901,804.6224035398312
1731655593.6103592,775.1244020459034,804.451980406742,804.8413909695893,789.3859937094053
1731655593.612532,776.8252266882503,804.4083330793379,804.8188884075355,791.9665899488002
1731655593.6164286,802.158858196094,804.3551210542121,804.7967637349047,808.1542132171471
1731655593.620325,826.6361974257646,803.204984123937,804.7750077001632,821.4989595690613
1731655593.6242218,825.9506724001016,800.4236491795783,804.7536108314819,817.6844901135
1731655593.625985,796.7223121849131,796.6309614561908,804.732563440037,797.1093598843528
1731655593.6281185,760.028713042845,793.4814179907877,804.7118556175454,775.2895305328244
1731655593.6288016,744.913257911606,792.7290724905839,804.6914772376904,770.71313389673
1731655593.6319518,765.2550315070652,794.9909174713339,804.6714179784625,789.8331989137239
1731655593.6320148,808.3283870040669,799.1088353061175,804.6516673748358,821.1145346704263
1731655593.6359112,844.0212648235519,802.7404898844918,804.6322148797906,843.045085543104
1731655593.6398077,847.7141128804814,803.9028917386216,804.6130498705945,840.2121726173209
1731655593.64161,819.1387230456287,802.3379741730796,804.5941615333201,815.0440143076032
1731655593.6437042,782.2603836034752,799.6129154237435,804.5755386468586,785.8479843003471
1731655593.647601,765.9487515206383,797.8926678934296,804.5571694621622,772.515134496034
1731655593.6476758,780.8024867236207,798.4082926585859,804.5390419938171,781.3083033646197
1731655593.6514974,810.985514157324,800.7823969507051,804.5211448624548,800.9546712430803
1731655593.6553938,827.7475497322656,803.529219974786,804.5034682096298,812.8597967204436
1731655593.657236,813.3923964909649,805.1136296212964,804.486003467021,806.6450289157882
1731655593.6592903,776.0002642090067,804.7326126759488,804.4687408114876,788.2581054260426
1731655593.6631868,743.1453998777657,802.4644495722563,804.451664951684,774.5487171957471
1731655593.66655,740.0528903139854,799.0157219953546,804.4347531740019,779.309702381765
1731655593.6668966,769.7959066123022,795.466732491036,804.4179815016632,802.1723773671115
1731655593.6670833,811.0349874604765,793.134932719885,804.4013407921583,828.9158787961853
1731655593.6709795,834.8574895306006,793.3252919900999,804.3848525721908,842.6119916527628
1731655593.672861,827.4070713474989,796.7516419027644,804.3685612592047,836.7064256775941
1731655593.6748762,800.3627403505736,802.8552663261693,804.3524827695217,819.7222293544821
1731655593.6787727,780.7432176101926,809.6589712554497,804.3365263830317,807.8612087878467
1731655593.6826694,788.1925263934575,814.6031556318721,804.3204679898024,811.4989728763189
1731655593.685424,818.47792992831,815.9987110736691,804.3040817865099,826.6694562986168
1731655593.686566,847.0395759417141,814.0295304165654,804.2874491826897,838.6452763688474
1731655593.6884868,849.6687021287887,810.4466239843824,804.2712309546441,834.7012910568283
1731655593.6904624,823.0020835308344,807.1778017195054,804.2564582856486,815.4411420711871
1731655593.6943588,787.8114997490384,805.0481537804296,804.2435082692228,795.1528711808118
1731655593.6982553,772.5226812029454,803.683980162643,804.2306713900663,790.6540887387189
1731655593.7018414,790.5750668953393,802.5239584211613,804.2138522836079,807.5678357398806
1731655593.7021518,829.8659788593042,801.8041083418137,804.1893424241119,835.1904145190463
1731655593.7041123,862.4581869211606,802.4635868423782,804.1597100505808,854.3269916447571
1731655593.7042985,866.5850984212854,805.0398202322802,804.138383130622,852.1459441141725
1731655593.7060485,843.4289241898807,808.6644674526262,804.1445380588219,832.3339601747251
1731655593.709945,815.3065280801618,811.2326840422875,804.1828911537644,812.1910221579458
1731655593.7138414,806.700853023661,810.7562280600748,804.2178246772052,808.5693727028882
1731655593.717738,823.7199749418172,806.8281528656291,804.1721960938839,823.9370400682278
1731655593.7197378,849.2806995366241,801.0059760502643,803.9860778632818,844.3329575017207
1731655593.7216344,858.2447547063008,795.8371648366752,803.7319164692357,851.2820623427662
1731655593.723173,839.5602298492479,793.3419286695445,803.700863641584,837.6824303087424
1731655593.7255309,806.3327144245918,794.0692167508481,804.319048329731,813.998866451694
1731655593.729427,785.2298796486062,797.1910437467452,805.8397313253107,799.3963410663512
1731655593.7333238,794.3214245881791,801.2207934733361,807.9979897467489,805.4600240130243
1731655593.7353632,827.9295003495869,804.6563054465892,809.9672540854768,826.4005679232629
1731655593.736786,860.7685242977464,806.2741236990394,810.7579164126814,843.8855560660195
1731655593.7372203,867.7017731561588,805.3241476805888,809.7937754889494,842.1892348826456
1731655593.741117,843.17086576265,801.8762665855277,807.2358113680356,820.9137702705177
1731655593.7420468,805.0487467051843,797.1083994041254,803.8483732160047,794.8991499861978
1731655593.7450137,780.1398156955058,793.0416704015755,800.5453323575699,781.7461772261265
1731655593.74891,782.9798978671716,791.5878946462504,797.9251356314242,787.5477912239164
1731655593.7509887,804.8640211596075,793.4689837078638,796.060361516239,802.6457348791046
1731655593.7528064,821.8476354378113,797.8202207205836,794.6387599538259,810.6308317028479
1731655593.756703,815.0639470950032,802.7618751141982,793.3446098351214,802.6735259839637
1731655593.7605994,786.5778180965525,806.4434753131533,792.2113584939569,784.9924488764218
1731655593.760921,757.7149670153118,807.8157555634085,791.6786416789897,773.3246534367222
1731655593.764496,751.3394651232738,806.8142458429817,792.2891538082717,779.288294392522
1731655593.7666144,772.7137964171852,804.1710441755226,794.2403972227056,800.1498379555783
1731655593.7683926,804.600867418435,801.1532492387825,797.1382460325792,820.4593050693388
1731655593.7717311,820.6922589045712,799.2318415020219,800.1545225756261,824.2178804607169
1731655593.772289,806.7564488122239,799.5280555299981,802.4746655185512,807.7767426847594
1731655593.7761855,772.5763241460886,802.1545460513842,803.6972995245131,783.1041860903129
1731655593.7797954,744.7313423149513,805.957704520424,803.9040536706158,768.666578708539
1731655593.780082,745.4626834941346,809.0981360411305,803.4022167347892,775.0056728060014
1731655593.78224,774.4821039530674,810.2390605265483,802.4112828699801,796.4725903948278
1731655593.7839785,808.8915740747634,809.4475318957158,800.9922598648145,815.8652754838029
1731655593.7878747,821.861793094997,808.0252585077884,799.2782755082158,818.3888383210232
1731655593.7917717,804.9017697702013,807.4054166083474,797.7524027323467,803.6664598579282
1731655593.795668,775.0584508584192,808.0949326918864,797.2163345637754,785.9716496450526
1731655593.7978654,760.8051690352519,809.533029385407,798.3342442993165,782.4712280223399
1731655593.7986696,778.2863711834394,810.8055841116775,801.0396643356107,799.0624031549163
1731655593.7995646,817.5904734029018,811.3897422321032,804.2918238191202,825.2055121893496
1731655593.8034613,850.2604738578915,811.2480334492078,806.462942413934,841.7899874866863
1731655593.806676,851.8285417433466,810.3934299120862,806.1981595284052,835.8147841472007
1731655593.8073575,821.1337371848847,808.6166837882988,803.2591840978491,810.5242449468716
1731655593.811254,780.9477485138166,805.821257133753,798.8402647145617,783.1989623601892
1731655593.8134909,759.5761996805169,802.6292516169601,795.1025287924294,772.2108715420623
1731655593.8151505,768.5115029537438,800.4565008776044,794.0858962985284,783.2472863458032
1731655593.8175435,794.3993054873873,800.6732495420287,796.5677944896215,805.4690449128541
1731655593.819047,811.737278288061,803.4232139827513,801.596157549313,820.7539792782645
1731655593.8229437,805.4453080203434,807.194422050028,807.0846620146148,818.6722487421293
1731655593.8268402,784.1365393549711,809.7068602207363,811.1078253355098,804.9016052706824
1731655593.8291163,772.7424587663445,809.5263378284232,812.9464508112252,795.9517866742843
1731655593.8307366,790.6484346680735,807.1083764419782,813.119320254635,804.5058098806333
1731655593.834633,833.8181215743263,804.4050507208914,812.5250649812784,827.7812118530054
1731655593.8364182,876.0804035711666,803.366466901848,811.5850722223119,848.935224328281
1731655593.8385296,888.8457722244027,804.5695459751503,810.1672928745783,850.6065258023995
1731655593.8416207,863.4732563170762,807.0269065102976,808.2146592389524,829.5041372959118
1731655593.842426,818.4161567462621,809.1728452137859,806.2861649962803,799.9711806264006
1731655593.8447418,785.340804459157,810.0675409215868,805.349800372584,783.3259819924743
1731655593.8463223,784.9648231469756,809.8265588147494,805.9702689339211,791.303713989255
1731655593.8502192,811.6065887125734,809.0940137685783,807.6773759295231,816.8676297378406
1731655593.8541155,838.7563297173672,808.2107474911194,809.1472518783428,839.8854947264598
1731655593.8552923,841.1405839784427,806.8616891654982,809.0606012603107,843.088639522611
1731655593.8580122,815.1776057986568,804.4406249009639,806.9035362029502,825.269855852744
1731655593.8603673,781.0395929113851,800.738827306341,803.1126012893744,801.0982867507461
1731655593.861909,765.0494252875116,796.3566910396269,798.6236452881271,788.2335607551265
1731655593.8658051,777.5950463476305,792.5012351407046,794.357992048941,792.8593337031616
1731655593.8697016,805.0008439775273,790.2910404712385,791.046088200107,805.5290147173114
1731655593.873598,821.5386606958886,790.0442660769933,789.3062402159378,810.147062899722
1731655593.8741665,811.0437938851155,791.0809546333317,789.6348170780007,798.0823250755813
1731655593.875993,780.3472457676692,792.2600966281647,792.1628393818929,775.7063912204762
1731655593.8765657,753.9337890310998,792.9239496120405,796.4037175827002,759.4355923144204
1731655593.8774948,754.2522082895441,793.5101949603458,801.3278391044528,762.4523916568168
1731655593.8813913,783.2742453654793,795.2364242366007,805.83389631775,783.8070193372448
1731655593.8852878,820.0954374859483,798.996840256584,809.3070835506519,808.763430798016
1731655593.8891842,837.02575274122,804.3667025768982,811.8269466346394,820.3852027408665
1731655593.8916185,821.7248925233733,809.6327438643564,813.8563837288208,813.1357155379986
1731655593.893041,787.4076281404007,812.9189565856769,815.6908722927953,797.2260127051564
1731655593.8930807,762.365143988193,813.4981337096311,817.1617060277047,789.833333016542
1731655593.8969772,767.0848388328552,812.2000944471215,817.8420157663048,800.3632910096188
1731655593.9008737,797.7363529193799,810.6239520788326,817.5123088791814,822.1704074355612
1731655593.9047704,829.5204772023067,809.8834436459641,816.3889439951572,837.8000941024379
1731655593.907244,836.8476461999018,809.9325784447019,814.8813554330077,833.3886130946778
1731655593.9086668,813.7092833132333,809.9106742402112,813.1683000204777,810.2426929670696
1731655593.9115102,778.0357245369394,809.0495957364326,811.1059698727661,784.1450709219029
1731655593.9119153,757.1103860446569,807.3198397143386,808.6237487137847,773.0602893927534
1731655593.912563,766.0106139167565,805.3718770404375,806.1814304196333,783.1598680528493
1731655593.9164598,796.1610019495944,803.9779494781257,804.7062181963483,804.3206402426283
1731655593.9203565,822.9454878009518,803.5055566111606,804.9281526914691,818.7321764113959
1731655593.9228694,826.1410630533711,803.7897610845157,806.6874468164316,815.701183557755
1731655593.9242527,806.4034764113262,804.3840552755464,808.8832767025884,800.4356208950971
1731655593.9281492,784.0382392500765,804.9102563613278,810.1529505467425,789.2789616296778
1731655593.9307892,781.0869900050329,805.2480896386608,809.7244953986816,795.240441192098
1731655593.9320457,802.0700556712031,805.5096049078688,807.8008862180343,816.1815299295446
1731655593.9359424,829.9403018725357,805.9092505386606,805.2884393233744,836.0026535317079
1731655593.9384947,840.652991941265,806.6206698866605,803.1705494099053,838.0747572467526
1731655593.939839,823.7785688670967,807.6026565767086,801.9837463051246,819.5709972542576
1731655593.9437354,791.6313209311988,808.4119316489141,801.6831653763662,794.4802232739949
1731655593.9464552,769.3393329068824,808.2079522174622,801.8749916700193,782.6134376805193
1731655593.9476318,774.2667322417801,806.1699293781792,802.1602264532866,793.626337205035
1731655593.9496634,801.8683153982321,802.1779588422903,802.3364601772839,819.1827425024607
1731655593.9515283,829.6657456368744,797.1942861743943,802.3936443240036,839.7044165473964
1731655593.9541204,836.1674828584529,792.8790094311024,802.404641788429,840.273950245786
1731655593.9554248,819.0701050374989,790.619177435759,802.4304601822035,822.698405717201
1731655593.9593213,797.2109515456829,790.7029150001416,802.4882535858361,803.662890005852
1731655593.963218,794.1061179591926,792.2520339922503,802.5654013722665,800.337056934782
1731655593.9671144,816.8815096986629,793.8821545519764,802.6443039493269,815.5434497574851
1731655593.9685376,848.9755318187591,794.5377865511593,802.7161970507077,835.2486790779037
1731655593.969746,863.4062532135401,793.9622847739532,802.7815835566871,840.6332499573243
1731655593.9710107,845.5530762661449,792.6438075424419,802.8446334125131,824.3948465896939
1731655593.9749074,806.135929748997,791.4197766370982,802.9084867902427,797.3914444301863
1731655593.978804,773.4684287765798,791.020962410542,802.9738791979103,780.1486396570135
1731655593.9814,771.4118493596496,791.7593796564529,803.0400531507034,786.4769647982511
1731655593.9827003,800.9016984990234,793.442030551763,803.106082795487,812.5957729034543
1731655593.9853716,839.5162612712274,795.4938054922267,803.1715481777995,840.1663024683897
1731655593.9865968,858.9747078237505,797.2233864348235,803.236508641279,850.3648281967633
1731655593.987412,846.6576153634642,798.1558408305382,803.3011919273393,837.839225701453
1731655593.9904935,814.5354317900575,798.3263667998707,803.365755995064,814.0285741994899
1731655593.99439,788.822153664971,798.3596057634409,803.4302313876906,797.7189883991525
1731655593.9982865,788.6947445455208,799.1683883111275,803.4945765599895,800.3688031865532
1731655594.0009973,811.1371680235418,801.3424502767908,803.5587448826641,817.5829585382787
1731655594.002183,834.1971176646076,804.6449587998482,803.6227120065445,833.247925265744
1731655594.0060794,835.9307803989028,808.0873170621203,803.6864692300799,832.8642084648368
1731655594.006286,813.2366026315502,810.5925653181156,803.7500131624718,815.3637075057028
1731655594.009976,784.8322232094197,811.6896381843197,803.8133526013484,794.0486821385115
1731655594.0138724,775.9151402133259,811.6637734278153,803.8765259059945,786.0959460230788
1731655594.0163448,797.2499384484513,811.1563449371489,803.9395971503473,799.1003753368501
1731655594.0166223,835.8412315577478,810.6777272886883,804.0026005008226,825.236234811924
1731655594.017769,864.7263013860908,810.4078802078882,804.065447322213,847.4464540846334
1731655594.0216656,863.9699958667801,810.2868635245251,804.1278869239725,852.649592199785
1731655594.0251603,836.0305669058172,810.1938147160447,804.1896524481784,841.4885409355956
1731655594.025562,803.1801553098759,810.0587502362531,804.2508257816312,826.8283631872234
1731655594.0294583,789.1118901894547,809.8777914480777,804.3121804498876,822.2348900700443
1731655594.032248,799.8712465129289,809.6780671844824,804.3749737753774,830.0823537276468
1731655594.033355,820.0129073602398,809.4831438808221,804.4397595135702,839.5746192384639
1731655594.0372517,827.1774983950521,809.3003568538198,804.5046478468561,836.6532952179849
1731655594.041148,812.4695056639671,809.1254950972092,804.5648094321094,817.314453085206
1731655594.0440345,788.8271955756153,808.9520256474514,804.6155951229221,792.5664764250772
1731655594.0450444,779.860010208785,808.776508031315,804.65953322588,780.3057265265539
1731655594.0478735,798.5773464973582,808.5989888042549,804.712178047279,790.6227843705778
1731655594.0489411,834.3180920819894,808.4209920899867,804.7967900284826,816.7252826256088
1731655594.0512896,859.4419997581743,808.2437323815104,804.9207845241887,839.1557767813496
1731655594.0528376,850.8269025300465,808.067539547669,805.0440590906363,840.2767089988907
1731655594.056734,808.7853194371368,807.8921642779524,805.0746470619384,817.7433302477905
1731655594.0606306,757.8924240041295,807.7172714452868,804.9348150455871,786.3202219207634
1731655594.062909,728.808074523466,807.5427062992866,804.6966570888088,766.4822963251909
1731655594.063499,735.5037831812401,807.3684965094343,804.6874679132688,768.7652064159603
1731655594.064527,765.8885972574286,807.19473827675,805.387637988498,786.3539162218063
1731655594.0684235,792.9125855525465,807.0215020904524,807.043531371953,801.7930519711623
1731655594.07232,796.8151244306398,806.8488052405061,809.252589088531,802.1155357852346
1731655594.0762167,780.4928551678407,806.6766330309728,811.0077883744322,789.6943725439319
1731655594.0791245,765.8222223445111,806.5049742984695,811.3405862849338,779.750607771158
1731655594.0801132,774.29409380674,806.3338466948873,810.0306883937533,786.7475849735865
1731655594.0817833,807.9225641759423,806.1632972212294,807.7189013450856,811.2482963799177
1731655594.0840096,846.0736693186468,805.9933697396012,805.3657081699725,838.333002896725
1731655594.0862346,861.0937087135262,805.8240478728274,803.603559018918,849.005313997338
1731655594.087906,840.502434114449,805.6552167637105,802.5150396791985,835.3268241887937
1731655594.0918026,797.8403307652579,805.4867166063374,801.8786515415994,806.9471928197904
1731655594.09475,762.8365045883698,805.3185286250488,801.520537037484,783.6208952925502
1731655594.0956993,758.2574104632229,805.1509995279612,801.4342922467703,779.7065516590653
1731655594.0995955,782.2257451161216,804.9848311263443,801.6430679797421,793.2836337824709
1731655594.1006572,810.7905516731643,804.8205399557285,802.0260439468899,808.7391983114717
1731655594.1034925,818.6662423840718,804.6574695653657,802.3246553900238,810.4376356275728
1731655594.1073887,800.6040535501471,804.4931975278317,802.3354173280778,795.8819057043897
1731655594.1103756,775.3867227891664,804.3247225005919,802.082369461707,777.4703630198362
1731655594.1112852,769.3887474706952,804.1520671840689,801.7746890391232,771.7777871398291
1731655594.1151817,793.8820749180148,803.9822654045078,801.6062912586735,785.6099715883411
1731655594.1190782,835.038007283581,803.8284500987942,801.6210723832029,810.2578234367749
1731655594.1195314,864.4964304488917,803.6988788308421,801.7429380653631,828.2182483405603
1731655594.121179,861.5355406096036,803.5785317144621,801.878516282007,826.6796753403836
1731655594.1229746,829.1121477077443,803.4202706487733,801.9810441895875,807.2074066101756
1731655594.1260011,791.4353476165801,803.1713747030834,802.051612286447,784.3611797368403
1731655594.126871,775.2232040158908,802.8446654440874,802.1107438452527,774.428530389588
1731655594.1307678,789.2983042061368,802.592624886001,802.174344040169,782.933104577435
1731655594.1346643,818.481084196457,802.6888741489809,802.2463477138558,800.6914627074983
1731655594.1384058,836.5909690755601,803.3460984831155,802.3230711410159,811.6986655778456
1731655594.1385608,828.0581631583708,804.4597458087547,802.3998534238178,806.5711586704239
1731655594.1416266,800.5501938108827,805.5329519297685,802.4745251499844,790.4363607290296
1731655594.1424572,778.3839658389289,805.9527971901541,802.547343690735,778.5792863300709
1731655594.1463535,782.3836493147925,805.4584196363846,802.6194494531801,783.4661953399049
1731655594.1502502,812.8355227645084,804.4265377715448,802.6916507434446,804.0999367699098
1731655594.154147,849.1633105131865,803.727027109662,802.7641090527106,826.5937835735517
1731655594.156124,865.979426202502,804.2039203134161,802.836607984989,835.2927666722346
1731655594.157252,852.2879962585548,806.0606387796709,802.9089050055848,825.1003591028842
1731655594.15728,818.934271743088,808.5054442516364,802.9808990018083,805.038163945972
1731655594.1580434,789.1678270984254,809.9676715450867,803.0526139773663,790.4756948009845
1731655594.16194,780.1892097687514,808.9628913702716,803.1241139045792,790.5850839383444
1731655594.1658363,790.2415057213195,805.221373650324,803.1954411893322,801.2755870183142
1731655594.1697328,801.4980175900979,800.2661012661222,803.2666037338897,809.3726079290718
1731655594.1728776,796.5046686341315,796.7529633650844,803.337590970999,804.5469270835265
1731655594.1736293,774.5065646415673,796.7521992873156,803.4083923309036,788.8663716200844
1731655594.176154,753.3310075898858,800.1544771288617,803.4790052142978,775.5972732295148
1731655594.1775258,754.3086877628563,804.5434265712361,803.5494334722221,777.9395222691405
1731655594.1814222,782.6034083533161,806.8328551270757,803.619682754993,797.1407342814454
1731655594.1853187,820.161635692313,805.5109586688055,803.6897574206923,820.2661970501472
1731655594.188503,838.3920828540547,801.7584357822903,803.7596600432817,829.9377296458175
1731655594.1892154,820.9622270751154,798.5762463705304,803.8293923408424,818.3096759968836
1731655594.191069,778.0885291188598,798.6322574778713,803.8989561289403,793.86460297827
1731655594.193112,740.124261482819,802.4624357044224,803.9683536875494,775.2985134551035
1731655594.1950283,734.8352173575641,808.237060587817,804.0375876535368,777.1339245554096
1731655594.1970084,766.0642689718431,813.0356515708409,804.1066607902924,798.4321999326155
1731655594.2009048,810.8354708383607,814.5829459423975,804.1755758557498,823.7132961177398
1731655594.2041285,837.5385124158399,812.3478667417852,804.2443355736095,835.5352854012883
1731655594.204801,830.7713859698999,807.5629500434188,804.3129426067779,828.6175034713167
1731655594.2086978,802.6303746348963,802.4059308520773,804.3813994829446,813.7966681821001
1731655594.2125945,781.2381983376108,798.890522828203,804.4497085604819,808.3481951831553
1731655594.2139027,786.4603157025817,797.9933640961141,804.5178722091036,820.7875029598476
1731655594.216491,813.608332928483,799.3763730717876,804.5858932632915,843.2010523168868
1731655594.2197542,838.7453142601671,801.7925234052889,804.6537754462554,857.8212873195786
1731655594.2203877,840.3405726484762,803.9153643638407,804.7215230867155,852.2916374945137
1731655594.224284,818.2070086098876,805.0808885867395,804.7891395833095,830.566344751025
1731655594.226014,793.6621088210729,805.4878948912067,804.8566251791369,810.1205316893132
1731655594.2281804,791.3273951546851,805.7876710866815,804.9239763648916,807.7637351292652
1731655594.232077,818.3140949867078,806.4444594807462,804.9911899382514,825.8902660512894
1731655594.2327769,858.0867311744181,807.3963371136754,805.0582719928253,850.5363176448916
1731655594.2353797,883.6632838036171,808.2411531078957,805.1252453044992,862.7662659694564
1731655594.2359734,879.0338074463293,808.6813095059359,805.1921422469815,853.9637891705048
1731655594.2398698,851.4215030760832,808.7633217189467,805.2589743348422,832.495871563359
1731655594.2437663,824.7434047817544,808.7328782229513,805.3256916611874,816.3879277283394
1731655594.247663,819.8502064056262,808.750959965599,805.3921777871543,818.1805108289146
1731655594.2510052,837.6563164054044,808.7936427835537,805.4583345378376,834.509014407142
1731655594.2515595,858.7352796378042,808.7655520495389,805.5242526989982,848.9022257000419
1731655594.251651,859.5484001288526,808.6279150368335,805.5903344221076,845.3650400955239
1731655594.255456,832.1629250616038,808.4158668642028,805.6571253359277,821.6627103336923
1731655594.2593524,791.6694001057441,808.1856513944123,805.7247153369093,791.696138850114
1731655594.260959,765.2790774265964,807.9711060637245,805.7920069606881,775.116293514092
1731655594.2632487,771.415436137112,807.776477538238,805.8567392347279,782.2631507365353
1731655594.2666306,805.0206824238567,807.5910165494786,805.917234494619,806.099314906922
1731655594.2671454,840.8106376648755,807.4043588823913,805.97561435458,827.4856717479644
1731655594.2705252,852.5207165532493,807.2128106558612,806.0397585431682,829.901411094999
1731655594.271042,833.4159053306493,807.0178543144943,806.119491000375,812.219251501434
1731655594.2749386,801.5586464931017,806.8222630946964,806.2148784339931,789.3649353666278
1731655594.2788353,784.9308631320476,806.6276214474263,806.3031845113861,780.1754521444433
1731655594.282256,798.0904059120198,806.4340010920652,806.3416485066422,792.2323297355678
1731655594.2827315,829.776733421199,806.2407666958588,806.3030025155609,816.0624737060588
1731655594.286628,852.2074149199696,806.0473638989595,806.2354072040133,833.2737929576869
1731655594.2893996,844.4279614064151,805.8536073959177,806.2917077430328,831.5302047275723
1731655594.2905245,809.9818874109617,805.6595740575159,806.643668786096,813.8842915206233
1731655594.294421,774.0756554191856,805.4653930083107,807.2498577397344,795.2330361299139
1731655594.2959034,762.8590776025287,805.2711226749324,807.6099180628494,789.51624718647
1731655594.2978816,782.2241935265251,805.0767423871972,806.8119523495817,798.4694626585157
1731655594.2983174,813.4795435122245,804.8821989068147,804.0931673773981,810.8981922866963
1731655594.302214,829.0990038759132,804.6874475270515,799.6228021086018,812.7178071920805
1731655594.3061106,815.3836703317065,804.4924642060577,794.7648477382734,799.4280017894696
1731655594.3082738,783.4091604121604,804.2972358165598,791.4430444318032,780.7073969552875
1731655594.310007,759.3512193239915,804.101745841171,791.0953034279644,772.9850305246808
1731655594.3135073,762.3837625318225,803.9059690453412,793.9603009238356,785.6684619066715
1731655594.3139036,788.7323019448172,803.7098799764703,798.9886820307896,812.3915166064303
1731655594.3178,815.2065652264084,803.5134698945122,804.3118952891119,835.0165465393161
1731655594.3216963,818.9370968958068,803.3167559212513,808.1076866597139,837.5999685119298
1731655594.325593,796.4390407131435,803.1197614472783,809.5146212641204,818.9588458872729
1731655594.327148,766.189020478624,802.9224615031941,809.0543138747247,793.5118650789549
1731655594.3291328,753.1323912896328,802.7247275987811,808.2243288448391,779.8607482393038
1731655594.3294897,768.2544122877702,802.5263513434004,808.4989817483307,786.5160885355489
1731655594.3308482,799.6363631013634,802.3272162201075,810.4067688722341,806.0254406226669
1731655594.3333862,821.7627903431354,802.1275637800574,813.2709161707279,821.6593977904723
1731655594.337283,815.5697679794804,801.9280924492643,815.7254793925603,820.8954976120178
1731655594.3411791,783.551570568429,801.7295234435238,816.6243183067476,804.8541607385404
1731655594.3447585,748.0325114909679,801.5315581167869,815.7343569310353,786.3200433249568
1731655594.3450756,733.7980613105789,801.3319352640908,813.7670507547547,778.3654951042342
1731655594.346022,748.8298439073254,801.1270914267637,811.7791686885466,783.4092966011614
1731655594.348972,778.7081137151688,800.9155909200715,810.4529575074309,792.105482341112
1731655594.3528686,799.2327365784437,800.7030140889625,809.8355559075264,792.819366009547
1731655594.3567653,796.6882547008748,800.5031340040936,809.6596255241208,783.0280789112077
1731655594.3603835,778.7593775216732,800.3287532093995,809.792924933508,772.2485818428553
1731655594.3606615,767.1162581248454,800.17182220439,810.2745681868001,773.7150703618281
1731655594.3645582,778.2663266182423,799.9875766848946,810.9099425579262,792.1060025301847
1731655594.3648963,808.9413108471106,799.711248825122,810.9561354378288,818.1108135915227
1731655594.365793,838.1103878077538,799.3267766848467,809.4023701060312,834.703833373016
1731655594.3684547,843.8064389809284,798.9581650337877,805.7469095356114,830.1619171157156
1731655594.3723512,820.9932712686007,798.8855289885814,800.6225370290987,807.408445151298
1731655594.3760092,785.9748436601047,799.3773353308707,795.6754641628543,782.2362261095531
1731655594.3762476,763.6348390580315,800.3678704086635,792.6899758500649,771.6722449962627
1731655594.380144,767.6806580991852,801.2482256682064,792.5415115288114,781.4280640136808
1731655594.3837707,790.0291681182961,801.1134260441253,794.6977738523658,802.161049526221
1731655594.3840408,808.2580971174408,799.47770445574,797.6165929195431,817.4329422688635
1731655594.3879373,805.063504737248,796.9262707610101,799.7816910043235,817.0081121737333
1731655594.3916347,783.3617138430653,795.0009937348246,800.6566029438573,804.8429691150078
1731655594.3918338,764.125218891191,795.1749682523706,800.8590752369994,795.3786871702334
1731655594.3957305,768.6163653509064,797.6561691536373,801.4397520420308,801.227788539451
1731655594.3996267,799.932688888535,801.094191279202,802.8944625752339,822.3240168888367
1731655594.400738,839.3770831480018,803.5890522052052,804.7749736526608,845.3841762395278
1731655594.4026449,860.8314281206351,804.2394227076463,806.198508976546,854.1922164254673
1731655594.4035232,851.5484284334342,803.88730380693,806.7003024950683,842.5449034631808
1731655594.4072602,822.5065281828445,804.3253764072716,806.5707701555003,819.5000737777312
1731655594.4074197,799.6828850626463,806.5787263075376,806.3625810489002,802.51613062587
1731655594.4113162,802.9208856269786,809.7753296208695,806.0926888043873,803.705135118826
1731655594.4152129,829.5172142111103,811.6913436383683,804.9907330783105,820.2686281724481
1731655594.419109,856.3600362040572,810.5817750960366,802.1560409927926,837.1646487672456
1731655594.421519,859.3026601392323,806.7121570991744,797.6138366835509,840.0249713711705
1731655594.4228857,833.827235647239,802.241736758601,792.7844967137046,827.5222782353632
1731655594.4230058,799.6265459887638,799.5733234230287,789.778744522679,812.5971949946852
1731655594.4269023,784.9955782902388,799.6029038790252,789.9445148970958,811.3294976104818
1731655594.4307988,803.6741553065959,801.2884708692637,792.8350862165886,828.7715229897016
1731655594.4346952,843.0255547574577,802.7270099101358,796.4927765383197,853.7035168541937
1731655594.4356828,873.2429990746137,802.6769755277163,798.8276186126772,866.8652682647241
1731655594.4385114,870.4117036072778,801.2721875675126,798.9593043852293,856.134259843945
1731655594.4385917,835.2723797539338,799.5551680835811,797.5399839074097,826.4892342666068
1731655594.4403934,792.8253627486831,798.4853183719687,796.0415890929648,796.7191683039237
1731655594.4424884,772.77632076118,798.3308280973314,795.7566097370634,785.2519168139092
1731655594.446385,786.0171265954292,798.7687540132849,797.1971701317309,796.1245981045917
1731655594.4502814,816.0732753966294,799.3399833342205,800.021720523964,816.2706756576013
1731655594.4541368,832.9517410474057,799.7797733127891,803.278898979701,826.46624581477
1731655594.454178,818.4108234751227,800.0613064513363,805.8293083458364,817.1604994581245
1731655594.4580743,781.6131576095851,800.2732021157931,806.8999131092568,796.2004596073768
1731655594.4592676,751.7757944164118,800.4971625646768,806.5546339036293,782.0463207816621
1731655594.4619708,753.8494208909883,800.7604921302295,805.6865621304983,788.1471266997996
1731655594.4658673,787.6808098216733,801.049934640107,805.3747190416474,811.507685873757
1731655594.4697623,828.0538523553905,801.3430480289923,806.0265654980991,834.9281853331413
1731655594.469764,845.3624094401273,801.627456803604,807.0454288290985,841.0095266976077
1731655594.4706275,829.6137725253917,801.9028462566231,807.3765774508284,826.3148408824953
1731655594.4736605,798.0210844355609,802.1742866378684,806.4816716039136,804.006510748087
1731655594.4775567,780.1572286826134,802.4460000890269,804.8510426053615,792.805700701508
1731655594.4781418,793.0622687111523,802.7192120182825,803.5676354971935,801.4118660198515
1731655594.4814534,826.9009580125777,802.9931006178853,803.3360217563812,821.3006960339728
1731655594.48535,853.1160827230669,803.2664847852859,803.9091383164317,833.9162416480848
1731655594.4853878,848.4345403373084,803.5387744018107,804.4537480074517,826.3204026237794
1731655594.4892464,814.753174461752,803.8100089096265,804.470448935059,802.2807155316667
1731655594.4931428,778.1237104434446,804.0804790559336,804.3474236595465,779.523197376529
1731655594.497016,767.4647457063498,804.3504062457354,805.0027917346171,775.3730078062034
1731655594.4970396,790.736505043952,804.6198497933798,806.9594573666465,792.656251159128
1731655594.500936,828.4975512168976,804.8887743029712,809.718887291295,817.4880584597389
1731655594.5010133,850.0940288328733,805.1571451911352,811.9952529377214,830.6816901224093
1731655594.5048325,838.8151245991352,805.4249694504963,812.595961654075,823.2731819475476
1731655594.5055723,805.2003208463207,805.6922706782271,811.2225072058726,803.3847260433565
1731655594.508729,777.8951577652375,805.9590368016711,808.6071303924788,788.9587746506198
1731655594.5126257,780.0167386081677,806.225200205296,805.9772760530964,792.6362583308656
1731655594.5158904,810.5521021106765,806.4906997744539,804.3318317030805,811.4665520131255
1731655594.516522,845.8092085330497,806.7556167625567,804.0561828122181,829.9188263002761
1731655594.5166388,859.367902274307,807.0202731219941,805.0215728456988,833.390128134616
1731655594.5204184,843.8296874588204,807.2851014961843,806.8690578210987,820.5943277099891
1731655594.5243149,816.2752292626815,807.5501795823454,809.0854288043978,804.3204577734499
1731655594.5282116,803.0037879430175,807.8146650280632,810.8351559099386,800.0756250353365
1731655594.532108,816.6042633031091,808.0768211717776,810.9462774869538,812.4425845967731
1731655594.5322642,844.8836998842896,808.3353786601501,808.4371171568,830.7902596038966
1731655594.5347643,861.065273476166,808.5920242295858,803.4075910568718,837.9458977717107
1731655594.5360043,846.6773645436671,808.8528932785482,797.5253661918864,824.5922301164553
1731655594.539901,807.9579724757853,809.1255747723121,793.407830478608,797.4944533543895
1731655594.540517,772.0069799735135,809.4100286286543,793.0578144226625,774.7238483909274
1731655594.5437975,765.5646146946791,809.6885404002071,796.442523595948,771.5615551116542
1731655594.547694,793.5341830206264,809.9280284323555,801.3801303603038,788.3633325662809
1731655594.54789,834.7265416852341,810.1077028837536,804.9297792232231,810.260789419951
1731655594.5515904,858.4637480645972,810.2653985584262,805.2898287200949,819.0953574071642
1731655594.5536387,848.7486981131765,810.5196904916927,802.8281447170061,807.9491982098506
1731655594.5554872,816.4318508498637,811.002568161418,799.5606453646445,786.3583547767821
1731655594.5593836,789.4855147598685,811.6789702574891,797.539086897935,771.9217635405764
1731655594.56328,789.4499636727297,812.1564484654003,797.3590010160988,775.377813538687
1731655594.5635154,813.5732609187037,811.7209025966202,797.8762147346027,791.7094033407727
1731655594.5671766,837.4020672199144,809.7612583864042,797.3105038936836,804.6861701916305
1731655594.5710733,835.4826987522007,806.3404258336375,794.838790808788,800.872340438097
1731655594.5725129,802.8829979279909,802.3275348130269,791.3863545225344,781.2883795292308
1731655594.5749695,759.8930603263358,798.8571073355279,789.0004223666216,761.0714314822723
1731655594.575462,736.2721981755634,796.6441387211006,789.3779134283823,757.4366151614385
1731655594.578866,747.8627989686452,795.8096218478009,792.7555484096151,775.6609371937624
1731655594.579141,784.2410527286302,796.1937107160368,797.9340156994306,804.361117836239
1731655594.5827627,817.1741819260753,797.611215549893,803.2057389346287,824.0318312496923
1731655594.5866592,823.0861016597374,799.7370760385895,807.334785120033,822.2699071097455
1731655594.5905557,801.377551492472,801.884123159919,809.9365797947047,803.502881269074
1731655594.5913873,773.6255599930015,803.1334360352289,811.2511813366784,785.171992080878
1731655594.594452,764.4512335870065,802.8847177536823,811.7271117358974,783.3534712492167
1731655594.5947664,780.3353305318105,801.350713895528,811.7566772407055,799.679209560232
1731655594.5983486,804.4022805289381,799.4532000586166,811.6036711000847,820.3493816841941
1731655594.602245,811.3602180313051,798.1474766512157,811.4144900906034,827.7922061688743
1731655594.6061416,789.482440368516,797.8034127775552,811.2458255898542,815.0602005901293
1731655594.6100385,750.9364963192409,798.1633893479521,811.1000651283356,791.279618811312
1731655594.6102614,722.2761627867174,798.7480622552773,810.9611596867721,774.3088877552804
1731655594.610392,723.5663740467813,799.2342275749355,810.8172432014863,776.9824360689082
1731655594.6104069,753.1460417018767,799.5521249604598,810.6663380220787,797.678521425649
1731655594.6139348,789.5777377064625,799.7794492965712,810.512172439727,821.9920105023353
1731655594.6178312,808.6256844738174,800.00708828533,810.3586693437368,833.8594493207645
1731655594.6217277,801.8533486878661,800.2742843816188,810.2074074256994,827.6496264254569
1731655594.6256242,782.3798305462572,800.5733975987409,810.0579788984611,811.9897601508796
1731655594.626017,773.1663428897648,800.8813639467893,809.9093792602521,802.2128620512381
1731655594.6291356,787.0732237274258,801.1828925782892,809.7609757179948,807.3060831076159
1731655594.629521,815.1230576794493,801.4755918938938,809.6126905106955,822.1025863783918
1731655594.6334171,833.2929120323461,801.7641169279178,809.464732571806,831.5420231364361
1731655594.6373138,822.8166322788761,802.053251938248,809.3173028143868,823.7243448627593
1731655594.6412103,787.1104852407408,802.3448565609419,809.1704722566643,800.7240325848784
1731655594.6416428,750.6697626021034,802.638380411993,809.0242106385808,777.752963939901
1731655594.6451068,740.2192498975284,802.9325899679367,808.8784619233762,771.100985836111
1731655594.6453516,763.3472048104426,803.2267378078215,808.7331928277587,784.8104182035999
1731655594.6480098,802.1358845304408,803.5207619544651,808.5883993454675,807.1347418525039
1731655594.6490033,827.2183563055398,803.81494369141,808.4440908451538,819.8195963377755
1731655594.6528995,821.2123217992902,804.1095454006245,808.300274120882,812.8327720801827
1731655594.6567962,792.6827273544629,804.4046643663738,808.156947423709,792.6050561285144
1731655594.6572683,768.9940485814006,804.700269884499,808.0141033782044,776.7980018736519
1731655594.6606927,773.4600469607253,804.9962983819349,807.8717354320057,779.5312071873565
1731655594.6645892,805.5664311693026,805.2927205683284,807.7298426570502,799.2446695689957
1731655594.6668842,841.1016252302005,805.5895612350101,807.5884288843274,819.6852695639027
1731655594.668486,852.4899884481669,805.8868835425067,807.4474942700211,823.6051291102427
1731655594.6723824,832.2539128205509,806.1847472215723,807.3070228098362,807.7056455935004
1731655594.672894,799.6208507638918,806.4831495048028,807.1669777509387,785.9887718671956
1731655594.6762788,784.6581000053163,806.7819833050359,807.0273208290627,778.4953573516134
1731655594.6801753,803.4008846929645,807.0810808707986,806.8880583494716,794.8744537153259
1731655594.680297,844.6786934947838,807.3803926373556,806.7492827623062,826.4565584277553
1731655594.6840718,879.0657626539452,807.68022709054,806.6111436138955,853.1276500230524
1731655594.6857584,882.0937339866164,807.981289188505,806.4736966493923,859.0512292601666
1731655594.6879685,852.8873393741798,808.2841957532968,806.3366888558509,844.4595307432598
1731655594.6885197,813.8126911937719,808.5884774086695,806.1995069112214,824.4109663236388
1731655594.6918647,792.1217113090385,808.8918353291192,806.0615806885406,816.0724629273756
1731655594.6957614,798.6238137847396,809.1910705571005,805.9232588664248,825.1126206920729
1731655594.699658,820.3372372788741,809.4855538003994,805.7865100355973,842.1297913760027
1731655594.7035544,832.5089485630748,809.7815623468271,805.6541985764067,851.5198545015777
1731655594.704145,819.7173290106406,810.0923308860303,805.5270971330355,844.8957246614884
1731655594.7046323,788.7764227768361,810.4280592265281,805.3999754314199,827.7630513442851
1731655594.7074509,763.2636961363086,810.7770875607591,805.2612235855469,814.2953665928032
1731655594.711347,764.3807642837526,811.093911163963,805.1012391474519,815.1091938425666
1731655594.7152414,793.487521069955,811.3206012945944,804.9289896642282,828.3627577151829
1731655594.7152438,830.1659642536532,811.4550260762046,804.7834529509468,841.2974244181083
1731655594.7191403,847.6189993489608,811.6294537538373,804.7163064595163,840.7283543533405
1731655594.7197704,833.6594356619886,812.1011156968186,804.7322662269972,823.9703161528618
1731655594.723037,800.7078671447505,813.0580265574692,804.7157028402308,801.4582730850008
1731655594.7235067,776.3015497117669,814.2968595664644,804.4260951061924,788.8272649260043
1731655594.7269337,781.0523087161905,815.0803361430293,803.6442344965166,794.4962102619718
1731655594.73083,811.6575624614778,814.4936915770535,802.4307877466723,812.5501324179504
1731655594.7347264,843.1498943392172,812.1529103200085,801.2746339459887,826.8344286682567
1731655594.735396,849.0485337172371,808.6285066406837,800.8804908180945,823.3897640413811
1731655594.738623,823.134678313381,805.1313328078221,801.6309157194735,801.550142535667
1731655594.742381,784.9976331463176,802.7182975715353,803.146036563367,774.836044010923
1731655594.7425194,764.7453160727393,801.7026928843087,804.401166390536,760.7360638103086
1731655594.746416,779.1693926935268,801.6849537447907,804.4005069761293,767.2489064219327
1731655594.7501862,818.3615820205481,802.0246427523365,802.8724023991812,786.6872820287551
1731655594.7503126,853.3077048067117,802.279128763632,800.4100368486723,801.6877063120172
1731655594.7510214,858.4373641877136,802.3298679656345,797.9840627891815,798.8978387981617
1731655594.754209,831.3831602895799,802.2594963366073,796.2836261648833,779.6585795260162
1731655594.7581055,794.2844099065534,802.1815259596495,795.3966597452521,759.0529277744047
1731655594.7612553,775.505799848825,802.1505266637488,794.9554994139373,753.7899737594104
1731655594.762002,786.5620038344631,802.1612182134868,794.5039008576432,768.6465760052669
1731655594.7658985,813.3289303815579,802.1857587556547,793.7999794295835,792.8225868357588
1731655594.766647,828.9274255443827,802.2039611544823,792.9402662006308,809.4725907277527
1731655594.7697947,817.2472502966752,802.2115274263667,792.3054043597331,810.2622444860154
1731655594.7736914,786.8976231929705,802.213669541054,792.3501217276905,802.1985770134334
1731655594.777588,763.7803207875671,802.2164283190644,793.3255270690998,800.7593217680773
1731655594.7801294,769.0274112409378,802.2224250270423,795.1204242303436,815.5642985405743
1731655594.7814846,801.241492629545,802.23117210934,797.3626055455396,841.3402156050021
1731655594.7822726,837.6556543835682,802.2411491744301,799.6981238559528,862.0131038013085
1731655594.785131,852.689025207398,802.2513405228274,801.9950761616682,864.2487342978064
1731655594.7853813,838.3664679231581,802.2615805206858,804.3022567417087,848.8528031771776
1731655594.7892776,810.0783612349164,802.2721707570256,806.6419184856277,830.4580003253849
1731655594.793174,793.2877690785799,802.2834234141343,808.8592204243942,825.7110729643315
1731655594.7970705,802.3049733996787,802.295458246414,810.6532676660009,839.6290549751166
1731655594.797898,828.7814783849814,802.3082354275804,811.7076394839381,861.3225430943827
1731655594.7990038,849.5157204305357,802.3216692628879,811.7604668701084,872.6439095233067
1731655594.800967,846.8594767378038,802.3357056149734,810.5886010797286,862.752347542023
1731655594.8048637,824.2418246737284,802.3503353614884,808.0527868768488,836.807956057754
1731655594.8087602,803.5009963220858,802.3655719553449,804.3138952751317,811.8975752135397
1731655594.8126566,806.3066946356363,802.3814275826664,800.0747349115741,803.6880505173191
1731655594.8135235,835.42022671903,802.3979036212013,796.5236997090783,814.5888251151529
1731655594.816553,871.4145728085181,802.4149932129744,794.8324072853388,832.6106213817975
1731655594.817878,887.4426092338209,802.4326874418684,795.4822236490966,841.3625623184602
1731655594.8200758,870.1118616958834,802.4509792059024,797.9379720427925,833.0263743920809
1731655594.8204496,830.0223256923784,802.4698636840261,800.9644293506852,814.184483135176
1731655594.824346,793.7612051676454,802.4893370521579,803.3682064439613,800.0779800635262
1731655594.8282423,783.4725173924093,802.5093952533898,804.611718298679,801.8415182507409
1731655594.829149,799.9397541356375,802.5300335640759,804.8878689927777,816.9370108439975
1731655594.832139,822.7978723583642,802.5512467770792,804.7206688436729,830.815248006967
1731655594.8360355,828.0118286435036,802.5730295395011,804.5250553284058,828.8501281852621
1731655594.8367522,808.3961727883309,802.5953765492679,804.4927374896969,808.8065063428252
1731655594.8399322,779.9165930472981,802.6182825714687,804.7715464266289,783.225149140545
1731655594.843829,768.1385225011155,802.6417423700373,805.5986551205049,769.4217828571796
1731655594.8447745,785.9950376348402,802.6657506485374,807.1451615384024,775.3288457623019
1731655594.8477252,821.6321210611221,802.6903020344488,809.2110019935943,792.9946927553565
1731655594.8516216,846.8616200700759,802.7153910943387,811.1567743406916,805.1468310129305
1731655594.8550208,839.6620352586492,802.7410123549895,812.2832191478084,799.4334939996984
1731655594.855518,802.4718444178118,802.7671603158389,812.4000396440823,778.7918490016341
1731655594.8556263,761.2043290698399,802.7938294516584,812.0223311495962,759.585108811189
1731655594.8594146,745.2964150928705,802.821014210913,811.8775500100838,758.836957381067
1731655594.8604,764.4545803483403,802.8487090146389,812.0820394172753,780.4885179148098
1731655594.8633113,800.8677090208001,802.8769082574067,811.813296635546,811.6066231257497
1731655594.8672078,823.6130715586158,802.9056063095485,809.9693568161581,831.9353072117028
1731655594.8711042,813.9004957870796,802.9347975193248,806.3419808192444,829.564195991471
1731655594.8745008,780.4448191359497,802.9644762143186,802.17977149356,810.1810507096626
1731655594.8750007,752.0583204458694,802.9946367020582,799.4579657394111,792.2348730135262
1731655594.8760254,753.53821128194,803.0252732701797,799.3813961891964,791.874822814689
1731655594.8788972,784.9821093671649,803.0563801863839,801.4331126238845,810.066559576264
1731655594.8827937,821.6471227256701,803.0879516982639,803.8256916050772,832.3674150176622
1731655594.88669,834.1323445079428,803.1199820329583,804.947966237225,841.1559903781563
1731655594.8899655,812.0125012246469,803.1524653965682,804.545068082368,829.938166277525
1731655594.8905866,771.8416910772789,803.1853959733088,803.6866681367766,808.1171181974456
1731655594.8916512,743.6566244597793,803.218767924408,803.6883425021059,792.7942668339947
1731655594.8933747,747.2774137612219,803.2525753867743,805.0060657875583,794.6494675784085
1731655594.894483,777.3090493463759,803.2868124714566,807.0213695151389,809.4452144911304
1731655594.8983798,808.5163769165576,803.3214732619059,808.770714825532,822.0267437975054
1731655594.9022765,817.0167782427206,803.3565518120425,809.8528392368604,819.5595156185851
1731655594.9061728,799.928150035377,803.3920421441371,810.6601221571692,802.9896992787125
1731655594.9072766,777.1188476058652,803.4279382465076,811.754114919014,786.7957715102829
1731655594.9100692,773.4949031304639,803.4642340710444,813.022967089058,786.7627443846802
1731655594.912249,796.8797131881756,803.5009235305722,813.4828609743666,805.9685987696304
1731655594.9139657,830.5074732538092,803.5380004960556,812.0047660483299,831.196646517343
1731655594.9178622,846.6772350229284,803.5754587936619,808.3787069681962,843.3397671043549
1731655594.921759,830.03478447368,803.6132922016849,803.7646409814056,833.3130312919509
1731655594.922902,790.9120025536799,803.6514944473414,800.0697956645625,810.0196651290111
1731655594.9249103,757.6636644279554,803.6900592034496,798.706779604397,793.4054665690811
1731655594.9256554,754.3150815574496,803.7289800849958,799.7084900785686,798.0956095130624
1731655594.9295518,781.6267537146457,803.7682506456025,801.860866722381,821.0492034293192
1731655594.9311233,816.769117483901,803.8078643739038,803.6789478009158,843.515390938297
1731655594.9334483,831.884008138581,803.8478146898392,804.4274650241634,845.9404170754683
1731655594.9373448,816.6414478226473,803.8880949408746,804.4421827669171,823.8441414397888
1731655594.9385276,786.4384360639885,803.9286983981594,804.6040327735307,791.7410590339643
1731655594.9412413,769.3068995855714,803.9696182526326,805.439922795133,771.7960744793717
1731655594.9451375,782.1507818700062,804.010847611085,806.5435363538948,776.3047161880891
1731655594.9490345,816.1099706330499,804.0523794921911,806.7450089508662,798.1185068669433
1731655594.9499977,843.4801637012221,804.094206822517,804.9305265802102,816.6844396888552
1731655594.9529307,840.6138776147243,804.1363224325065,800.961889746822,814.7759996036855
1731655594.9541533,807.8713262455875,804.1787190524569,796.048949416371,792.4998750865116
1731655594.9568274,770.1776669721155,804.2213893084947,792.2553387466743,767.4391213391443
1731655594.9598553,757.662720552985,804.2643257185825,791.3842691602682,760.8288327165266
1731655594.960724,781.9285978454598,804.3075206885868,793.9383817268013,780.7222455484849
1731655594.9646204,826.9033200504596,804.3509665084175,798.842678288421,815.5549061552814
1731655594.9685168,861.5559524437226,804.3946553481967,804.1039389214294,843.2940617149723
1731655594.9688718,864.3122522839653,804.4385792543716,807.9126590426662,848.7841749876172
1731655594.9697783,839.6193989736697,804.4827301457245,809.4312959879211,835.1437439510418
1731655594.9724133,813.3494084511527,804.5270998094071,808.8731326883653,819.9684852059406
1731655594.97631,810.8096998222344,804.5716798973534,807.0662303306516,819.7801696039869
1731655594.9802065,835.3450697506285,804.6164619234713,804.9483566624848,835.9219623303499
1731655594.984103,865.1696759140966,804.6614372615308,803.2533811288431,853.6421520321512
1731655594.985404,871.2287183201482,804.7065971427008,802.3959684916695,854.8431749079494
1731655594.987746,841.656262710151,804.7519326509645,802.4959197942525,833.6317972829539
1731655594.9879994,792.9021781292945,804.797434715555,803.4919773444867,801.7874330768836
1731655594.991896,758.235479246574,804.843094102946,805.2423223385543,779.7935430519221
1731655594.9948,762.4117521867342,804.8889014151396,807.506827076697,780.8200010265379
1731655594.9957924,802.4270350809708,804.9348471010182,809.8602794340869,800.571153655602
1731655594.9996889,849.6724951692032,804.9809214777439,811.7235008603626,821.0672706400352
1731655595.0010295,871.9360820795712,805.0271147408438,812.5898296779652,825.2100822774912
1731655595.003585,857.8314234550182,805.0734169299983,812.2635192074149,810.3364133015821
1731655595.0066202,824.2238676726281,805.1198178384784,810.8606891865633,789.8241284037125
1731655595.007482,801.0085504407446,805.1663069204128,808.5788881922472,781.5701477375821
1731655595.0113783,806.0858442954883,805.2128733254058,805.5187801467007,792.9347067699322
1731655595.015275,831.2472592096663,805.2595061770563,801.782256878086,814.6208116632574
1731655595.0166552,850.2792544535168,805.3061950123231,797.7245022858704,828.4386132755951
1731655595.0191717,841.9164235548583,805.3529299550577,794.018506751366,822.3289512029494
1731655595.023068,808.1994707188626,805.3997010178444,791.3738605880983,800.2143080277758
1731655595.0254946,773.1771922524593,805.4464963901656,790.1331582268539,778.8483907494101
1731655595.0269644,763.3781081714875,805.4933008565549,790.116447231547,774.5030644688143
1731655595.0297449,786.1386316986292,805.5400968169806,790.8482728837323,790.1814303422407
1731655595.030861,823.2811550790811,805.5868698788156,791.9531546635889,813.3067460688245
1731655595.0322807,845.2778715833554,805.6336169569524,793.3790848177022,825.6296289765341
1731655595.0347576,834.6776561955742,805.6803484358032,795.27061737397,817.6632291973156
1731655595.038654,799.9009910756315,805.7270733753655,797.6021113216527,796.2439236010321
1731655595.0425506,768.0237148991315,805.7737667772656,799.9042154204797,778.983733032228
1731655595.0443687,762.4719659464333,805.8203427010837,801.4053174726952,779.9667407158377
1731655595.046447,784.3132281402177,805.8666800759601,801.5826491327524,798.5209078425821
1731655595.0479062,812.6815457080168,805.9127335917979,800.674817725165,820.4765686405124
1731655595.0503435,823.3370905297578,805.9586813343607,799.6144579973966,830.6442849332949
1731655595.05424,809.093018201263,806.004943296232,799.3327454248638,825.6149439734488
1731655595.0581365,785.0318312985867,806.0518725747104,800.0396644870018,815.9390355247298
1731655595.0620332,774.9393191740746,806.0991339804434,801.1699481266263,816.1412481806406
1731655595.063243,790.9158043304818,806.145258733154,802.0450556890154,831.426007279934
1731655595.0635316,822.9645800933467,806.188256225794,802.5907797090628,852.4824413509007
1731655595.0646896,846.7210030172553,806.2277959456933,803.4023193887036,862.8234042372736
1731655595.0659297,843.0490720224375,806.2678710770424,805.0828606220231,852.6903019965933
1731655595.069826,813.9486514198026,806.3167122145137,807.4590521699965,828.0306802658467
1731655595.0737226,781.7815457577655,806.3804334682432,809.3964567926018,806.7136299798697
1731655595.0776193,771.7303868524979,806.4513477147227,809.4453342943502,804.3971241107029
1731655595.079157,791.2466852253636,806.5009095563428,806.8750810502884,821.3471355542258
1731655595.0815156,823.5612604728651,806.4938191605236,802.3304326576604,841.4170586201295
1731655595.0821173,841.2416083685905,806.4312720305562,797.6042919699488,844.6932427539366
1731655595.085412,828.9416939021331,806.4004289195889,794.6677777227128,823.806260550748
1731655595.0893087,796.4304698523481,806.5703900322343,794.6277951314279,790.5037128139655
1731655595.0932052,770.9447431159557,807.0817040354633,797.283622686904,766.9315603292646
1731655595.0947826,775.0737659900408,807.8677697515999,801.4531332240164,768.5772575967283
1731655595.0971017,808.1412131863667,808.5613041881281,805.6877234282617,792.451494197786
1731655595.0996344,845.9838348669314,808.6300840864396,808.8479615105363,819.6090943310467
1731655595.1009915,859.3193105292216,807.7175986379203,810.3024481095571,829.7109814005034
1731655595.1009982,836.4551357882721,805.9855559374247,809.8772848460649,816.2332853514466
1731655595.1048946,792.6904393081738,804.2122151034174,807.787482078182,790.7461841525771
1731655595.108791,758.8022023498979,803.5088258030518,804.6282291605867,773.1682205775415
1731655595.1104083,757.2933262793022,804.7204588836694,801.3286078549644,775.7712060723586
1731655595.1126876,785.2223123942642,807.797383288281,798.9487357049649,793.7655137171702
1731655595.1165843,817.6310796139136,811.5396041109408,798.3265289781547,810.1359259322571
1731655595.1198657,828.7647887304923,813.9973350183859,799.7332749147547,810.627141354721
1731655595.1204808,813.2696685557494,813.4328663855696,802.7482957004622,796.1142087666177
1731655595.1243773,789.5488824701625,809.3254946777491,806.4510537687046,781.7504126675781
1731655595.1260338,782.7558199892759,802.7735950404226,809.8217456710494,783.6622803140039
1731655595.1282735,802.2459214519797,795.9821789532496,812.1066512399777,804.6614941910829
1731655595.1321702,832.7568277425802,791.1189576308113,812.9665263173848,831.1570074907305
1731655595.1345794,846.7014375108413,789.25124507636,812.4309545166457,843.8099878900194
1731655595.136067,827.2210864184043,790.0157551903638,810.8256480236805,833.0235672178787
1731655595.1387398,782.8453802703224,792.149528431953,808.7712227628988,806.6379096241026
1731655595.1399632,741.5645918032847,794.4111693737769,807.1512389895496,783.766008100015
1731655595.1416593,728.9168569648515,796.2164242069263,806.8657072141505,779.8495253742258
1731655595.1438596,747.8624033311729,797.642817549971,808.3667801561429,794.9235597084371
1731655595.1477563,777.099577755265,798.999209533296,811.2618858043259,814.4614993834224
1731655595.1516528,789.4978636058258,800.4307902448134,814.3530291534729,821.9828559132204
1731655595.1555493,775.3807460130583,801.8593538162453,816.2133199246526,812.8790776839096
1731655595.1572847,750.8646094580363,803.1819119954505,815.9757164128856,797.8214802231319
1731655595.157614,743.8327144130811,804.4419595638483,813.8021288117457,792.9492675255826
1731655595.1594458,769.2250001587329,805.796262921024,810.7287195785099,805.3930054582166
1731655595.1633422,814.7222302883383,807.3516838776823,808.0662400834856,826.6827317012451
1731655595.1672387,849.3445836188828,809.0608845327502,806.8300672100197,839.7297977340442
1731655595.1695242,848.17708799891,810.7537202361757,807.5107468810978,833.3747355500844
1731655595.1711352,812.7752200380266,812.2156521932436,810.0825370037894,812.0614690903163
1731655595.1729102,770.2944706157995,813.2123805857843,813.9715470388363,792.410636821555
1731655595.175032,751.9670383455845,813.4870446648843,817.9656056595801,789.548709806095
1731655595.1764884,768.5003468612259,812.8241225500037,820.3903265093703,804.5932522712933
1731655595.1789284,802.3987146133429,811.17857548679,819.7937709439009,823.6815393501789
1731655595.1828249,823.2515927301519,808.7482200922167,815.8480443218247,829.3484060509685
1731655595.186721,813.1406509160214,805.9096184617305,809.7502101893257,814.8467505117337
1731655595.1885357,781.0708596051063,803.1005119947558,803.6467782029979,789.5730787130881
1731655595.1906178,754.6878567749703,800.7779353276835,799.4045146468085,771.1563503883273
1731655595.1945145,756.6559963585437,799.4204361282087,797.6444763067448,770.8577662506937
1731655595.1953626,785.6879489632507,799.4042589095176,797.7199693839076,784.4417467046941
1731655595.1984107,817.8306669166077,800.7183150973245,798.480278418116,796.0691120899643
1731655595.2023077,826.4654878333896,802.7746464719464,799.0786847041435,791.981278092473
1731655595.2041612,804.2513263317085,804.6272954756284,799.2657583618711,772.6911186019307
1731655595.204469,769.1579066710182,805.5662454253853,799.1938542458211,753.5223756200279
1731655595.206204,749.960907445371,805.6238634052327,799.0914064082582,752.6782663957123
1731655595.2101004,763.071781071002,805.5031376440955,799.07635856575,776.1714488252132
1731655595.213997,799.3329585569671,805.9234249064501,799.1453228710552,811.8174391209218
1731655595.2142367,831.3448007415107,806.9518851537925,799.2448334754702,837.574033439692
1731655595.2178934,835.5034906782763,807.9597213476317,799.3332961732101,838.0916724888466
1731655595.219787,811.1851646228846,808.2684180476746,799.4002085393575,816.5631525345191
1731655595.2217898,781.6968496836691,807.8567160649566,799.4549972857509,792.4290796107007
1731655595.2256863,775.9963682371591,807.4005613244447,799.5097687947627,786.5617825809636
1731655595.229583,805.4041035269165,807.5651758821878,799.5702206614808,805.392909584426
1731655595.233111,853.6261690821931,808.2324047793193,799.6357395701109,836.2356997949838
1731655595.2334795,888.2027005943933,808.4509914195103,799.7033864577913,857.2523138189645
1731655595.2354124,884.9163868451718,807.2224246005353,799.7710624227639,854.1874572077726
1731655595.237376,846.4548315573318,804.4307358735969,799.838344252632,830.9379994229926
1731655595.2394135,800.6009169488184,801.0558027901651,799.9057961443468,805.9373174167051
1731655595.2412724,778.8113807701388,798.4388535449923,799.9740565273902,797.3216967521786
1731655595.2451687,791.7309612719314,797.2323436073062,800.0433990359347,808.5968490732124
1731655595.2490654,821.4166649238708,796.9787571184953,800.1137720067263,826.2452719773516
1731655595.2510378,837.0567346082871,796.7076086649002,800.1850191996416,831.256697279449
1731655595.2519853,821.4445628701266,795.9908967663031,800.2570399661926,815.1726670167646
1731655595.252962,785.8923029479026,795.4415233895406,800.329821802017,787.3284469156396
1731655595.2568583,760.6381632624643,796.1456930186482,800.403396115151,767.1842283765595
1731655595.2607553,768.6995315307078,798.5341618889446,800.4777891592589,768.162684989185
1731655595.2646515,805.5328524722736,801.7420640660098,800.5530062425989,786.6165244640378
1731655595.2666633,842.0474268067358,804.0579686890488,800.629047660212,805.1743220213441
1731655595.268548,848.5654698875268,804.0794426966233,800.7059315244759,807.4972372729985
1731655595.2708597,819.5543160289066,801.623475439192,800.7836937422023,791.9341166357583
1731655595.2724445,778.4737829532796,797.7473733005995,800.8623490524448,772.687274339178
1731655595.2743585,758.7920531789002,794.0111516314938,800.9418319867244,767.6473106599683
1731655595.276341,776.8263266683168,791.6192024485076,801.0219820043083,783.1048508567728
1731655595.2802374,818.6089231586275,790.9919852123815,801.1026511111186,808.1280641988624
1731655595.2822888,851.4564721753906,791.8804043827022,801.1839362820492,823.4483814362403
1731655595.284134,850.6832488858354,793.7625550117779,801.2663621888546,817.5705388798486
1731655595.2880306,819.3755445218891,796.1703907295247,801.3506825115811,796.5201390602484
1731655595.2897336,784.909989138332,798.7543486634587,801.4370834984708,778.8079999565763
1731655595.291927,775.4893253486143,801.1575528634937,801.524155332925,779.8230193178288
1731655595.2958236,796.7904465798415,802.9485938022808,801.6088188853934,799.0543902135644
1731655595.2979145,828.293346461721,803.7995810103249,801.6885817345533,821.0179086264286
1731655595.29972,841.6298178902953,803.8123384964175,801.7659341405628,828.7190012428234
1731655595.3036163,824.7148710321057,803.6400398668942,801.8513350432385,817.7791767123664
1731655595.307513,791.4541955823615,804.1244609769138,801.9585827386785,799.3705591952075
1731655595.3086078,769.8388332968028,805.6010641088458,802.0892156803449,790.2116996723282
1731655595.3093035,779.0965225118567,807.452059227564,802.2141226912994,798.6689164911396
1731655595.3114097,814.5041442195483,808.435089605621,802.2755622701562,818.453845242975
1731655595.3135395,851.4056741884231,807.685689506912,802.2342469200862,834.4632116032079
1731655595.3153062,864.6976112748738,805.5885222761536,802.1544202913204,835.4314410190982
1731655595.319203,848.2748715425274,803.6599345182693,802.2585525468546,823.0021462527716
1731655595.3230991,819.1012281419667,803.3894272478615,802.8469235426363,809.980691982447
1731655595.3269956,802.6855218818423,804.9799307257615,804.0565406424215,809.2676159294616
1731655595.3274822,811.8186078910704,807.1150644201513,805.6332167292372,822.5765022994223
1731655595.3291657,836.1855452822389,807.9935243879137,806.9942578831423,838.3848831179761
1731655595.330892,851.5109560686927,806.7267324503017,807.6302696428274,841.0794830824809
1731655595.3347886,840.4568550435407,803.8990766280848,807.5130640420853,823.954589575448
1731655595.338685,807.6835809036909,800.8960473205196,807.1185348061255,795.4198985554524
1731655595.3425815,776.624981085062,798.7058866904266,807.0376408841311,773.2740835679334
1731655595.3442483,770.8331338943653,797.2800855455118,807.5217018553143,771.5093517951324
1731655595.3447907,795.1248472488953,795.937571704125,808.3344186025934,789.8977831469978
1731655595.3463564,831.490606806196,794.3453667426078,809.0099485580637,814.2571855460848
1731655595.3464782,852.8875530225272,793.1436986006167,809.3017371756,827.1241278081546
1731655595.3503747,844.2024476913234,793.6290317488372,809.4554252889377,820.8173266536116
1731655595.3542712,814.0439672196025,796.7107413876564,810.0430915914159,802.9820509519212
1731655595.3581676,787.7918726060586,801.960862602589,811.4306107898838,790.1475030625061
1731655595.3604164,786.9617155172492,807.5364532339153,813.3076553025884,794.1120517943497
1731655595.362064,811.3899243367573,811.1300265043088,814.7528113809755,812.1105917581718
1731655595.3652306,839.1607842422235,811.3664442924712,814.8822602044579,829.1384908454529
1731655595.3659606,844.831520639038,808.7226814015967,813.5605654932917,830.8154944486643
1731655595.3698573,820.995319064241,805.3131891106179,811.5232982472791,816.0149730300003
1731655595.3737538,785.0624879736065,803.5970388297417,809.793647085295,798.3798779703848
1731655595.376042,765.4491038587155,804.7955098618228,808.9730303375169,795.2315337711858
1731655595.3776505,778.6308535594802,808.0738830192271,809.0949780016304,813.1330243535945
1731655595.3791933,815.9482111353419,811.094027754638,810.0872482535184,842.1446868321857
1731655595.3815467,850.6940376178437,811.6176196696697,812.1737588573927,863.4396240495821
1731655595.3841047,859.3804342349603,809.0619259480666,815.5924789060011,863.9593376039381
1731655595.3854432,839.8619958582345,804.8869749446472,819.8362167085618,846.241423226666
1731655595.3893397,811.8291052707127,801.5292229066844,823.3491620626555,825.6175808777992
1731655595.3916674,799.6177514103031,800.7104683118149,824.3330495785067,817.2493395462346
1731655595.3932362,811.8678531928741,802.4289732649688,822.1649029174888,823.795754792879
1731655595.3971326,835.2516761796612,805.3206030229271,818.0873527616192,834.0414461165866
1731655595.401029,847.4509042030234,807.8882257038059,814.3386291496358,833.5914327621106
1731655595.4029791,837.7324033470488,809.4464949493839,812.3909447653178,818.3698071839207
1731655595.4049258,816.7730901058417,810.0979125237018,811.922535585599,799.1782768885383
1731655595.4072928,807.0115930487369,810.079354982275,811.4695184390755,793.2301408322053
1731655595.4088223,822.0829460748405,809.317884201524,810.0371328218097,809.6568417932625
1731655595.4127188,853.3831518202453,807.5992824326411,808.0418849291884,840.9998699932473
1731655595.4141378,875.5405838613318,805.0013186413124,806.7354961173595,867.7408924224703
1731655595.4166152,866.5268719447429,802.0259441567017,806.8468159630581,872.4539868395824
1731655595.4205115,826.0390913284431,799.3138607855756,807.899328502837,852.6902850621964
1731655595.4218533,777.195345451104,797.3255270370443,808.8581857424172,822.8194064754168
1731655595.4229183,749.83827376704,796.3419883390544,809.359766762341,803.5068558709687
1731655595.4244082,758.2330502259174,796.6650273812317,810.2013983550872,806.7450193964656
1731655595.428305,790.5583373563725,798.58364715266,812.5120191020394,827.5974370380857
1731655595.4322014,818.664369877457,801.9431611751539,816.3184794901185,848.7442940884495
1731655595.436098,820.6489702103626,805.7413848700122,819.8740605126342,854.1899386059341
1731655595.438544,798.3151951892182,808.3744750957609,820.5500821650811,841.4037370453392
1731655595.4399943,775.3735057659361,808.6016351180033,816.7654024892807,822.4165006928723
1731655595.4407277,777.7157307570028,806.4917476303654,809.4473496612126,813.2656347378934
1731655595.4438908,811.6287434919351,803.4577193062737,801.7584705529631,820.5712118594408
1731655595.4477873,857.5171195690322,801.2529713878516,797.1650698169074,836.2291269571389
1731655595.4490829,884.341506614645,800.7579624059248,797.2555929809886,844.4489647181726
1731655595.4516838,873.5436906789,801.5489936953046,800.8917988994166,835.1922612532455
1731655595.4541695,833.6064472787428,802.4800328438425,805.1840534714389,812.7604526781577
1731655595.4555805,793.5714229967911,802.6274965823208,807.4249111169818,792.2597521707168
1731655595.4594767,780.4537992035634,801.7827207012091,806.5880791840875,786.8578241673055
1731655595.4596016,798.5594700200425,800.2571972433964,803.5347021183605,796.712880653089
1731655595.4633734,827.4279633496551,798.4192296279314,800.0642057102514,809.212054097769
1731655595.46727,839.9738986149927,796.4947714067775,797.6532130162674,810.41880181164
1731655595.469795,825.6357368386965,794.7428317806211,796.7486762848131,797.7384547096954
1731655595.4711664,799.1562885074404,793.6609504179893,796.9083786662111,782.5988284989895
1731655595.4750628,787.7888317055243,793.8504139388741,797.4176165228447,780.6647238045867
1731655595.478476,807.9192871974265,795.5683236490864,797.8008383927638,798.0600852533446
1731655595.478959,850.7556924447331,798.3855588910286,797.9481475676278,825.5152650633207
1731655595.4828558,888.6811585030962,801.3395453783725,797.9643238605969,845.348538115268
1731655595.4840276,896.3716734577692,803.5266845192864,797.977308604314,845.0978677472341
1731655595.4854205,868.9384775858587,804.6516072815566,798.0438581075813,826.2084313303571
1731655595.4867525,823.0117423807676,805.0723317699507,798.1542642906213,801.0856904031152
1731655595.490649,782.0585615541163,805.3526687227442,798.2761711812396,782.4672720015479
1731655595.4945457,760.0355046849617,805.7859889105421,798.3876435864962,775.1741160775822
1731655595.4973502,756.1343815172133,806.3041611057632,798.4848971154148,776.0755186327663
1731655595.498442,761.0948475271312,806.7192606789247,798.5742886949208,779.4252438690204
1731655595.501046,766.2799698735008,806.9517764408461,798.6625404944064,781.4596787963023
1731655595.5023384,768.1238553679248,807.0569474084261,798.7523110136344,781.4618792698977
1731655595.506235,767.2754449798487,807.1305901857712,798.8428312287506,780.4213856200039
1731655595.5101314,765.7271692968433,807.2316822862971,798.932320155824,779.4264093561753
1731655595.514028,764.7836568186635,807.3683387398279,799.0196558856368,778.9223176999583
1731655595.5162244,764.6321600444154,807.5223405085732,799.1046824868915,778.7982281089028
1731655595.5166714,764.860561644743,807.6757334230635,799.1877388246846,778.7729771083661
1731655595.5179243,765.0559871512316,807.8219657566043,799.2691473674095,778.6678019574853
1731655595.5189724,765.0630504450697,807.9635083090216,799.3490052247826,778.4596885840409
1731655595.521821,764.9341222360563,808.1051797671682,799.4272356770346,778.2070266441975
1731655595.5257175,764.7781928559923,808.2498058439858,799.5037194905101,777.9668047771839
1731655595.529614,764.6605501814918,808.397596842507,799.5783784945638,777.7598997752522
1731655595.532297,764.5869726578758,808.5475133720994,799.6511864342788,777.578723211638
1731655595.5335104,764.534122119049,808.6986335557111,799.7221417992534,777.4082955131498
1731655595.5350986,764.4808028467933,808.8506666411689,799.7912413012272,777.2399233939309
1731655595.5374067,764.4200609375853,809.0037787832966,799.8584702168265,777.0731518149659
1731655595.5413036,764.3554881898281,809.1582321017546,799.9238060269337,776.911456349032
1731655595.5452,764.2930461409452,809.3141692082492,799.9872255099265,776.7579365461139
1731655595.5479226,764.2360731809869,809.4715951292533,800.048708899297,776.613700657402
1731655595.5490966,764.184779583919,809.6304553430209,800.1082401928155,776.4784164615576
1731655595.5529933,764.1379870883325,809.7907057678989,800.1658056247817,776.3514489320775
1731655595.5539172,764.0947462197497,809.9523344907765,800.2213923130096,776.2325391559787
1731655595.553973,764.0548903245774,810.1153485664702,800.274987835296,776.1218616171408
1731655595.5568895,764.0187862056102,810.279755395758,800.326580478302,776.0197782926799
1731655595.560786,763.9868952849388,810.4455573409015,800.3761596275043,775.9266162055811
1731655595.563548,763.9595280064428,810.6127596324873,800.4237159809979,775.8425946785437
1731655595.5646825,763.936835521245,810.7813778368123,800.4692415601884,775.7678631899553
1731655595.5685792,763.9189088207869,810.9514283431238,800.5127296320179,775.7025630727921
1731655595.5724757,763.9058607535056,811.1228976106175,800.5541746465971,775.6468588671369
1731655595.5728471,763.89784620731,811.2957124740186,800.5935722245703,775.6009332101106
1731655595.576372,763.895040128849,811.4697588228346,800.6309191772059,775.5649667195883
1731655595.5791736,763.8976130047054,811.6449854073602,800.6662135308178,775.5391280569344
1731655595.5802686,763.9057308545082,811.8215534120792,800.699454540054,775.5235879322098
1731655595.584165,763.9195806040236,811.9998740874124,800.7306426898651,775.5185500915103
1731655595.5880616,763.9393942605761,812.1803310522782,800.7597796925589,775.524267946214
1731655595.5888622,763.9654298291836,812.3626729467339,800.7868684849003,775.5410042699873
1731655595.5917213,763.9978849364954,812.5455223664821,800.8119132261753,775.5689211891095
1731655595.591958,764.0367861177529,812.7268693416657,800.8349192959006,775.6079708300587
1731655595.594799,764.0819852131945,812.906138007647,800.8558932905928,775.6579468509817
1731655595.5958548,764.1334094107783,813.0869089387368,800.8748430211768,775.7188342530483
1731655595.5997512,764.1915359113912,813.2772092196409,800.8917775133048,775.7913433894787
1731655595.6036477,764.2576977016945,813.4837214117208,800.906707009689,775.8770955215784
1731655595.6075442,764.3335513795182,813.7002608414903,800.9196429671996,775.9777277134946
1731655595.6104245,764.4193690956771,813.8996616475515,800.9305980376201,776.0927846568602
1731655595.6105957,764.512077770062,814.045367604906,800.9395860285875,776.2178527104959
1731655595.611441,764.6055604945349,814.1319525133621,800.9466218642419,776.3459696728535
1731655595.6153371,764.6957824308856,814.2338426281309,800.951721590215,776.474605871922
1731655595.6192336,764.7896891017506,814.5016805460599,800.95490246099,776.615458321265
1731655595.62313,764.9099454551088,815.0402737878547,800.9561830769828,776.7965514332093
1731655595.623807,765.0831088361614,815.6826658293334,800.9555834216862,777.0433843721303
1731655595.62605,765.3064530218641,815.8331038243,800.9531245945913,777.3387348887624
1731655595.6270268,765.5133510394584,814.6358698869666,800.9488282054948,777.5912380212188
1731655595.62947,765.5856290003381,811.5118870244703,800.9427158410812,777.6700526465796
1731655595.6309233,765.4572458169275,806.6737032916584,800.9348094533065,777.542877377174
1731655595.6348195,765.2797432508581,801.1158371599392,800.9251333046792,777.4537441739602
1731655595.6387162,765.490943524611,796.0500643065234,800.9137166833984,777.9347911713314
1731655595.6416757,766.5588398950613,792.2818525038534,800.9005944367862,779.4143382039003
1731655595.6426127,768.3425982347072,790.0022547591042,800.8858016262823,781.4544698957254
1731655595.6465092,769.4931431409129,789.01933555656,800.8693622475154,782.2318547106245
1731655595.648344,767.8217603564893,789.097207014339,800.8512805102447,779.3295903386853
1731655595.6504056,762.399009284179,790.0846097954151,800.831550718969,772.3985640704738
1731655595.6543024,756.6712232592926,791.7926141199347,800.8101960326455,766.2086528475736
1731655595.6573007,759.5467317429611,793.8443383414535,800.7873180339237,770.3085437162607
1731655595.6581988,780.8010830999668,795.7382690588231,800.7630993532548,792.7262683154275
1731655595.6587515,821.6368917581674,797.1185761035786,800.7376932220907,831.4341243830771
1731655595.6620953,868.6745811631495,797.97742125271,800.7110104800422,872.2259798785824
1731655595.6659918,900.213156524301,798.5549629721038,800.6825775907351,897.3152247400658
1731655595.6672182,902.4994498519728,799.0528319068522,800.6517662185893,898.4980036738066
1731655595.6698885,881.9516662715127,799.4876330658881,800.6185534667011,883.4808637294607
1731655595.672927,860.9898345324983,799.7880215389538,800.5844114839125,869.5095794838105
1731655595.6737847,859.6828912478273,799.937055422482,800.5522046830843,869.4251421386806
1731655595.6776812,878.7862599069856,799.9941286165753,800.5239271617455,881.8375705816458
1731655595.681578,899.3035912353973,800.0333596993055,800.4967032886879,893.5789386258406
1731655595.6854744,899.4991289495094,800.0950564206111,800.4605581595833,892.0651479779807
1731655595.6860926,874.7842828740971,800.1818019489601,800.4035368977891,876.8036591064596
1731655595.688552,843.0244796189743,800.278985998276,800.3264490840367,860.2306765434301
1731655595.6893709,830.2808167720299,800.3739311147917,800.2584793414335,857.290346231693
1731655595.693267,848.8389900184136,800.4627623977099,800.2518335857594,872.5901677145432
1731655595.6936965,886.0186404616827,800.5478135060271,800.3345125769338,895.8103479624793
1731655595.6971638,913.3422532870322,800.632617246901,800.431609341625,909.228147785927
1731655595.7010603,908.9338760839848,800.7189982545445,800.3194470763244,901.5184665379927
1731655595.7041776,875.2193996739455,800.8068891289818,799.6971388646082,877.0012031819169
1731655595.7049568,837.6273546093327,800.8954331507585,798.3946794737366,852.9451894585856
1731655595.7049668,825.0511024162631,800.9839513219939,796.6461287514505,846.7601137166819
1731655595.7088535,847.4225140032246,801.072246946533,795.2932276280576,862.8738876096832
1731655595.71275,888.2289304547512,801.1604352039296,795.6632773693582,889.5282550161144
1731655595.7166464,917.9401969159129,801.2486751353932,798.8501054174258,908.0409912971525
1731655595.719803,917.4452606938521,801.3370272947385,804.6325585723371,907.2221163110208
1731655595.720543,892.5221282386558,801.4254544499884,810.9820166339047,891.5541972396825
1731655595.723841,867.8601633396875,801.513883183865,814.9806604883461,876.8237613940865
1731655595.7244394,865.9699892087,801.6022526986407,814.745151390654,876.9621509393613
1731655595.728336,888.4716989022318,801.690527083277,810.8385888143388,892.7512339684921
1731655595.7286413,914.968432265815,801.7786843242619,805.9272351431839,911.3708316830493
1731655595.7322323,920.2194108467842,801.8667036717724,802.90566495868,917.0107809065331
1731655595.7354286,895.4517140402334,801.9545627191653,802.9683550391599,903.8919415368536
1731655595.7361288,856.2422941449034,802.0422417666332,805.052416250879,881.0546315313085
1731655595.7400255,830.2583008876637,802.129725124759,806.9119994341615,864.9120408722475
1731655595.7427151,834.7393541497192,802.2169908189178,806.8782625993703,865.6792316834146
1731655595.743922,862.3959719434572,802.3039920731949,805.000701075563,879.0560359865101
1731655595.7478185,887.6895493418901,802.390650760692,802.8696497649308,890.2665500894801
1731655595.751054,888.4074133278466,802.4768899488059,802.4224822503488,887.064678896659
1731655595.7517147,864.4089309669107,802.5627096955191,804.675191810008,870.5576491893914
1731655595.7556114,837.7069509370805,802.6482522286013,809.1828849566831,854.5028316524948
1731655595.759508,833.7837433358471,802.7337469958703,814.3626321468429,853.5868553488777
1731655595.7615895,859.7280009205091,802.8192560257696,818.2662791646574,870.5512509948254
1731655595.7634044,897.3022560088532,802.9043251003147,819.364505152193,892.9728974448593
1731655595.7635863,916.7950669440559,802.9879231220405,817.1593605392042,902.5306413202974
1731655595.7666795,900.7952031204263,803.0691402495972,812.5162804007117,889.4457772288564
1731655595.767301,858.9410420593723,803.1486365865854,807.4728951728359,860.5165037996334
1731655595.7711976,821.3547887582674,803.2297315225001,804.367061432176,834.0536599460943
1731655595.775094,815.1465966650525,803.3170748790212,804.6209213420743,825.4719154888088
1731655595.7789905,842.4976829967708,803.4116282168867,807.9598556194629,835.1782998141512
1731655595.7804637,878.5528083026943,803.5043708810041,812.6436072244667,848.9075959976776
1731655595.7823052,891.5925588039348,803.5762305006484,816.5296429602884,850.3449098591109
1731655595.782887,869.1943280371071,803.6127248400877,818.2037146233014,835.3017366181742
1731655595.7867837,828.6065174526664,803.6319419076417,817.5034660499264,815.2705139038834
1731655595.79068,802.648616824155,803.7040974227659,815.2929157422594,807.3506843212656
1731655595.7945766,812.9841511091545,803.9268190805124,812.7780249042873,819.275052015572
1731655595.7979307,852.818571168109,804.3449019407145,810.778181442762,842.3087243477529
1731655595.7984731,892.5782352782654,804.8781496272162,809.3207747846577,857.8939160784785
1731655595.7985313,903.0648783628786,805.3724631364358,807.7903732648165,852.3901218901547
1731655595.799338,877.2647188167836,805.8007391679789,805.5738818049513,827.8766744488099
1731655595.8023696,834.279075732069,806.4476064524192,802.7620035212256,800.4919555300818
1731655595.806266,803.3860391996956,807.84238713924,800.3189641750072,787.7937117107288
1731655595.8101623,801.299526757656,810.3883622631987,799.4816429328208,795.1899026038484
1731655595.8135562,820.3605739252013,813.9128664987446,800.8052542943246,812.1557855548001
1731655595.814059,836.5042581015795,817.4743647330957,803.657522531793,821.1934924803105
1731655595.8179555,830.0786223530565,819.6275973892634,806.6381068204262,812.2733942007735
1731655595.818212,802.314273436963,819.0775097977071,808.5655820624169,791.0544036756337
1731655595.8218522,773.9981162368288,815.4069225674679,809.1521489552265,774.2702712565613
1731655595.8257487,767.7325130702269,809.4696738798218,808.8785742225465,776.1004151952101
1731655595.8291817,788.649384829508,803.1720051358618,808.400634240176,796.501048158192
1731655595.8296452,819.4676625050886,798.6746934143758,808.099689504742,820.7211478461024
1731655595.8334758,833.9095628496085,797.3698879176856,808.0204122450891,830.3353132403803
1731655595.8335416,817.6994157443146,799.1546138462061,808.0412081118606,817.2289279841987
1731655595.8370864,780.3224647303314,802.4539790408927,808.0470695731332,789.7345309869759
1731655595.837438,747.8762097386966,805.1024734073222,807.998362970341,766.0746987386292
1731655595.8413346,742.2318756488626,805.6390223876944,807.9128453626918,760.0641139126027
1731655595.8448071,763.02773748159,804.1546545943258,807.8219275888518,770.3467418330902
1731655595.8452313,787.5395728052865,802.0287467681717,807.7432953397295,782.0395142452089
1731655595.8491275,789.409747812161,800.7413172014205,807.6777008111065,779.739459901931
1731655595.8530242,761.3073657218096,800.7554375174709,807.6181586026343,761.1740629528236
1731655595.8559606,722.3862468495986,801.393593667705,807.5587307697998,739.7663665875834
1731655595.8569207,703.4806699765253,801.6877102374865,807.4976472515652,733.5263852286683
1731655595.8604326,721.754081009245,801.3021778854041,807.4360422212632,749.4158849576411
1731655595.8608172,765.8681817382552,800.6821239767303,807.3755958304617,776.4479569121198
1731655595.8647137,804.2813289768263,800.4321434759214,807.3171789581991,793.5932398176599
1731655595.8684206,810.0460125776376,800.6560802924207,807.2607755800253,786.2122920721628
1731655595.86861,781.784686550166,800.8959169674798,807.2060023534794,757.6664961717534
1731655595.8725066,743.8292937225852,800.6139305674845,807.1525601460063,726.7467390830874
1731655595.8748348,725.8001371915416,799.6512435644673,807.1003750297155,713.1025365330547
1731655595.876058,738.6734601533128,798.2463130893774,807.0495195380498,722.4372731830332
1731655595.876403,766.9579220837527,796.7344167938934,807.0000901436118,743.2016162415764
1731655595.8802998,783.0886900664452,795.3423338774869,806.9521409642306,757.0614052412644
1731655595.8841963,771.6790671712596,794.2756494714122,806.9056768228272,754.2394029844468
1731655595.8880928,743.0584226975003,793.8989563701125,806.8606679970727,741.0216091420663
1731655595.8916838,724.5796859488192,794.7018643811538,806.8170643166748,733.4416422318236
1731655595.8919892,737.0456266226679,797.0011431256844,806.7748177408662,742.8055023285943
1731655595.8937087,776.2220141430513,800.6254960446491,806.7339291546903,765.4421708300251
1731655595.8958857,815.0694111963877,804.8624992948257,806.6945004236882,785.2875546240571
1731655595.8997822,825.0016947822629,808.7297117175856,806.6567206228377,787.0860092572841
1731655595.9033656,798.837156885082,811.389247952333,806.6207099476943,769.2564618212473
1731655595.903679,756.7928365525582,812.4485838513208,806.5862530646739,745.7888357088939
1731655595.9073093,730.6126788906865,812.0124585404478,806.5526617092484,735.4194158973628
1731655595.9075754,738.5719665941258,810.5506073630905,806.5191395386842,746.6534915457056
1731655595.9114718,771.5122950655459,808.7378316305087,806.4857870764044,770.7647846176146
1731655595.9125834,801.1111292453717,807.32363087961,806.4546357573114,788.6768871865562
1731655595.9153683,803.3522231180006,806.9407237357799,806.4292462078507,786.3535417573559
1731655595.9192648,777.6851907973899,807.8026621964972,806.4115493162656,766.1617754524117
1731655595.9229348,746.2726188430782,809.4805533548582,806.396863284776,744.850312226038
1731655595.9231613,734.7285819362559,811.0689789046841,806.371907323924,739.9152075960744
1731655595.9270575,751.0839713836374,811.7724369244173,806.3226643437825,755.7506912086454
1731655595.9309542,780.2760282845042,811.4701275447128,806.2536958512887,780.8314649203363
1731655595.9314575,797.5976043226107,810.7090543543104,806.2059244490554,797.6525674842528
1731655595.9348507,789.0038975726042,810.0779338870051,806.2446979205372,796.761873156064
1731655595.9383104,761.789265696446,809.5594945307208,806.3951315836625,783.5560955596736
1731655595.9385602,737.9932079091682,808.5264526554876,806.5459170333577,772.9751590112876
1731655595.9387474,736.5742922364554,806.4014258544211,806.4107793692492,776.9113018683428
1731655595.942644,758.4578217691123,803.3069730220175,805.6529516219423,794.5040750034381
1731655595.9465404,785.9454970163655,800.0428713815545,804.1583284609128,812.9210568958222
1731655595.9503317,796.9998106540232,797.4365639093531,802.2533511255124,817.9295886403145
1731655595.9504368,783.3166434444515,795.7453143547527,800.6313971587077,805.7586494083698
1731655595.9541855,757.554343724181,794.6778799402191,799.9661523349548,786.5000194550197
1731655595.9543333,743.1963002001737,793.9232660015721,800.4530366253232,775.9850574399245
1731655595.9582298,754.7856087626267,793.5814150342113,801.6047618789873,782.6576996268394
1731655595.9621265,784.9800908681998,794.0557085717865,802.486630603325,800.430433137808
1731655595.966023,809.8132002139099,795.5425351318559,802.2909601288122,813.6752752932608
1731655595.969206,808.2891133432357,797.6472150098277,800.8846575474646,810.2461820141418
1731655595.9698112,780.1035513411607,799.5332611760367,798.928465546636,791.6252600297536
1731655595.9699194,746.6416271218027,800.521415786603,797.448495293193,771.764739348246
1731655595.9732552,734.1621665481184,800.6345121675655,797.1663580241294,765.6234801427986
1731655595.973816,752.6350668111012,800.6026222705287,798.1080549817804,776.7970462339629
1731655595.9777124,787.3760249029483,801.3001214118003,799.7808315028765,794.3571154491402
1731655595.9816089,810.5794691324163,803.0806844353125,801.6955291756487,801.6565406292284
1731655595.985437,803.8101275419001,805.5449590348396,803.7000357793482,790.1722608800246
1731655595.985505,773.1926163681572,807.8618532274569,805.8150002565939,767.0758239268721
1731655595.9880805,744.5067874911491,809.2992226612695,807.8216889104542,749.9511538208004
1731655595.9894018,741.8816779381369,809.5511158992542,809.1493668634364,752.5517305276882
1731655595.9932983,767.7370035378772,808.7469131287806,809.2896549620751,773.2352322344079
1731655595.997195,800.8731931185556,807.2893657769005,808.3421098029199,795.9248220724629
1731655596.0010624,814.3370043777895,805.6604266067276,807.0580250079304,803.1275924930243
1731655596.0010917,797.9081523607335,804.225476890948,806.2111587810911,790.2868761514327
1731655596.004988,766.32195844576,803.0842570781086,805.8417902563375,769.4811717145278
1731655596.0069544,746.6937687699136,802.0912785933004,805.1382621789229,759.3966884072238
1731655596.0082,756.0619585983966,801.0904978770776,803.1701187822873,769.9292812393571
1731655596.0088844,787.7437586540931,800.1957560167382,799.8801703728268,794.1163296705951
1731655596.012781,817.4215745689698,799.846992949699,796.4521241463287,813.9780203544655
1731655596.0166774,823.5114153417884,800.5271333944129,794.6704594614667,815.408985766824
1731655596.016688,804.7662272392184,802.30655292761,795.7212594453696,799.7568970779091
1731655596.020574,780.5075867584394,804.5578393519702,799.3232024281799,782.3470067479245
1731655596.0244706,773.4550113329259,806.1259584407225,803.7989369775646,779.109450495547
1731655596.0258286,789.8826940201416,805.9602030815648,806.9942709676474,792.6953851942891
1731655596.028367,814.2124168919527,803.8498811803908,807.4089776084803,810.1302437904711
1731655596.0322635,822.8322437928514,800.7198065216043,804.876896037719,814.2361734549837
1731655596.032313,805.3495167540033,798.1726719167028,800.5219965338083,799.1156717316292
1731655596.03616,774.9414523270647,797.5228662697522,796.1410786561114,776.3391649925418
1731655596.0400565,758.5987819801095,798.9927109373654,793.3548072901094,766.32257622366
1731655596.0431447,775.0184221462605,801.6390451827948,792.8717059106389,781.9017371418938
1731655596.0439527,818.3516974115465,804.0339448854427,794.1855250750565,817.6146316054394
1731655596.0447028,861.4005784084765,805.2069330950225,795.9415545657578,853.425870134028
1731655596.0478497,876.1589186493298,805.2320927848281,796.8824529519545,869.8526787268929
1731655596.0479388,855.5246199380355,805.105483233908,796.7864578034051,862.3805104526558
1731655596.051746,818.7681027779103,805.9848221079185,796.6158355413712,843.8022215424317
1731655596.0556426,796.1192822417537,808.2509868253572,797.6275575473007,832.9098904161633
1731655596.0595393,804.6926450819217,811.0310097745737,800.1769773965294,838.9569891202743
1731655596.0634356,835.1843637559318,812.6220168503398,803.3645861020515,854.584700107645
1731655596.0635643,860.0585958119748,811.6589050334597,805.8581202696222,862.7298635471858
1731655596.0635772,856.3581031905803,808.2286387520687,806.974449601915,851.426580168538
1731655596.067332,824.5087132035798,804.0237880824404,806.9725991536307,824.1421184700052
1731655596.0712285,788.0948194730452,801.2941205259682,806.5430546217342,797.3529164193461
1731655596.0751252,775.1377065997216,801.3339523127277,806.211070169471,787.6664332634559
1731655596.0780897,796.0520849024372,803.6748462277877,806.1289252967076,799.0650227047855
1731655596.0790217,835.6902098925821,806.5976602807617,806.2019584576274,820.366265903819
1731655596.0791898,865.4283741856926,808.4958350744265,806.291276022212,834.5975853661496
1731655596.082451,865.4575019720759,808.9649284276653,806.3266468257351,832.5523401363632
1731655596.0829182,839.6054904068646,808.8062032016751,806.3115159627027,819.6288890399936
1731655596.0868146,811.0866438348744,809.0861779462977,806.2789268730173,810.4900066288926
1731655596.090711,802.9139565365972,810.144127083572,806.254017474949,815.9711448239185
1731655596.0946076,819.2755512809373,811.3730815303996,806.2428190273247,833.2497874283157
1731655596.0948153,843.3645607567968,811.8355097535019,806.2393734991954,847.8668766775257
1731655596.098504,853.0485880793727,811.0418709264696,806.236282098852,846.2105919298649
1731655596.1013255,840.3851814113409,809.1874007557992,806.2301389714609,827.8514121243587
1731655596.1024003,818.0230470992359,806.7705422429815,806.2213716446088,806.9143458280325
1731655596.1062973,807.4405890359368,804.1198026380644,806.2117771358068,800.9488499528455
1731655596.1101935,819.7680306806946,801.3422028720413,806.2026072842788,816.4639524980821
1731655596.110441,845.7956128190262,798.6676525262154,806.1940869057894,843.1673542321262
1731655596.1130345,863.4148647066781,796.7019990432841,806.1858493535657,861.7070243425918
1731655596.1140902,856.0461529506323,796.1820676958664,806.1774942172959,858.6749389170924
1731655596.117987,826.7539005321516,797.3542398452491,806.1688479026798,836.8717309696312
1731655596.1201997,796.3460739144475,799.5496429226451,806.1599316113372,812.7330670571414
1731655596.1218832,786.6483675592192,801.4405901272036,806.150822356608,803.078516467493
1731655596.1257796,802.3471204530998,801.8715351054892,806.1415574117364,811.8609631139466
1731655596.1260664,826.5849161909299,800.6086690363225,806.1321247422641,827.6025504791892
1731655596.129676,834.7068934952787,798.395913954223,806.1225046629396,833.518440790992
1731655596.1335728,815.2994191277679,796.3194733648571,806.1127052995961,821.8855058309342
1731655596.1374693,780.8155225796556,795.0650382987171,806.1027498608228,800.70601422276
1731655596.139074,758.2791620677096,794.6550350589824,806.0926124667229,787.1779567292878
1731655596.1413658,767.3323189104327,794.7531971062747,806.0821538908544,793.4407612158408
1731655596.141692,803.7527274112894,795.1528782934585,806.071153571364,816.3144456185846
1731655596.1452622,842.1249138107263,795.9991211287663,806.0595102202363,839.3563546150692
1731655596.1479793,855.5723458154088,797.5670791126317,806.0475346311116,845.6246782206814
1731655596.1491587,836.6241296072643,799.7700471429646,806.036028360746,831.0374323312252
1731655596.1530552,802.4915219063263,801.8136170655325,806.0257510924424,807.6487333664375
1731655596.1569517,780.6626769658259,802.41907833296,806.0162423189322,794.0179476989373
1731655596.1573174,786.6289814995838,800.6963221246033,806.0048550612462,800.2336559619891
1731655596.1579485,811.928294747072,797.1495115179058,805.9876876897938,819.8022660757754
1731655596.1608484,832.1940156278035,793.9045521134116,805.9635767755826,835.2797012019535
1731655596.1647449,828.3274884734133,793.5861325365395,805.9394070403708,833.1161291610039
1731655596.168641,802.978961797857,797.3398476867159,805.9307673749558,815.2115891545117
1731655596.1725378,778.4836698261039,803.4843542246813,805.9508286956408,797.2648825439298
1731655596.1729429,778.0065247952152,808.1507671380706,805.9879968251322,795.2365761802043
1731655596.1764345,805.693739168465,807.8167776568818,805.9899637024349,811.4501835150851
1731655596.1768224,842.3380986958476,801.9686420318361,805.8859143481795,832.1482007793264
1731655596.1803308,860.2083957589492,793.7704859730659,805.6654843551056,838.624231415728
1731655596.182924,845.1980906514343,788.0773673508613,805.4757753862357,822.7942180305512
