timestamps,eeg_1,eeg_2,eeg_3,eeg_4
1731655832.1171105,827.5095512184959,807.4164507053117,807.0095254912137,821.4058563272948
1731655832.131084,826.2392523484265,807.4952705859439,806.8018767108213,820.7011096566454
1731655832.1481369,823.1536041786931,807.2430570077345,806.084136975677,817.756197455508
1731655832.149958,819.6770446171586,806.6698820676361,804.8974363813069,813.4828811324809
1731655832.152,820.3834938887504,806.2057821794033,803.9825016032037,812.2287268011405
1731655832.1637266,828.8666840322156,806.4552613019771,804.374328918969,818.3853348455904
1731655832.1688323,842.6354434526106,807.8188486374011,806.68868499535,831.6645069516306
1731655832.1713676,852.1127368167101,810.2750155597668,810.6143437373096,845.3328479685081
1731655832.175264,846.5043546920086,813.4604791929758,815.0150545235405,850.1228678904706
1731655832.1791606,823.3282594488538,816.8919829795552,818.5634454880837,841.6945608985719
1731655832.1793163,793.6025663447917,820.0438055378838,820.3895131616164,825.3687816797805
1731655832.1830573,776.4760057474575,822.2277975384866,820.2945268197833,813.0341864184996
1731655832.1868896,785.5265347565029,822.5861072484391,818.5863735932635,813.7486232104471
1731655832.1869538,817.155446977543,820.5055426931606,815.9226093785677,825.823286246452
1731655832.1877067,851.4229674899734,816.264298038584,813.3071990968728,837.7158130548836
1731655832.1908505,866.1619961744361,811.2636308290317,811.9484831269859,837.6307670706426
1731655832.1947467,853.8681869669598,807.4123787170512,812.7149123317395,823.8805737741664
1731655832.1949062,827.610959233221,806.0185215771612,815.4711242855584,806.9739815202846
1731655832.1986432,810.5122319940699,807.0721567234272,818.9562788338509,801.2585711575354
1731655832.2025397,816.8141995964374,809.4619596985231,821.510880986199,812.9129787320361
1731655832.2064362,839.938917171458,811.7911095456786,822.1525363772832,834.3976006452751
1731655832.2065809,857.6202678146535,812.9861078723494,821.1016445337717,850.1659951781014
1731655832.2103326,850.2274790863753,812.3074924161463,819.3330558316745,848.9972166993682
1731655832.210496,817.3942094822888,809.1610886103747,817.6287477841389,832.8011068982496
1731655832.214229,779.2832385863283,803.3364673108737,816.0332944927414,814.7777644981095
1731655832.2181258,761.2878459575733,795.6759708863381,814.1580603819615,808.6288872763797
1731655832.221779,774.3927964508092,788.417563352549,811.9199262689008,817.6595826028506
1731655832.2220223,806.8479093690999,784.486361222192,809.8968541342664,832.3953251563061
1731655832.225455,833.6526913098472,785.9158579785355,808.913823909922,838.3704579359666
1731655832.2259188,836.1819165440563,792.4837387419174,809.2771321199027,827.8338152790093
1731655832.226086,816.3807204350444,801.6451690871764,810.4362595213706,806.263775
1731655832.2298152,794.3933836331586,809.9053615770016,811.419986910253,788.612393186699
1731655832.2337115,791.7051941384354,814.6941834028921,811.6201838022844,787.9992319029802
1731655832.2376082,813.4807849084468,815.4665448640358,811.1738582426361,805.4848478407123
1731655832.241505,844.4108288494506,813.4059086384747,810.6456764104082,829.0434842806225
1731655832.2416756,861.3068919102648,810.2040422095764,810.4474709334235,842.8754837975395
1731655832.2443297,851.964749153471,806.9962333854213,810.6425571544193,839.8906275983835
1731655832.2454014,824.8788654449199,804.1476127698656,811.2423247914229,827.3069336144679
1731655832.249298,802.1528591858616,801.6791144005674,812.4593128360365,820.5535945273481
1731655832.2531943,801.6641742684574,799.663372935085,814.4366747723391,830.0862511866972
1731655832.2566688,822.9547959819273,798.2798499910708,816.704663725103,851.7507934157259
1731655832.2570908,848.005732056596,797.7583344042745,818.1304813158212,868.9068398934998
1731655832.257265,856.0443075603692,798.4237593082643,817.7121530217418,865.2502717823038
1731655832.2609873,840.3983791229685,800.6486631930671,815.5889522230929,838.3859469816912
1731655832.2632036,813.7847999164686,804.4791362296083,813.2034202070395,803.000958169254
1731655832.2648838,797.6402070279498,809.2009993643593,812.242237388812,780.4464580346478
1731655832.2687802,804.1304394920271,813.433757522576,813.1797837878719,782.6384292443371
1731655832.2726767,825.8183035255079,815.8921437233582,814.744771102914,803.2541544804797
1731655832.2728553,841.8858691304603,816.1925032066124,814.8859883621556,823.4770222605346
1731655832.2765734,835.8556878601972,814.9604715010533,812.486994841688,827.4505675487981
1731655832.28047,809.8323508694284,813.2032711695174,808.382562692135,814.5405612295496
1731655832.2820778,783.2133004495718,811.6074092577579,804.7973285515778,798.5392337980904
1731655832.2843664,777.0201152863785,810.3421167617224,803.6637503883985,795.1874656379463
1731655832.2882628,796.8834853290407,809.3126889574993,805.2116154634039,808.8479347979655
1731655832.288445,828.3969621336489,808.41909960176,807.9459958898814,829.0941698655149
1731655832.2915585,848.2127050353218,807.5790863174832,809.9143582832396,839.3287158137866
1731655832.2921593,841.8309048164211,806.6674950070825,810.1064882134227,829.9996215220822
1731655832.2960558,814.1769231179265,805.5954584452859,808.8538668758911,805.9361408382756
1731655832.2999525,785.0104634794143,804.4952933541867,807.1041360649992,782.4496332341977
1731655832.300952,773.1717823131011,803.7667138996562,805.4500171324246,773.7187633286852
1731655832.303849,782.4126421486586,803.8297211530651,803.856081427897,782.7173510067181
1731655832.3040347,800.0742877486643,804.7170143784741,802.1738747818587,800.257379752381
1731655832.3077457,809.1528883183076,805.8519537599748,800.7066520629675,813.1948171933807
1731655832.311642,803.2050246231415,806.3019442734222,800.1362875648432,814.7322860649924
1731655832.3155384,791.5361251434366,805.4553486707957,800.9077598744886,808.72972633822
1731655832.319435,790.7074004204989,803.6479492114472,802.7518433531103,805.3338093284214
1731655832.319625,809.8497345440888,802.1417495298934,804.8157525106564,812.144008195654
1731655832.3198264,841.9263237435791,802.2858400051745,806.2231241364336,828.0491423969012
1731655832.3233314,867.8683360634196,804.4185623991818,806.553871354062,844.1971690307481
1731655832.3264482,870.3994736568153,807.4314410465579,805.9594273272204,850.9766603994476
1731655832.327228,847.0813372966553,809.4544314885974,805.0015585923277,845.4763153347283
1731655832.3311243,812.521062621654,809.1704721890904,804.3978834403963,833.5180523991137
1731655832.335021,787.5607177653097,806.712619012218,804.7143756216379,824.4585730893837
1731655832.3352144,783.4094654683141,803.4782229230425,805.9939051654566,822.9104294126217
1731655832.3387003,793.35057620493,801.1128347375112,807.4866778344696,824.5802362020654
1731655832.3389175,799.1918661992619,800.4887482326732,807.8122421283775,820.3026070204162
1731655832.342814,787.5349048325149,801.3249984480952,805.7051441080032,805.1099006156585
1731655832.3467104,762.2547201100182,802.5360667611551,800.9887724281842,784.2348919942611
1731655832.350607,742.2738462881399,802.9891959578673,795.0317279539071,770.1770607930972
1731655832.350804,745.9905409228484,802.2301348549934,790.1556363493155,772.7225950874503
1731655832.3545034,775.1585523727741,800.7791162803013,788.2580833457622,790.2190444860764
1731655832.3575747,811.798141418641,799.784929853314,789.6341859510663,809.7418254111034
1731655832.3584,831.2089998576787,800.1982907639263,792.9061552022964,816.571062130244
1731655832.361338,821.0478805739538,802.0107614540984,796.07973655206,805.6571042045555
1731655832.3622966,791.2386936322955,804.1468769972173,797.8336956186681,785.8213054783248
1731655832.3661933,766.388722323871,805.1479046296269,798.0658196020298,772.9823385257569
1731655832.366394,766.276931710276,804.1595942744286,797.488937170309,777.5049522491463
1731655832.3700895,790.0029468711639,801.4784486002992,796.8650899735663,795.812503331761
1731655832.373986,816.9872176813818,798.2741816915866,796.5465654981655,813.2744756117673
1731655832.3764489,824.3377320100496,795.770626426088,796.4947453780674,816.2210977458104
1731655832.3778825,806.2036042806249,794.5389708252984,796.5266906627301,803.2367777767388
1731655832.381779,778.7473197225336,794.3536281708116,796.5115801999254,786.3132510307404
1731655832.3819838,766.4875083132557,794.555413156899,796.422669058842,780.8727632345863
1731655832.3856757,781.6450293936462,794.5472627198417,796.2946207244422,792.9935872226168
1731655832.389572,813.914843403551,794.1141621779311,796.1668074051009,814.418590536037
1731655832.3934686,838.9509503426463,793.5006550276446,796.0560005683091,829.2725940767164
1731655832.3953233,838.0924423895641,793.3005570316736,795.9587558851829,826.6869623230679
1731655832.3962276,812.9968008957519,794.1827819799818,795.8650706956072,808.9539014497122
1731655832.397365,783.690469115548,796.4942446335305,795.7683528497155,788.9064079311004
1731655832.3975737,772.2469457194611,799.935159016882,795.6675752014417,779.1448283054602
1731655832.4012616,785.5344488125318,803.5968947036816,795.5647251405533,782.1204148304365
1731655832.405158,810.7207748511374,806.4582644112577,795.4618254736697,789.0482954010715
1731655832.4090545,826.6833185041188,808.0457741532782,795.3596325020737,788.2546503151684
1731655832.4129512,821.5508693726941,808.7535779577614,795.2578683858477,775.8357343238843
1731655832.4131634,801.7351454024885,809.5349407979706,795.155967650529,759.6426357277467
1731655832.4141974,785.1808656891129,811.1563908433768,795.0535782205868,753.1386458485739
1731655832.4168477,785.0709893564584,813.5529668304953,794.9506441881301,764.0895296231117
1731655832.4207442,798.2656399304664,815.7768590965488,794.8472577310522,787.4489435431667
1731655832.424641,808.3994160529217,816.6296712091845,794.7435048440985,808.5657261478731
1731655832.4285371,800.7391585146917,815.5712222683741,794.639404272388,814.4814669488718
1731655832.4287531,775.8117096770143,813.2403443241008,794.5349224908181,804.2935239494496
1731655832.4311173,749.993446440476,811.1298343744326,794.430009189026,789.9682534832912
1731655832.4324336,742.3829380634484,810.5479906454201,794.3246191744469,786.5623748029575
1731655832.4330716,758.8146925980377,811.5697602314665,794.2187209038401,799.5813543239294
1731655832.43633,786.382828819588,812.7779691962821,794.1123059836638,819.9412737158804
1731655832.4402268,803.4032722506837,812.0900872518728,794.0054014032129,831.1087123846404
1731655832.4441233,797.0600354699604,808.1975940486182,793.8980627276943,822.9216260740584
1731655832.444343,774.2685925909814,801.6748895440098,793.7903206166611,800.6624360331489
1731655832.4480195,756.4004572424969,794.9804682284163,793.6820898890355,781.5333539753578
1731655832.4519162,761.7352909242434,791.2502244460464,793.5731235929532,781.1253328349819
1731655832.4519458,789.9171867909103,792.5413688720178,793.4631413427611,800.9087847666497
1731655832.4558127,821.3120459992828,798.5872762790628,793.3521787934803,826.9388114013872
1731655832.4597092,832.0171365079816,806.8941723083761,793.2409441802806,840.7089576095034
1731655832.4599328,812.5754983245146,814.180912895324,793.1306725050387,833.334863113118
1731655832.4636056,775.6210372018018,818.2223399850047,793.0220222882253,811.895254847941
1731655832.4660068,746.6236858498155,818.8536745031031,792.9133482963692,793.2864188820039
1731655832.4675024,745.055703083685,817.5599879250997,792.8000335067836,790.824879087743
1731655832.4708202,770.4066392261452,816.1603951582931,792.6772570843809,804.2800666321918
1731655832.4713988,803.5264371994904,815.6371468038525,792.5467339455065,820.9838985774588
1731655832.4752953,822.0315904232644,815.7789714594488,792.422901081325,826.6959290988174
1731655832.4755225,817.6914548135619,815.5636555860783,792.3288359683193,817.1328306948228
1731655832.4791918,802.0399839052213,813.8517623241867,792.2742574974632,800.76283131127
1731655832.4830885,795.7057903324713,810.0870700306754,792.2239376145741,790.9197891317866
1731655832.4869847,810.2379076951788,804.818120468276,792.0900813102478,794.2625739548688
1731655832.4896944,837.610641680235,799.7470459589771,791.7926495373108,805.4338709870927
1731655832.4908812,856.3786492981758,797.0377035765244,791.3934546626163,812.166564388354
1731655832.4911125,849.5995339719667,798.0932418383214,791.2173915891312,806.1384173184109
1731655832.4947777,819.7540211986322,802.5961911547173,791.7996081528447,790.2794499085271
1731655832.4986744,788.1718756730592,808.5990318361437,793.5737234512991,776.5116230231982
1731655832.5008965,778.9904549164086,813.6891290963248,796.4672756900825,775.9119519311071
1731655832.5025709,800.273459381714,816.3756659363047,799.766506963919,789.4336234834398
1731655832.506467,837.4252514909612,816.6786484436376,802.4760298749044,806.8529908784634
1731655832.5067022,864.3165335026704,815.5985329338326,803.9759210613728,814.9984226716462
1731655832.5085683,863.3122982044558,814.0636973312231,804.4447606925524,808.7039666155905
1731655832.5103638,838.1787990216774,812.2849125137229,804.6222296324037,795.3713327109841
1731655832.5142603,809.643776744683,809.9599246678891,805.0336482549496,788.9252418907877
1731655832.5181568,797.6369912255415,806.9667413103826,805.3707064535012,797.7998516112445
1731655832.5220532,805.2272370626555,803.7963914269251,804.7332103383835,817.1000245826623
1731655832.522292,817.632207219015,801.3111517204514,802.695775360822,832.0327813393833
1731655832.52595,816.6296831805952,800.0979139703284,800.2478805185474,830.1508467511596
1731655832.5274427,797.4920697982461,800.047932781158,799.521412576528,812.1532754775126
1731655832.5298464,773.6664345605872,800.5282505803058,802.2166809648988,792.0002382051681
1731655832.533743,765.2478424760127,800.9463512825184,807.9535803933438,786.0671346190978
1731655832.5357862,781.2603050704012,801.214451570407,814.0952336746105,800.1491793119153
1731655832.5376394,811.0220772232144,801.7961796736133,817.4418718654197,824.7819357688967
1731655832.537882,832.2468900356588,803.3800956523694,816.5340805542779,842.5619371525697
1731655832.541536,829.4327660570428,806.4154233206403,812.6756266386251,841.6110365913232
1731655832.5454323,807.1214435810855,810.7236107722058,808.8215358501888,824.502840331712
1731655832.546317,786.4199329750984,815.3446913904355,807.2807930958768,805.5734509262055
1731655832.5493288,787.1116444259673,818.7561903876275,808.1493874755627,798.8562424405969
1731655832.5532255,810.2784835737428,819.4912920180889,809.6766635142569,806.5668962539344
1731655832.5534716,836.5178954966556,816.9170743196828,810.0570533438946,817.691831521304
1731655832.557122,841.8251157563174,811.6949627959918,808.9831482821908,817.8207543731428
1731655832.5610185,818.0330489696302,805.526200213549,807.6740946329517,801.894616156439
1731655832.5649147,780.6194655715234,800.2579634324347,807.5485591495519,779.1311447321065
1731655832.5651913,757.2162583870072,796.9606243892633,808.8667080256963,766.0403040067607
1731655832.5688114,766.0523425445482,795.6632127950076,810.5426991607098,773.2809406076553
1731655832.5690613,801.5032942961603,795.8707815093392,811.1717081933543,796.8827336763882
1731655832.5706758,838.0097577542656,797.2630027487465,810.2352300417824,820.6295295834277
1731655832.572708,849.2595177148662,799.8362097396637,808.3969576863417,827.7146735157254
1731655832.5766044,827.9111003285784,803.3949579846479,806.769068570683,812.8962364436271
1731655832.5805013,790.7676689664224,807.0605327551831,806.0024204750245,786.1084522027443
1731655832.5840654,765.4414269361108,809.5011574921401,806.0166440991384,764.8719116031716
1731655832.5843976,768.9524786367975,809.8236044284912,806.3590376599064,761.3119917837272
1731655832.5846512,795.1491666659392,808.3017357011723,806.6527513373094,773.7635387450985
1731655832.588294,820.7873231016858,806.1805998082798,806.7737452721632,789.3021890114873
1731655832.5921905,824.9618462949293,804.6488361290109,806.7791949145602,794.7719845406534
1731655832.596087,805.8169007014963,803.8658309084899,806.7668394400911,787.1497038340851
1731655832.5999837,781.0888295594474,802.8959060713253,806.7902697584537,775.0267660676168
1731655832.6002407,772.6787267785481,800.6137151366347,806.8504562575022,770.6286418059999
1731655832.6029396,788.4334370482221,796.8508362827941,806.9251009488573,779.4616826412386
1731655832.60388,816.0167371706697,792.8803348371832,806.995829588461,796.0948680954335
1731655832.6055653,833.4618565640188,790.8102310660726,807.0574395955593,809.1350057735897
1731655832.6077764,827.5077034208451,792.2022889539925,807.1136485066538,810.9744247159381
1731655832.611673,804.6925818898025,796.8215735632555,807.1696938502259,804.2189414854445
1731655832.6155696,785.9956612868299,802.474200347977,807.2282026307771,799.450353432431
1731655832.615831,789.2015008513769,806.2155837730209,807.2890467530533,806.0200649300434
1731655832.619466,813.599413112472,806.162301580106,807.3510019613497,823.4765229964877
1731655832.621814,840.1696445639658,802.5870134408269,807.4131454373447,841.0655394151206
1731655832.6233623,847.5496310769158,797.5165891322109,807.4752678373956,846.2030657088092
1731655832.627259,830.4304285208086,793.265436938268,807.5376042035522,835.0889951074577
1731655832.6311555,804.5939514900942,791.1083437124626,807.6004400361965,816.3963091959201
1731655832.6314206,794.0427333368831,790.9790973626033,807.6639095670891,804.5518018491258
1731655832.635052,810.9134853052838,792.1031614605595,807.7280026444342,807.9984500792307
1731655832.638949,844.8840762089906,793.7911157001149,807.7926575396862,822.2868783540752
1731655832.640455,870.7352317954931,795.7381747580722,807.8578338414039,833.88131619099
1731655832.6406882,867.9229984402546,797.7972403918307,807.9235320858503,831.5569593459925
1731655832.6428452,836.659906134925,799.6684047089456,807.9897771390944,815.8804760425779
1731655832.6467416,797.9520286911284,800.9012367197191,808.0565923809307,798.8071675971586
1731655832.6470103,777.5275797922933,801.1885985392257,808.1239811044312,793.6324710865077
1731655832.650638,786.1700681016237,800.5978132216064,808.1919226555851,803.7261095097749
1731655832.6545346,812.0412372076073,799.4553064116026,808.2603888955589,819.7344253772865
1731655832.6584313,831.1924430246033,797.979538648859,808.3293807536794,827.7894980393831
1731655832.6595623,827.563133306909,796.0601887543118,808.3989641818264,821.5963590260719
1731655832.6623275,805.7671909665024,793.5040072793273,808.4692585211397,807.7465656891424
1731655832.6626,786.1450384221229,790.6349377908401,808.540333467519,799.6404774759321
1731655832.6662242,786.7514598231357,788.6926344314007,808.6120425006845,805.5158211024104
1731655832.6701207,807.8141209254305,789.4636221668208,808.6839490749077,821.0472834415639
1731655832.6740172,831.5090329653335,794.1640004812235,808.7555749621504,832.6763630592258
1731655832.6753447,836.6918650850153,802.3462234903586,808.8270370013016,828.6546445050634
1731655832.6779137,816.1851112577166,811.7739841925699,808.8996622426758,808.7714682948822
1731655832.67819,782.8553241641007,819.5107734399845,808.9756590607295,785.2207781122934
1731655832.6784365,760.0121273932303,823.4897196622634,809.0560705740274,774.0103239227358
1731655832.68181,763.7350713218052,823.4657089114419,809.1377080873701,783.2625494478846
1731655832.6857066,790.7148482102616,820.7786149823058,809.212173033863,807.0467324761603
1731655832.689603,821.0106078022326,817.2594689771227,809.2711711540001,829.5507303664832
1731655832.6934998,833.685202619347,814.144347466728,809.3187759783781,836.8176473425124
1731655832.6937797,822.9873877702231,811.6812155817491,809.3821415802961,827.2614847970655
1731655832.6973107,802.0098160562247,809.4775339455294,809.5033690980214,812.6876118187309
1731655832.6973965,790.8680763852516,807.1215219069281,809.7003798144148,808.7997405110027
1731655832.7012928,799.3677295823071,804.5978255346727,809.9157260486533,822.616165089967
1731655832.7051892,818.8008340661424,802.3578762208523,810.0214935046599,846.8255686733117
1731655832.7090857,829.7702209492601,801.1548647729005,809.9437813324998,865.5381680625954
1731655832.7093694,819.4060406779889,801.72802204196,809.8018391224999,866.6868097378326
1731655832.7102344,793.5052385093541,804.3555641746135,809.7762889239833,851.1181868393122
1731655832.7129822,773.2913880969326,808.4374894192988,809.6727840010574,831.3258483379573
1731655832.716185,778.9123957412238,812.47560341338,808.726929580672,821.1697370243858
1731655832.716879,812.5237796048269,814.706451705788,806.1869992128932,824.9878258664693
1731655832.7207751,854.6464749767548,814.1234974012247,802.300245962745,834.8364506739082
1731655832.7246718,877.5977439670847,811.149301652038,798.5981116668423,838.0157636233483
1731655832.7249594,866.2542102286618,807.3604789944069,796.8880216410078,828.559797236299
1731655832.7285683,829.7874117188649,804.4309622730559,797.6883875049197,812.825227575771
1731655832.7324648,794.5116827986755,803.1402096857744,799.5607691692153,804.1133221045889
1731655832.7350593,783.2591159111898,803.1952906989026,800.0933601659012,810.8139629497973
1731655832.7363613,798.0902045017738,803.8413396736349,797.8177824722327,828.507676396891
1731655832.7402575,820.4592753082476,804.5859821526361,793.4778268346349,843.1627637251028
1731655832.740549,828.1761501231413,805.4363007246342,789.5881830451151,842.80190058174
1731655832.7441542,814.4583225694151,806.6204815936536,788.6373656722922,827.5898211065024
1731655832.745124,793.0901145562952,808.1804194226626,791.3645870737869,809.7325307103289
1731655832.7480507,785.8530497296944,809.765669708322,796.3962506602142,803.3267135364099
1731655832.7519474,803.2808934192187,810.685364002859,801.3667227197678,812.6849988428919
1731655832.7539334,835.0534794555974,810.1382654310488,804.5049133140418,828.8303687083529
1731655832.755844,858.0614396249925,807.5759340666439,805.476466081518,837.1141966421575
1731655832.7561388,855.4411654475203,803.1415564729351,805.0764914662674,829.7699148683151
1731655832.7597404,830.7175104080521,797.9501018691547,804.3351582942039,812.959522493122
1731655832.7636368,805.089025984071,793.8297557812942,803.8551480033043,802.1272941445663
1731655832.7675333,799.8681278941908,792.3711953210708,803.7160867886903,809.1679990651818
1731655832.7714298,818.6893647325551,793.7641500523629,803.7339245218496,832.0871043732845
1731655832.7717288,844.5280181828394,796.4047048097397,803.7298111741744,855.9919864448509
1731655832.7728078,854.1605178807663,797.9295674190923,803.6400233522969,864.5738934923246
1731655832.7753265,837.9564702059096,797.1416407537195,803.4905004747927,852.2341709978932
1731655832.779223,808.3802952843782,795.2179493093115,803.329622772906,826.9037591844536
1731655832.7800138,789.9947651235202,794.8677369451019,803.1852138301733,802.3770804215741
1731655832.7831194,799.1197374672926,797.864349621036,803.0588771099183,788.0390102465235
1731655832.787016,829.9219389969351,803.1151629065822,802.9399362938929,784.5439347820338
1731655832.7873185,858.5421062346437,807.2687305051745,802.8190973113878,786.8619153503498
1731655832.7909124,862.0930157034283,807.5736419302929,802.693456186419,789.7362672314619
1731655832.791682,837.0692828050029,804.4016235665651,802.5646586766757,790.7337626795561
1731655832.7948089,802.0660405396906,800.9887827459177,802.4352665169719,790.0369226226475
1731655832.798705,782.5351487709274,800.6097298413159,802.3066233816954,788.8001152404197
1731655832.8026018,790.0810188489436,803.9046879446607,802.1786989088461,787.8616605825771
1731655832.8029082,813.2530261660227,808.7763862571805,802.0508804179796,787.3961700448144
1731655832.8064983,827.2430398605018,812.5454272357078,801.92267729106,787.1825610464949
1731655832.810395,814.4219999095563,813.9942209306997,801.7939477043878,786.9673899806461
1731655832.8105562,779.1096505619176,813.6392170548896,801.6647783956719,786.6415319288526
1731655832.8142917,744.9904440300847,812.6734400162362,801.5352904315031,786.2260417083102
1731655832.8149033,737.4404911513881,811.9408973828613,801.4055345393899,785.7847674171283
1731655832.818188,764.455485958286,811.6425562532087,801.2754903459894,785.3600618249801
1731655832.818498,810.4854416102261,811.5885875895779,801.1451107632064,784.9585850601443
1731655832.8220844,847.5321184980016,811.543437166989,801.0143580569695,784.5675069579842
1731655832.825981,855.0049824028531,811.4002675449374,800.8832138125007,784.1736514293747
1731655832.8294303,833.4200229691896,811.1747150778051,800.7516714554974,783.7719420538511
1731655832.8298774,801.8591044327937,810.9254221497841,800.6197259450965,783.3639700213645
1731655832.833774,781.7956447259486,810.6929242468269,800.487368690611,782.9532101790429
1731655832.8340878,780.6092881484376,810.4846684387936,800.354587906805,782.5417880958947
1731655832.8376706,787.9732836951015,810.2892396223117,800.2213711286677,782.129941069956
1731655832.841567,787.2155787779491,810.0942579445928,800.0877071352161,781.71698141558
1731655832.8454635,771.1809171874891,809.8946732526092,799.9535864218603,781.3023009557472
1731655832.8483047,748.8530201110572,809.6917499241545,799.8190006495771,780.8857430694203
1731655832.84936,737.4403687772211,809.4886846549377,799.6839418003924,780.4674343674582
1731655832.8496776,747.0426760511093,809.2875151481652,799.5484016128667,780.0474741310617
1731655832.849793,770.9794634624758,809.0885152276829,799.412371730474,779.6258122022003
1731655832.8532565,790.0552033837172,808.8910367808433,799.2758448010703,779.2024234291894
1731655832.8571527,787.6894389544692,808.6944477935416,799.1388161261838,778.7776321590932
1731655832.8610494,763.7755471761635,808.4985257497432,799.0012843554183,778.3522208994427
1731655832.864946,735.5472431787286,808.303370789855,798.8632491125481,777.9269268916378
1731655832.8652675,723.9885850132869,808.1091656654863,798.7247049971861,777.5013251506399
1731655832.867179,736.6421732777662,807.9160186440829,798.5856358563198,777.072950484405
1731655832.8688426,761.4384414637933,807.7239404271,798.4460179705364,776.6382523106563
1731655832.8727393,777.2696012241774,807.5328962257029,798.3058393233257,776.1964075357714
1731655832.8766356,772.5838605040259,807.3428629949631,798.1651282722357,775.7542253138893
1731655832.880532,755.9737125895941,807.1538559282047,798.0239624198568,775.3264579096129
1731655832.8808572,749.3134031959717,806.9659178858471,797.8824185260103,774.9249747630755
1731655832.8844285,768.852058562218,806.7790792998582,797.740458058109,774.5377682670987
1731655832.884683,809.9566387651723,806.5933095892997,797.5978293659134,774.1148244110288
1731655832.886053,848.4211098005626,806.4085032206111,797.4541507284462,773.5905062040371
1731655832.888325,858.0201136692826,806.2245527419437,797.3092934677651,772.9583515616373
1731655832.8922217,830.8774791737518,806.0415137882004,797.1639062348358,772.3590996466369
1731655832.8961182,784.40256936281,805.8597467754732,797.0195055728848,772.0715869592201
1731655832.8964467,748.643418472543,805.6798022720122,796.8774257492646,772.2910760440859
1731655832.9000146,743.6428558917094,805.5018786884731,796.7366412638665,772.7358198911046
1731655832.903911,765.0164726499705,805.3250732957162,796.5921320615782,772.4276031527334
1731655832.9049273,789.5095501375525,805.1472404089101,796.4368880609684,770.2011717584492
1731655832.9078076,795.5722379686395,804.966467956869,796.2694674251695,766.184580498703
1731655832.911704,781.4271923970497,804.7841736783596,796.103490662007,763.4347068939175
1731655832.912037,765.6582900632385,804.6074719323253,795.9678440171665,767.7047041836526
1731655832.9156003,770.4501153232557,804.4464131772704,795.8849937368012,783.6799083021001
1731655832.9194973,801.9351891760693,804.3033384152072,795.8299657153586,809.3410961986971
1731655832.9195724,843.8862918041767,804.1594590270806,795.7041790344772,833.9854900080921
1731655832.9233935,869.6847153435102,803.9747818731358,795.3825079304187,844.0898870742128
1731655832.9238017,862.90315178373,803.7200889170181,794.8642438908358,833.750313098056
1731655832.9272902,830.2920494942865,803.4397651027903,794.4523169823048,810.6886622993582
1731655832.9276266,796.9322980947824,803.3035566200463,794.7561410310949,791.747849180792
1731655832.931187,787.0889762077938,803.5834628114153,796.3337989689551,790.7790221142117
1731655832.9350832,805.5966045188495,804.5333295447101,799.1073363755678,808.4737067398404
1731655832.9389796,834.5920677001911,806.2110565690962,802.0898243244704,832.3590882232766
1731655832.9426758,848.428695763624,808.3056763664454,803.8935690694157,847.0088630834842
1731655832.942876,834.7947369325916,810.0811272655097,803.7787328518853,846.1755182201033
1731655832.9432163,804.7498615908077,810.6096737333824,802.3478700542764,836.9731955939985
1731655832.9467728,783.4453912787928,809.3002677891077,801.1867991787256,832.8782866140706
1731655832.9506693,789.284566185408,806.3559626852862,801.6850354893238,841.6198616042482
1731655832.954462,818.7633844940104,802.7112893007717,804.0304215465519,858.1674883927285
1731655832.9545658,849.4009898853683,799.4549036244367,807.2157715691059,868.6636891253232
1731655832.9584622,858.246550916641,797.260684325254,809.9751804703856,862.1031814112878
1731655832.9588065,840.7253013860935,796.3024232074946,811.7620925049622,840.2047257285938
1731655832.96155,814.2570388934291,796.556297032328,812.9146245972248,817.1674002965749
1731655832.9623587,803.4160528781464,797.9892174200517,813.9375514490858,808.8864148669408
1731655832.9662552,818.7010628867012,800.3700329175915,814.627493617601,819.8458128832253
1731655832.9701517,846.8108802971693,803.002827614658,813.8947396594617,838.520131698431
1731655832.974048,861.2094284781896,804.8534999999999,810.5200059105648,845.9178725924171
1731655832.974396,844.5887697039527,805.1052385973413,804.2768566205135,831.0946843181428
1731655832.9779449,804.2555870788389,803.6674706861052,796.5320422307525,800.9787559175059
1731655832.9804242,767.1913353261662,801.1768184072117,789.835324482004,775.879392802558
1731655832.981841,758.8015122079859,798.5169291074849,786.7426955944413,773.790181321093
1731655832.9857378,782.968804634714,796.2850324166634,788.5924400950709,796.0978195563082
1731655832.9893515,819.4547532282531,794.5888187164571,794.8980553809697,826.3310765537235
1731655832.9896345,840.1086878514687,793.231771835177,803.5971281864909,842.9549590206075
1731655832.989986,830.4381811327758,792.0794208664388,811.9408701569578,835.8830211297635
1731655832.9935308,799.6315802171753,791.3291285618117,817.5677615614716,813.6102368681159
1731655832.9974272,771.9384811111657,791.4869301002652,819.319110868683,795.6534493413822
1731655832.9992986,767.0712839471454,793.0364114294023,817.519711478321,796.7749519215427
1731655833.0013237,785.4743848444944,796.0090628382245,813.6525758161911,815.7265294351216
1731655833.0052204,809.815256285068,799.7912559580899,809.5799153320271,837.1637196801342
1731655833.0055757,820.6681756456094,803.3852051834947,806.6865663481417,844.5644238190575
1731655833.009117,812.9351345081182,806.009634978152,805.4043618647122,833.3788371229041
1731655833.0130134,799.4072632949798,807.6198703533831,805.3469790447091,814.057574453974
1731655833.0169098,798.9747566825682,808.9164163465485,805.8399095306153,803.2144987189721
1731655833.0181727,819.8203859029143,810.7588601116577,806.3658108353629,810.5395933943504
1731655833.0208063,851.740273127343,813.3772730216778,806.6414408416209,831.7325307107227
1731655833.0211654,873.8118941469816,816.0005430384728,806.482840253417,852.322101260792
1731655833.0242412,871.0202965155642,817.2700812094689,805.8023116000842,858.8002836273087
1731655833.0247028,846.3758234264396,816.2107327175463,804.8201800509178,848.5073623072738
1731655833.0285993,818.7722606830089,813.0435687712315,804.201578008155,831.1697705765849
1731655833.032496,808.2648390118637,809.1928974267396,804.8012012016036,821.2854253460783
1731655833.0363925,820.6425301263783,806.4694074257906,807.070837786283,827.1797655505516
1731655833.036755,843.7984749255694,806.0626977145702,810.5701405083823,844.9254887191667
1731655833.037047,858.6211097734495,808.0404131055413,814.0323997837959,861.6207032524507
1731655833.0402887,855.0362263753058,811.515799554637,816.0514286525032,865.36519280373
1731655833.0441854,839.7686975130739,815.1313860722929,815.9767824535961,854.1288782241251
1731655833.048082,829.6932711917538,817.5196542613412,814.3886178399424,836.6586325488928
1731655833.0519783,836.7928709629831,817.7269354855372,812.751374232375,824.9321574357367
1731655833.052345,857.4265090896403,815.6530912300948,812.405110024386,824.4048755063786
1731655833.0558748,874.6561731280678,812.2748625418305,813.5659412229721,830.0037387463396
1731655833.0559213,871.6364441963733,809.2900052474187,815.0700268278833,831.0899770324108
1731655833.059131,845.3931604351648,808.1948738772259,815.1090942118028,821.2025947899086
1731655833.0597715,810.1340711414781,809.3642870101448,812.487228403328,804.2864261016985
1731655833.063668,787.246723054582,811.8279136133077,807.5089374844015,791.8363638008462
1731655833.0675645,789.3768113714888,813.9493540443068,801.8479397431322,793.0911620797003
1731655833.0679348,810.9273984646019,814.5258966255105,797.5106259634953,806.7648213490684
1731655833.071461,832.7873304363843,813.5154618240057,795.6910108100376,821.905650746579
1731655833.0747955,837.8573851918217,811.9017167272174,796.3301640680818,827.465128596503
1731655833.0753574,824.798003313684,810.8696168318551,798.5485820086074,822.0624831740449
1731655833.079254,808.465429228671,810.9578238612967,801.4205137438746,814.979520833785
1731655833.0831504,806.5592687712499,811.811315194213,804.4083266771295,817.3554147597456
1731655833.0835247,823.8529237932242,812.6403383906681,807.2189621046668,831.5370290873609
1731655833.0870469,847.5680659321382,812.9276616897994,809.4107852368838,848.2021169767262
1731655833.0909436,857.8850809761998,812.7610954636971,810.2651069544274,853.8427097224854
1731655833.0936697,844.610827157522,812.5286787679793,809.1327799022944,842.1024071356359
1731655833.0940206,815.87361868496,812.3084661584348,805.9848730321067,819.3266805681025
1731655833.09484,791.539396119713,811.6066181795273,801.6638260465928,799.7560290140975
1731655833.0987363,786.8392329363204,809.816967840235,797.5395963621847,794.3706087864284
1731655833.0991144,799.866042174939,807.0698528589419,794.7568229386126,802.4705439748944
1731655833.102633,813.5181450333416,804.6360048652175,793.6278646239535,812.8175139137568
1731655833.1065297,810.5050437785046,804.3001208076048,793.6552070739657,813.3984029955042
1731655833.110426,788.8404146925556,807.0012060152787,794.1534428474125,801.6951256148351
1731655833.1125438,764.3633808434968,811.7836715561405,794.8962452408679,786.7259866579972
1731655833.1143224,757.56687571453,816.0006899203336,796.176888305877,780.9824616554829
1731655833.114704,775.5845010671823,816.7937978800971,798.256410702842,789.1616037757788
1731655833.1182191,804.8061004772896,812.8841993784451,800.8217876552776,803.5917160735917
1731655833.1221156,820.9195073254813,805.438471167764,803.0747218660358,810.5614736097098
1731655833.126012,808.4772507501003,797.4180734852034,804.3870618422272,802.2328492628425
1731655833.1289103,773.9396337111889,791.8861837741076,804.8434734198346,783.8374113199392
1731655833.1299086,741.3825446872273,790.4169326935828,805.1243753101301,769.7961179921062
1731655833.130294,734.0744667405265,792.5535200889966,805.8787492572706,771.7913923396034
1731655833.1314182,756.3762981139912,796.4372165322685,807.21140933173,788.6499873948281
1731655833.133805,790.2093527413216,799.990179356375,808.7086935311795,806.59178517993
1731655833.1377015,809.1026618968715,801.8875971340725,809.8674789100404,810.0986618963742
1731655833.141598,799.0530747676224,801.9173880844792,810.4809999816534,794.9078108770959
1731655833.1454947,769.6063224774713,800.7693136971297,810.6805885992032,772.4075893599359
1731655833.1458838,745.8606076026539,799.5135750554,810.6641783977577,761.2105133669221
1731655833.1493912,747.5544988179373,799.0266877681585,810.3534074226839,772.158311114547
1731655833.1502924,772.4923273326677,799.5636957499245,809.2619457522961,798.917818730147
1731655833.1532876,798.3775867939084,800.6491592667363,806.7769046734868,822.2885324200998
1731655833.157184,801.7906023358847,801.3889653861356,802.805003102835,825.2555300122576
1731655833.1610806,778.5067136209091,801.0865883812144,798.3430322107491,806.8161366132365
1731655833.1614735,748.0421709095277,799.7734688881131,795.3377198913777,783.3137727542941
1731655833.1638,738.3213768392817,798.2242251574099,795.6031541906024,775.9622958637117
1731655833.1649773,762.7725299504118,797.385122784893,799.4280578399623,794.2966366176221
1731655833.1688735,808.5301211087813,797.6491275908337,805.0360501300195,828.532895971609
1731655833.1691666,845.6637532902587,798.5827672350113,809.5556329756162,856.8062004792391
1731655833.1727705,850.4384686250036,799.338213482358,810.887681447632,861.6165364616397
1731655833.1766667,824.0215688906545,799.383491971637,808.9936784624401,842.6648657982503
1731655833.1770637,791.348102125677,798.9123412004238,805.5737047688468,816.188315357245
1731655833.1805632,780.8346671033161,798.6138022584581,802.5048269304182,801.627800835865
1731655833.1844597,801.4125213990371,799.0845737012968,800.4587275379756,806.460611555049
1731655833.1880407,835.6830777353155,800.4582833441146,798.8457961429186,821.2543736949816
1731655833.1883562,854.6802242126797,802.5154995055303,796.9360746769956,828.505271780717
1731655833.1922526,841.8800472825263,804.9808864811076,794.9211452754414,817.6413026173685
1731655833.1926532,806.7241828048266,807.5603604442473,793.819403935821,793.8491141253656
1731655833.196149,776.9447509161724,809.714550982596,794.343501225108,773.7741729964703
1731655833.1986897,776.4152462702212,810.6437078998215,795.9460012128432,771.9414489197667
1731655833.2000456,806.5402441254562,809.7961846141978,797.117835915673,789.0567029005047
1731655833.2039423,845.6520730922915,807.5097029383736,796.7340014373959,811.4951189069409
1731655833.2069151,866.2162604034828,805.0158171102238,795.1127969881178,822.1150214961112
1731655833.2078388,855.8670945947958,803.567788408463,793.6700328791557,813.5255655027271
1731655833.208243,825.8301726845252,803.3958720264982,793.4442412180749,793.1612056033229
1731655833.2117352,800.5719735720579,803.4907980869322,793.95080861126,776.2957526574936
1731655833.2156315,797.4744868087139,802.4822451353866,793.578478721571,773.055487944039
1731655833.2195282,813.2618542672794,799.8596685199642,791.2679129853753,780.4563028299267
1731655833.223425,828.207696464378,796.4965577222749,787.9232195167101,786.1682028386201
1731655833.2238328,824.1840779177927,794.0909722248678,786.1434660228649,780.5630464174641
1731655833.2257893,800.9374894586981,794.026099308377,788.3117555377315,766.3597491160974
1731655833.2273211,776.6810673530326,796.5110778336507,794.54258467411,757.2135262274026
1731655833.231218,772.6045544835625,800.5316692883863,802.194593993162,766.1184313049282
1731655833.2335792,794.4868240414359,804.526673492928,807.4427585455132,793.2762330281403
1731655833.2351143,826.9095748678878,807.2744364282203,807.7793056442298,823.790422752134
1731655833.2390108,845.0747227532355,808.4253306090224,803.5979526785244,837.7217966311526
1731655833.2394226,834.7398679977208,808.4169425370337,797.7705266752212,825.05372015543
1731655833.2429073,804.0027518726478,807.9646360964732,793.6787655285211,793.8783400049014
1731655833.2446637,777.0531940002599,807.5802622969578,793.2115933271349,765.0502986197763
1731655833.2468038,774.6302146361227,807.417105935787,796.0139405907814,757.01499803967
1731655833.2507002,797.0635098061075,807.394389903442,800.1698863178295,772.4034700345674
1731655833.2545967,824.0396710007017,807.3863472161007,803.5458438037117,796.8359273813728
1731655833.2550125,831.5137591355061,807.3281244310165,804.8548300182907,810.72666507812
1731655833.2584934,811.7671079209003,807.222111300903,803.9742561732537,804.4562555211869
1731655833.26239,779.920798832913,807.0982788496852,801.6120953967136,784.8465419407213
1731655833.2635376,761.6531842929174,806.979779091314,798.7146848820148,768.4436265386828
1731655833.2662864,772.4623101872488,806.8723813106932,796.0125926016423,767.9400687437064
1731655833.2684689,805.3664953075626,806.7707806339423,793.9046433091728,782.9445862117193
1731655833.2701828,836.6126778525554,806.6682254565869,792.6064057686636,801.837525836782
1731655833.2706022,844.4472709235786,806.561558634801,792.3201448992658,812.2026598694928
1731655833.274079,825.9410221528329,806.4511383291247,793.2575151373718,810.9274025871707
1731655833.2779758,798.6997127643201,806.3386076132911,795.5586195316865,805.9672469949155
1731655833.2818725,786.3411345457382,806.2251330539509,799.2258704085428,808.7070702610815
1731655833.282412,799.4939535257478,806.1109456334972,804.058730308123,823.4061646241153
1731655833.285769,827.5556846050188,805.9957287881903,809.5050207997617,842.6348716551004
1731655833.286192,847.6160596478256,805.879128658663,814.5346460701588,852.8370392604313
1731655833.2896657,843.0286225589975,805.7609979706232,817.8384884334492,845.700431926191
1731655833.293562,816.5857268079299,805.6413715884804,818.4600257983366,825.7826386238019
1731655833.2974584,788.0691729171231,805.5203394744892,816.4694073780249,807.5932602180956
1731655833.3012862,778.678273814577,805.397953550882,813.0687128817817,804.1603236925772
1731655833.301355,794.9044582678115,805.2742106437695,809.921296111086,816.4781459754098
1731655833.3017817,824.1694424904678,805.1490881957817,808.1704159489093,832.6378573667273
1731655833.3033586,844.9879476045825,805.0225902544838,807.888084498075,837.4238707179081
1731655833.3052514,843.3885645783317,804.8947658040236,808.3263374328102,824.6175554585363
1731655833.3091478,822.9317222208421,804.7656744449704,808.6937172677165,802.1228054327584
1731655833.3130443,800.8149702458812,804.6353037573376,808.8049529840557,785.7810849876354
1731655833.316941,793.4300733600261,804.5034974494636,809.1154142221485,786.7619377549768
1731655833.3173716,803.1632370851067,804.3700050755019,810.183036479604,802.65863543473
1731655833.3201604,817.3084471778415,804.2347345700396,812.0676143982519,819.6115475255382
1731655833.3208375,819.9243484187521,804.0981067266337,814.2017944983161,823.888063667091
1731655833.324734,806.4220505160694,803.9611326121378,815.8202121448462,813.4525597895216
1731655833.3286304,788.1794443601531,803.8247359065149,816.5132208755094,799.8296395578998
1731655833.3325267,782.9846529224765,803.6883048542358,816.3929713985212,798.5052033486219
1731655833.332961,799.3531085074595,803.5485570132985,815.8089759474555,815.7036253004484
1731655833.3364234,828.0920134697998,803.4007817140482,815.0237040842281,842.466590315515
1731655833.3382485,848.4590206808587,803.2438081793932,814.2114112565405,860.9567520278863
1731655833.3390346,844.2552742627374,803.0864204971176,813.6630500235693,858.0081294013478
1731655833.34032,817.0784621926724,802.9478171940693,813.7859190449965,835.2513480612113
1731655833.3442166,785.9161129980307,802.8435590647488,814.7458054415254,807.8988718090019
1731655833.3481133,772.7540225590061,802.7582184293105,816.0882246516005,793.1219658770378
1731655833.348551,785.1618026865566,802.6269588516947,816.8104612721869,797.1425014413907
1731655833.3520095,810.0174384164757,802.3650090981116,815.972963721666,811.3317353072522
1731655833.355906,824.1949614851591,801.9667639483779,813.4175257157382,820.4571955994497
1731655833.357909,814.0329416854389,801.6260280287099,809.9933556743712,816.1528965501419
1731655833.3598025,787.3683570068252,801.7405452755245,807.0434234822083,804.0970409808947
1731655833.363699,767.4738877248155,802.6711654448092,805.5019686736969,798.5738451055513
1731655833.364141,773.4345919147216,804.3344295116661,805.3050863269182,809.0095117155395
1731655833.3675954,803.4148316614337,805.9901831153185,805.5822128317419,830.2856915417552
1731655833.371492,835.2387986707213,806.5699726960814,805.4333544437009,845.6208701834864
1731655833.373138,844.1542232218862,805.4317974448716,804.6013648225605,840.0223648105244
1731655833.3753886,823.052876077098,802.944931701867,803.5034645600816,813.1430915599325
1731655833.3767831,788.2793740150239,800.3591394703956,802.7219846932938,780.7158752216379
1731655833.379285,766.1750230991368,799.0119264619908,802.5047784752468,763.119341049802
1731655833.3797307,771.5231041108907,799.5044891320696,802.6786375056265,770.0991398710629
1731655833.3831816,795.8101067345718,801.4665659077687,802.9074473441115,793.7531110510231
1731655833.387078,815.0581668718793,803.9696088162767,802.9689366440015,815.2491481755661
1731655833.3909743,810.5334346721328,806.1278384933519,802.8394379612075,819.7268588825048
1731655833.394871,784.7174963169487,807.4328131463737,802.6121143728801,807.3298770400565
1731655833.3953204,759.0492481425026,807.7674232066912,802.3821235134241,791.7141829435775
1731655833.3956573,755.6039305714862,807.3198451882315,802.1899575717305,787.8410242744025
1731655833.3987677,778.3880887215729,806.512297670017,802.0285843578891,799.5033153425317
1731655833.4026642,809.826389758825,805.8438805361001,801.8753461753245,816.7059357766722
1731655833.406561,825.0227060723556,805.5932597234315,801.7151527565187,824.4751069146498
1731655833.4080274,811.853997939973,805.589288398883,801.5456303408197,815.3956247431828
1731655833.4104571,780.6369761233333,805.3378480148118,801.3713594886372,795.632856686045
1731655833.4109104,755.8355799554197,804.4903868311387,801.1970434476,779.8862656262102
1731655833.4143536,756.6183610929228,803.2512743763413,801.0244919987583,779.6325945018918
1731655833.4145317,781.7387678769212,802.3032065366328,800.853132000169,794.1085725349989
1731655833.41825,810.699417846407,802.2538632184751,800.6817154808384,811.0946069206409
1731655833.4221466,820.3020971490171,803.0734363185503,800.50947544871,816.7724517818807
1731655833.4260433,803.3962281693067,804.0536471888715,800.3363222555809,806.7747864360767
1731655833.4265,774.6703871111116,804.3977897453159,800.1625049637242,789.5963983716576
1731655833.4299395,758.6431940595821,803.9833037211881,799.9882543663373,779.6502197998191
1731655833.433406,769.5530545068539,803.6023290650899,799.8136410695489,785.6035108651313
1731655833.4338362,799.6317139674464,804.3495681581409,799.6386144784321,803.4219350525324
1731655833.4377327,825.4271565067168,806.5759504235565,799.4630950557554,819.6705369261483
1731655833.4416292,826.9519304084789,809.3177284968225,799.2870321065392,822.2844053709637
1731655833.4420898,803.8599117359528,810.8075508826677,799.1104114599772,810.0441168369678
1731655833.442917,775.3916747306886,809.757525487336,798.9332377325392,793.1659307555074
1731655833.4455256,764.3033771316499,806.4016098972951,798.7555165705601,784.7001814796935
1731655833.449422,778.1829442617146,802.4532777027838,798.5772455300605,789.8969093730136
1731655833.45228,803.6089181023353,800.003721319068,798.3984102074827,802.325264095677
1731655833.4533186,817.9203948525657,800.1866354814434,798.2189829654809,809.9653813496765
1731655833.4572153,808.7388845116205,802.5576627225926,798.0389293666333,806.1414380874764
1731655833.4576795,784.8467033434595,805.5747146665826,797.8582296052494,795.8831515651232
1731655833.4611118,769.1223087825575,807.7785017963805,797.6769089323051,791.926267412264
1731655833.4650085,779.266386613463,808.7964603140775,797.4950462552641,803.401046965163
1731655833.4689047,812.4386601847616,809.4355338605616,797.3127184007275,826.8326515606932
1731655833.4711542,846.7463112426974,810.805380230309,797.1298742375498,847.4681682600012
1731655833.4728012,858.449188124324,813.1552900349053,796.9462278720847,850.3272403540158
1731655833.4732697,840.7798331119002,815.3485066527946,796.7613515286545,832.1514070925286
1731655833.4766977,809.1524992995093,815.4283419895,796.5750983445664,804.5480510525282
1731655833.4778068,788.7377356218434,811.9172106320184,796.3881783780347,785.6346976111535
1731655833.4805942,794.5101591407099,804.9673566101615,796.20225379735,786.5880765944435
1731655833.4844909,819.7524575933204,796.6028329816453,796.0187769951218,803.5562112687443
1731655833.488387,842.160486122921,789.881447833924,795.8365930443239,821.2754252784725
1731655833.4888592,842.5219099256417,787.4193575467827,795.6501526876111,825.5146376997347
1731655833.4900284,820.6724101754256,790.0486979131408,795.4517437701682,814.3154162234295
1731655833.4922838,795.5342347473594,796.3432795103165,795.2398286945295,798.8386208478388
1731655833.4961803,789.1040371377583,803.3470623075626,795.0294700632359,793.1449692909027
1731655833.5000768,807.6475206977295,808.1486239787982,794.8524663117785,801.5671551205899
1731655833.5039732,835.8460736720492,809.332652980166,794.7333730106858,814.5236240201899
1731655833.5044491,848.9772271543009,807.372793143609,794.6443495060838,816.5521395212529
1731655833.5078695,833.2561495864459,803.8382716810916,794.476597997233,799.896105163135
1731655833.5089028,797.6859970943142,800.1966644604017,794.0925915427755,772.1197410522335
1731655833.5117664,767.6428739767777,797.1554976414574,793.4923894625942,751.1150421504439
1731655833.5126965,765.1593216417762,794.8199042867479,793.0099241802379,751.2998559639699
1731655833.515663,791.5908882373197,793.2013246902505,793.313103126074,772.0998781524966
1731655833.5195594,826.5946378125266,792.4854742919629,795.0048728523357,798.0918801961243
1731655833.5200388,844.3894529662707,792.9073783519948,797.9783820914915,810.903497344981
1731655833.523456,834.2284504237051,794.511518711036,801.1401472933096,803.4860967257703
1731655833.5273523,808.3588841360536,797.0829014871432,803.0409389074445,785.2919785662292
1731655833.527777,790.9503950241891,800.2420233700076,803.1141699729582,774.1011810628149
1731655833.5312488,797.3537423174802,803.5197031132568,802.4050614837148,781.1528785709627
1731655833.5351453,821.1456049880355,806.3617862531291,802.8980753645436,801.8609107501504
1731655833.5356288,839.7434281678198,808.2214999426644,805.7969162542472,819.8114460055644
1731655833.539042,833.7402664953929,808.8408814418035,810.2250951191338,820.637476636753
1731655833.5429385,803.8264688164495,808.5299995565028,813.6344382207544,804.141600070074
1731655833.5466511,771.3740411852554,808.1066467231316,813.7591536747357,784.6291482522392
1731655833.5468347,762.1125456761642,808.4057822035635,810.5241386456956,779.2740501323677
1731655833.5475862,785.7896378690718,809.6853269020409,806.2661250134439,794.0956536626308
1731655833.5507314,827.8765993029715,811.4034782865781,804.0501753506579,818.9211876027681
1731655833.5512185,860.11515125036,812.5568284500699,805.4747577183174,835.406233875369
1731655833.554628,862.0532328810556,812.3136725432223,809.708237883143,831.7097064674131
1731655833.5585244,836.7416781064777,810.4682864126434,814.3408550793237,812.0030575310609
1731655833.5624208,807.8310384790465,807.4534238277405,817.1108481314836,793.050383825514
1731655833.5655253,800.0774046938772,804.051161908372,817.0598496541354,790.6137884527012
1731655833.566317,819.1275205134738,801.121908240406,814.4944419774049,806.8352875464025
1731655833.5668082,847.3745114453176,799.469975201081,810.2990775967518,828.8561319172029
1731655833.570214,859.219989423723,799.6829070373972,805.4900161284729,839.4966359845646
1731655833.5741105,842.6710286808002,801.8239424805633,801.2519943183296,830.9764459709698
1731655833.578007,809.1499235346189,805.1899643379518,798.9453292593181,810.6190784310505
1731655833.5819037,783.8384626602531,808.5042879649636,799.5942043774699,794.4711239643668
1731655833.5823982,785.2566106218964,810.5917320220256,803.089014149264,794.5120198867307
1731655833.5824757,810.9924030688202,811.0723856756845,807.8819840899746,809.715880770229
1731655833.5843997,840.5194321762071,810.4883296338791,811.6699119059257,827.5856472177761
1731655833.5858,851.9703924093844,809.7439149230233,812.7003657006077,834.4291244966789
1731655833.5896964,839.1417008509309,809.366217635082,810.7591252905565,826.111229949731
1731655833.593593,815.4571035691049,809.2455211932017,807.1448270103065,810.894152234902
1731655833.5974896,802.1531319805837,809.0165410260307,803.7439555517747,802.2076760722791
1731655833.597988,810.4792317610464,808.593080346762,801.9324717141976,807.2300519928042
1731655833.601386,832.526306214472,808.2664165703442,801.9851043837849,820.7662467989398
1731655833.603274,848.2719431038719,808.3284872393591,803.1820590277281,829.7797690017446
1731655833.6052823,842.9751182604032,808.7363957571407,804.3818088671904,825.0015342010644
1731655833.609179,820.3265794946817,809.2395268605571,804.7028230125992,809.7277470170925
1731655833.6130755,800.2229442659651,809.7837165563838,803.9895425338763,797.906120188312
1731655833.6135776,802.8020070464216,810.6457216924271,802.8194667700518,802.5749606527901
1731655833.616972,831.6972715432235,812.0718282791657,802.0233150660004,824.1453125719258
1731655833.6173654,870.061313031783,813.8038356284251,802.0366060486474,848.6182833308405
1731655833.6208684,892.6407331063,815.0594703874217,802.5923176904711,857.8832331002559
1731655833.622148,884.542936921243,815.086495596836,803.0196194601436,844.1863296415785
1731655833.6247652,852.1458710689229,813.815563896178,802.8753925407664,816.9563649813434
1731655833.6286616,817.7188092359745,812.0061806702494,802.3134444010078,795.9215553779726
1731655833.6291676,802.1186673118617,810.7283127278496,801.8398911593371,795.6369644969444
1731655833.632558,809.4563340439612,810.6094310541199,801.7001972828369,814.0499610824987
1731655833.6364546,825.8718383084615,811.4654325084412,801.5102259727224,834.7097156244282
1731655833.6403513,832.4924953641627,812.571331956025,800.512413915232,840.5708103115367
1731655833.6410222,820.6633911902455,813.2632065577023,798.2334007733405,827.173079276494
1731655833.6442475,796.6431158043255,813.3347482763472,794.9358539277758,804.0241164063704
1731655833.6447573,773.7469575077615,812.9875530698797,791.4659728644965,784.6704420282254
1731655833.648144,761.1693894148124,812.5325553770473,788.6841435993917,776.18718800967
1731655833.6520407,759.3258524843509,812.1589450287096,787.045013658118,776.8904689734962
1731655833.6522553,763.0506694811069,811.8938695701984,786.6813337516471,781.1200740044992
1731655833.6559372,767.1364375243453,811.6806225941926,787.7514917122984,784.5029686618209
1731655833.6598337,769.2802905748174,811.4627794266471,790.4715804502783,785.7761815375492
1731655833.6598966,769.759041692243,811.2195776909965,794.6050087914966,785.7456326116546
1731655833.660347,769.7503743973125,810.958644179516,798.9265773767829,785.5844469818161
1731655833.66373,770.0719861835081,810.6950656952697,801.4738592407832,785.8846164487293
1731655833.6676266,770.8722535577213,810.4377106735767,800.7544725492356,786.6165636442926
1731655833.671523,771.9179821563877,810.1872281176641,797.0248139724996,787.5014610616646
1731655833.6754196,772.957317695659,809.940320629597,792.425500701615,788.327431546615
1731655833.6759367,773.887656709251,809.6940457639447,789.6491411448607,789.0437650071868
1731655833.6787708,774.7346475038627,809.447442423095,790.1322239515193,789.7007571339209
1731655833.679316,775.5630562202459,809.2009914339687,793.2088180903819,790.3607527681169
1731655833.6832128,776.4140218696447,808.9554823137493,796.8234506478184,791.0523853150534
1731655833.6871092,777.2928529841183,808.7113329085091,799.1125014971434,791.7719722840598
1731655833.6871448,778.1861713632752,808.4685288139682,799.5772956084043,792.504306617387
1731655833.6910057,779.0809573307405,808.2268670586612,799.0704720503113,793.2387933439223
1731655833.691527,779.9725120276831,807.986178322005,798.8412971217848,793.9735027061325
1731655833.6949022,780.8626808281235,807.7464010979676,799.5586614679899,794.7114969086845
1731655833.6976447,781.7550008128253,807.5075459009951,801.0772862177789,795.4561310183033
1731655833.698799,782.651558186322,807.2696345821845,802.9608229023396,796.2088490775541
1731655833.7026951,783.5525443411641,807.0326668531525,805.1142659999641,796.9694298020357
1731655833.7065916,784.4572493283667,806.7966194035394,807.8724124052123,797.7371316495614
1731655833.7071164,785.3650523707839,806.5614595935349,811.496088294165,798.5115088997709
1731655833.7104883,786.275791967279,806.3271569452598,815.6353054701866,799.2925762107027
1731655833.7143848,787.1896377354991,806.0936866654079,819.3401807283915,800.0805900930659
1731655833.716519,788.1068280766368,805.8610276508689,821.6437147356968,800.8758022822135
1731655833.7182813,789.0275147105503,805.6291592303651,822.1829296482392,801.6783556300229
1731655833.7220345,789.9517516680336,805.3980589083421,821.3119881662323,802.4883071599064
1731655833.7221775,790.8795543727975,805.1677013777609,819.6705333779325,803.305691768974
1731655833.7227063,791.8109508043392,804.938058789723,817.6805270896062,804.1305623009312
1731655833.7260742,792.7459925513325,804.7091029261896,815.4703768640577,804.9629910256557
1731655833.7299707,793.6847354530221,804.4808095055523,813.2567217325591,805.8030502092265
1731655833.7338672,794.6272185289833,804.2531621816587,811.696432154276,806.6507973296613
1731655833.7353935,795.5734685107882,804.0261504669074,811.6646559921106,807.5062821732123
1731655833.737764,796.5235388977078,803.7997565004298,813.4531301430368,808.3695753145918
1731655833.738296,797.4775581215717,803.5739348991392,816.0810353621392,809.2407939113099
1731655833.7416604,798.435725161123,803.3486056862799,817.5471447859202,810.120083071804
1731655833.7455568,799.3981924388246,803.1236879386137,816.1112815849881,811.0075250923863
1731655833.7494533,800.3648608196338,802.8991793408827,811.6590154474718,811.903016395537
1731655833.7533498,801.3352700261676,802.6752269850481,805.9417223250676,812.8062492642018
1731655833.7538855,802.3088700683028,802.4520749366742,801.4036296813119,813.7169631948482
1731655833.7542677,803.2857834518031,802.2298013493959,799.5668088533189,814.6354570381982
1731655833.7569242,804.2676003790019,802.0079481338895,800.2814133957372,815.5629627628828
1731655833.7572465,805.2570945001372,801.7854390259049,802.2708211783274,816.5011538743491
1731655833.7611427,806.255840610801,801.5612877604167,804.2733663190065,817.4503553507798
1731655833.7650394,807.2604144283591,801.3361150172589,805.7837991971079,818.407334933978
1731655833.768936,808.2608178912354,801.1133418448752,807.0008161251508,819.3653311925603
1731655833.7694757,809.246371223743,800.8978955044333,808.3095636401353,820.3192446019203
1731655833.7728324,810.2204112322598,800.6910090401611,809.8359988449287,821.2752941736813
1731655833.773142,811.214110480111,800.4834921035052,811.3595586086175,822.2570253748004
1731655833.7767289,812.2781616542296,800.2552256676784,812.55047215444,823.2940951508073
1731655833.780625,813.4350510868773,799.9898664269128,813.3133088679959,824.3872893875916
1731655833.7845218,814.6090157483319,799.7035461129217,813.9639941180318,825.4690950689902
1731655833.7850654,815.605884297882,799.4643635027506,815.0517880495306,826.4112366699343
1731655833.7884183,816.2382284338373,799.3619753971838,816.8811942267755,827.1304913813113
1731655833.7918136,816.606493399796,799.4048519259233,819.0655923593685,827.769239958094
1731655833.792016,817.3338542508023,799.3972318891748,820.51074888294,828.7871484812122
1731655833.7923148,819.3505048265375,798.9435108554607,819.9584687058751,830.7119592211105
1731655833.7962115,822.9386506690453,797.7297822231234,816.7809291905089,833.4568251003724
1731655833.800108,826.4315991938001,796.001087715003,811.4580882562223,835.613470978599
1731655833.8006551,825.9555584822167,794.7668067763155,805.3482691283996,834.6916981036595
1731655833.8040044,817.838365144403,795.2551284028705,799.8836943908085,829.1356875329662
1731655833.807901,803.308172701744,797.8820429382893,795.782826734857,821.3069406938947
1731655833.8108904,791.2082539128536,801.73973588853,792.8736533988787,818.1551179131736
1731655833.8117974,793.4342029797926,805.2137408943141,790.6247362996733,826.4972490984102
1731655833.815694,814.3021820012324,807.1497495760829,788.8702149633114,845.2546435854139
1731655833.8162453,843.6132301204595,807.4793161043903,788.0299455506317,862.6123542086743
1731655833.8195903,862.083747143979,806.909245049393,788.5937132196412,863.3555938051846
1731655833.823487,856.2037785723661,806.2057668025082,790.380845528318,841.5702921641972
1731655833.8267033,829.851115255293,805.7491209606363,792.3727097511882,807.399916731449
1731655833.8273835,802.151413930872,805.5379021402806,793.3810716690232,780.9428599112107
1731655833.8297646,792.7713301439039,805.4146399358121,792.942003103446,777.5069226374517
1731655833.83128,806.5369756086742,805.2554780288359,791.5388306369284,796.0671015671202
1731655833.8318348,830.0355237667977,805.0291413352518,789.9387362999856,820.3654346054279
1731655833.8351765,843.1187359557531,804.7639275877766,788.4036678566157,831.8468841471669
1731655833.8390727,835.843529177008,804.4961323441437,786.7198452518714,824.0236779940685
1731655833.8429694,816.5768472618295,804.2428305057178,785.0759650112914,806.7441115646855
1731655833.846866,804.2210648898047,804.0021699400902,784.7367619418285,797.1904753295407
1731655833.8474245,811.1323446660518,803.7653187308617,787.4576257183624,805.3376522465884
1731655833.8486388,831.5799848083201,803.5259602546838,793.8438273497289,825.8903433570852
1731655833.8507626,846.0166748486255,803.282802747139,802.1419524403337,842.9529439522507
1731655833.8546593,837.8365325830341,803.037518755317,808.8411044425618,843.1240311473795
1731655833.8585556,808.5058035054972,802.7920078330351,810.8890830686254,826.2606727775642
1731655833.861593,778.1307025075234,802.5470784773515,807.7698172081014,805.6067666270451
1731655833.862452,770.4709350190219,802.3025632506337,801.7132025137188,797.6124608255434
1731655833.8630145,794.1284614753415,802.0579778263422,795.9464698900016,809.5033711226274
1731655833.8663485,834.9431905004487,801.8130026927333,792.5641809745836,833.9380754578931
1731655833.8675127,866.0267660740262,801.5675892567864,791.7178835016961,854.5690814203389
1731655833.870245,868.0223457837878,801.321839682806,792.4214657929031,858.2450614126245
1731655833.8741417,843.7620632140768,801.0758635615136,793.8194082088183,844.6318393637695
1731655833.8780382,815.4360150561096,800.8297088732108,795.6463021730774,825.8654910600382
1731655833.8786042,806.2682135677601,800.5833603904791,797.7396645472795,816.5723583711435
1731655833.8819346,821.5623576082409,800.3367661046469,799.5325182301441,822.4091711489796
1731655833.885831,844.7568768082657,800.0898732501097,800.3321131161831,836.4780719580428
1731655833.886387,851.6661902122383,799.8426768341053,800.1323988653643,846.1523153561337
1731655833.8897276,830.9465308573888,799.5952683313977,799.9662302724812,843.9791420833197
1731655833.893624,793.9364089330901,799.3478291741678,801.21766946213,833.3143877934048
1731655833.894194,766.0943579170922,799.1004995981143,804.4154354249526,824.4446359370539
1731655833.8964827,767.1661591350014,798.8531370404281,808.6218732811872,825.1202199452803
1731655833.8975203,795.8357897843412,798.6051622594575,812.0095049869566,833.6699949373157
1731655833.901417,830.7591457588669,798.3558327353506,813.1353316320428,840.335103998336
1731655833.9052615,847.0736037383989,798.1051150953908,811.8431584410685,835.7209473831686
1731655833.9053135,835.4723065179252,797.8546850617037,809.1373177872226,819.4895780304381
1731655833.9092102,808.7877366408721,797.6077711206233,806.3021869400454,801.8344194595296
1731655833.9097838,790.7704151582147,797.3665349348684,804.1046142194458,795.7183228878356
1731655833.913107,796.1579576971727,797.1275284007937,802.6685446344155,805.6510089418641
1731655833.9170032,818.4705461033859,796.8792798132723,801.8961385140001,822.5423812624439
1731655833.9208996,835.6643191722246,796.6083429519415,801.8492066841548,829.8738196422731
1731655833.9241357,828.8402532160524,796.3162437243386,802.6917550541514,816.9449728663345
1731655833.924796,798.3741565978656,796.0371504597246,804.3518312075003,788.427935846359
1731655833.9253736,764.2170862834764,795.8315568287751,806.3680224845716,761.9447693584758
1731655833.9286926,750.2926149180622,795.7333903001434,808.1389170333362,755.0116173635347
1731655833.9313724,765.7018528258118,795.6658052219582,809.3152918933703,771.4231435374736
1731655833.9325893,797.7316454270009,795.4070034522841,809.9287287366201,797.884769107926
1731655833.9364858,822.1075077609455,794.7235868146723,810.1842946290993,813.8703535812845
1731655833.9403822,822.2248798864753,793.7042997967627,810.2278792358712,807.3182084847787
1731655833.9409633,801.9156392084108,793.088595038092,810.1606813581168,783.9138887594636
1731655833.94301,781.4329816986069,794.1478738358077,810.189922332129,762.4269148786617
1731655833.9442787,779.9735367203759,797.8289420135342,810.5943153057974,759.5824016540557
1731655833.9481752,799.2794211012821,803.6400957702721,811.4379507965717,776.6076223595561
1731655833.9520717,822.1855631954387,809.4560974381872,812.3652708429354,798.541223909136
1731655833.955968,827.5299923954403,812.8351864955788,812.8104462220092,806.9587089949147
1731655833.9565532,808.9199377907703,812.8594644827068,812.4960637352074,795.4660575668591
1731655833.9598646,781.3876428275028,810.8305492299013,811.7168939768527,774.9593812779287
1731655833.9618845,770.0092837009876,809.216518782215,811.0857856932247,764.4390054101102
1731655833.963761,789.5103775851976,809.7788040585689,810.9730053037312,775.3464394014347
1731655833.966262,831.3173102598084,812.3390416440698,811.1719207169991,802.3999288293033
1731655833.9676578,868.6969793598031,814.9999837267467,811.0718888292163,827.9549287701079
1731655833.9715545,876.4118319952664,815.5618354669373,810.1419246240231,835.7015836063181
1731655833.9721427,849.7263240345378,813.1352604313134,808.3167277028165,822.4505306146572
1731655833.9754508,807.6891403391797,808.8768024959206,806.036701048561,799.0644605420434
1731655833.9793472,777.8484375571074,805.3303660051176,803.971997388487,780.7255356833897
1731655833.9807584,774.6725397863494,804.7665354801491,802.6333147803407,775.0703290028721
1731655833.9832437,789.392230783233,807.6427035552191,802.1152390656067,777.7733287928639
1731655833.9871402,799.5013803766244,812.2961558366452,802.1538995753784,778.4857835161544
1731655833.9877326,789.4137852106636,816.1125923875861,802.4841215885913,771.364283862763
1731655833.991037,764.3575143608673,817.2900019736871,803.2150028487106,760.904015246985
1731655833.9949334,745.8040992060296,815.8646381213491,804.8374647151318,758.1603951647239
1731655833.9988298,752.8318496918043,813.3092790867837,807.7252414609753,770.7842612197147
1731655833.9996326,785.5047466611592,811.2263839129163,811.4716890518135,795.4665976512212
1731655834.0011516,823.9940020864373,810.3212928739972,814.7026905055551,819.2381584190798
1731655834.0027263,843.774960074739,810.3413542126787,815.7596412129928,828.7599629365562
1731655834.0033226,834.4090497567015,810.670007465925,813.929961704867,820.3652332564291
1731655834.0066228,807.0668402998725,810.8723853721881,810.2780858392588,803.0057083494406
1731655834.0105193,785.186511309494,810.8481172487991,807.2345520092936,791.667762259992
1731655834.0144155,786.0049841683837,810.698346150709,807.0189195009125,796.1542693204954
1731655834.0183125,807.7338609261805,810.5460192668328,809.9968282442243,813.7974869261842
1731655834.018507,832.2768464394671,810.446113093139,814.2655463756198,831.6729162853474
1731655834.0189123,840.6086619964062,810.3898712499739,816.8732776007826,836.4704876027414
1731655834.0222087,827.926761303621,810.3465634623129,815.8211066861113,824.3070159835528
1731655834.0261054,806.5825396527594,810.295201725728,811.3944247558865,803.0831460220521
1731655834.030002,795.2499933542504,810.2320972010419,805.8783908058213,785.9980873242727
1731655834.0338984,803.7269564116065,810.1633028318718,801.9196393845889,781.6277809596058
1731655834.034502,825.5334842270553,810.0952788846198,800.7806841229294,788.3366627084924
1731655834.0360413,843.6634195309522,810.0306262519094,801.7402290920883,797.098248734793
1731655834.0373812,844.4558701839667,809.9686637041989,802.9360936170219,800.0163071779267
1731655834.0377948,828.5227070399909,809.9077264411908,802.8315246609912,797.264531554938
1731655834.0416913,810.1131586312387,809.846768272513,801.1213239407672,796.4954698241501
1731655834.0455878,805.3176167742432,809.7856633156764,798.512179518611,805.1728547153159
1731655834.0494845,818.5645421052759,809.7247600484828,795.8068391549541,822.6002090269907
1731655834.050092,838.7421390222743,809.664392497319,793.2226548751396,839.0375164269254
1731655834.053381,848.6629218081207,809.604678496506,790.5016796768862,843.232198544299
1731655834.056255,840.1820051685394,809.5455678656111,787.5421198826106,832.111330489463
1731655834.0572774,821.9307791365352,809.4869686251047,784.8067751868078,814.1606166537337
1731655834.061174,812.5231509796348,809.428828134424,783.060802166305,803.2452777375335
1731655834.0650704,824.5001893131155,809.3711429344914,782.7019076010915,807.70218786189
1731655834.0656817,852.4995315973553,809.3139289394021,783.3442197752229,823.5277511108541
1731655834.0689669,876.0043201061085,809.2571907050004,784.0567986719097,837.2410906542812
1731655834.070931,875.0933911494501,809.2009114569304,784.0628402805686,836.3579937980269
1731655834.072863,846.7325826930756,809.1450677634697,783.3475365603047,819.3986971489572
1731655834.0751295,808.2118389928463,809.0896588648748,782.7389436596387,797.4867717147853
1731655834.07676,784.3199087344587,809.0347266800513,783.4126518622465,785.8954225022745
1731655834.0806563,788.0883543353916,808.9803335896897,786.1193102915911,791.9004941496896
1731655834.0812716,810.7175358425741,808.9264815073838,790.5959012231373,808.7724791782258
1731655834.084553,829.2364565684062,808.8730141499634,795.5526818263993,821.2173190995114
1731655834.0884497,825.7224610041745,808.8196209210271,799.3056671603962,818.0413512775151
1731655834.092346,801.9601483936547,808.7660695394302,800.6795869112884,801.3539951632491
1731655834.094004,777.2511657592864,808.712631655406,799.5818000880706,784.4156175900598
1731655834.0962424,771.5611550576725,808.6603387972032,796.8937135632694,780.1372759295042
1731655834.0968614,788.5430245427062,808.610472007159,793.8540357793119,790.2777252481916
1731655834.100139,812.606439398627,808.5630109467396,791.4391243515536,804.4101588985419
1731655834.1040356,822.0348625882905,808.5149168598479,790.1199490930786,809.0866844105578
1731655834.105821,806.9361417317474,808.4605251412421,789.9832838834278,799.190198026891
1731655834.107932,777.2963019699603,808.3962756980973,790.9283066071629,782.0904057998824
1731655834.1118286,754.8166946680285,808.3286603001338,792.697829482842,771.4002483526201
1731655834.1124513,755.3725882245878,808.2781059532292,794.7839137403726,775.5751491307408
1731655834.112878,776.3745630487307,808.2677721613098,796.4702560462902,790.750248909416
1731655834.115725,799.2889513320737,808.2935784428769,797.1847874103161,803.8756115874229
1731655834.1196215,805.2563257135157,808.2942671704665,796.9744071269135,803.7965358580801
1731655834.123518,790.9202305235565,808.1654770478423,796.6461381823973,791.0500270881566
1731655834.1274145,771.2139527337149,807.8570085115687,797.2973815016761,777.8053503959032
1731655834.128041,766.6422070276548,807.5261144729624,799.4953438340884,777.6009715035179
1731655834.1313112,785.6645490188805,807.6102051521168,802.7523861452286,793.4743837109222
1731655834.1317525,816.9566716292927,808.6430058827391,805.7657750122755,814.717964828309
1731655834.1352077,838.0602204242745,810.810887894469,807.2766139026631,825.1984906861531
1731655834.139104,833.3967154864623,813.5635094790952,806.9003632236646,816.3930441950782
1731655834.1407104,807.0476879167563,815.6984345911835,805.319888481385,794.450964543156
1731655834.1430006,779.932943694008,816.001743807197,803.7467091088865,775.6141114027566
1731655834.1436307,773.4223480104575,814.0218734453372,803.0909385879892,773.7082075380886
1731655834.1468973,792.2756627655311,810.3789615735758,803.4191507743244,789.5860764736292
1731655834.1506264,820.672092701747,806.3489352242997,803.9931084196597,810.7690066716899
1731655834.1507936,834.9681102321279,803.0376989512242,803.7817257566678,821.5285447020358
1731655834.15469,823.2291213455027,800.7961793916139,802.1208931964485,815.3922869715882
1731655834.1585865,795.4621596975563,799.3177848022916,799.195726159015,800.0022856940825
1731655834.1592205,775.6318792480697,798.2564630201592,796.1127469607542,790.3676240561223
1731655834.1624832,781.7974716014185,797.735354790612,794.46671973612,796.1571937802834
1731655834.1663797,811.0662067307743,798.2372755156482,795.5340805277956,813.6817143242732
1731655834.1695008,842.0101572640981,799.9926827082068,799.494954984701,829.158338384132
1731655834.1702762,852.0524765064965,802.504719687972,805.1850871490732,830.282549698439
1731655834.1741726,834.658339301918,804.7327303175057,810.6257468924698,816.3857349711803
1731655834.1748104,802.2228395650155,805.7945730613153,814.072173899602,798.9859194306513
1731655834.1755998,773.9753126659652,805.5224127383125,814.9255514923758,792.5295009159555
1731655834.178069,761.2308867487213,804.3721964331118,813.9087357365111,802.8665281695804
1731655834.1819656,762.5073044577845,802.8632883114396,812.4203666171508,822.6201369172018
1731655834.185862,769.4661611621923,801.1765144274149,811.5856864727675,837.0985526316188
1731655834.188375,775.1191339384754,799.2914116066212,811.7216807601612,835.9930354846967
1731655834.1897588,777.2774513073784,797.4059862128181,812.5246563539788,821.3567361291973
1731655834.1904,777.1807416937729,796.0765922261454,813.6187870505436,805.3109100677425
1731655834.1936553,776.7669749564658,795.863730193355,814.8339194953617,799.4624542347935
1731655834.1975515,777.063150744417,796.8653285051065,815.9975715647611,805.0332100447773
1731655834.2014482,778.0629382732316,798.6903986613743,816.6536946225305,812.0869212899182
1731655834.205345,779.3197934192553,800.9516985224536,816.2209896639558,808.4840486069534
1731655834.2059898,780.4769725321352,803.7194980063595,814.5550605600945,791.0127670764375
1731655834.2072492,781.4392421905897,807.308197162163,812.3244256089775,769.3646361889248
1731655834.2092412,782.2832877140676,811.4591456688548,810.6899758593621,759.3916506619248
1731655834.2104895,783.1117863643153,814.7780137847056,810.4266335341918,770.5869918294034
1731655834.2131376,783.9744457453055,815.265745590452,811.2058997896839,797.5387844818007
1731655834.2170343,784.8671638692789,811.7902793222479,811.7126248583834,822.6126621255573
1731655834.2209308,785.7652938763223,805.3038019370081,810.6055469089478,828.6924648775698
1731655834.2215798,786.6507834916288,798.6324866215753,807.5982023270827,812.4134521682548
1731655834.2248273,787.5197222096946,794.8358082586965,803.7782570135129,787.0037857829454
1731655834.226123,788.3767465772596,795.3463660874188,800.8763836245904,771.7905040243437
1731655834.2287238,789.2272876450924,799.2281612946018,800.0547459000744,776.6467374432359
1731655834.2326202,790.0737373403296,803.9253774239455,801.1715225345989,794.3250820635589
1731655834.2365167,790.9157104571676,806.7934130249037,803.064525059759,807.158857337746
1731655834.2371695,791.751927417354,806.3738233368642,804.5536706921199,802.4457891773721
1731655834.2404132,792.5816255884919,802.8194675116082,805.3105843186942,783.5596950361665
1731655834.24431,793.4048456857495,797.5280132059967,805.9173378916398,767.55436890603
1731655834.2449975,794.2219605829257,792.3988048426208,807.129711691751,771.2086994957986
1731655834.2453792,795.0330888269294,789.0968319261664,808.9740848552244,796.7463056297174
1731655834.2482064,795.837888858339,788.5090403614108,810.4057115359317,828.7366257826452
1731655834.2521029,796.6359605335239,790.4673241293293,809.8572231103747,845.084748867793
1731655834.2527592,797.4276984181433,793.8395618584176,806.4087278126727,834.0104844660924
1731655834.255999,798.2149000879684,797.069213757004,800.8287534846119,803.7159346442228
1731655834.2598958,799.0000375792363,799.0026012571791,795.6421874837614,776.5558535211812
1731655834.2637925,799.7835960844158,799.5236187718879,793.8776988850432,771.7987921019134
1731655834.263872,800.5608295333342,799.5109645582833,797.1021165746088,790.7460076315189
1731655834.2676888,801.3218610425007,800.1103179412014,804.1075319099932,816.3636125610838
1731655834.2683492,802.0593879969028,801.8909389306632,811.3918540889555,827.5110188996878
1731655834.2715852,802.7828598578587,804.539462535468,815.2877196418157,815.7578050784306
1731655834.275482,803.5271028781499,807.2201741718711,814.2341718737462,791.1670396780567
1731655834.2793784,804.3354938005369,809.1512064828082,809.5129868199137,773.1675164070028
1731655834.280269,805.208385724001,809.901823690605,804.0305281954982,774.8203012140282
1731655834.282746,806.0456623079481,809.3577018879959,800.2769331015976,793.2933673706099
1731655834.283275,806.659124793935,807.6492873960563,799.0402200691817,813.4087218705685
1731655834.283939,806.9292955601264,805.2216492014416,799.5571777382726,820.4412529134457
1731655834.2871714,807.070133487146,802.8864000433974,800.5680718818863,811.5043744661892
1731655834.2910678,807.7595859575645,801.6063599954819,801.2753326081175,796.6609998311371
1731655834.2949643,809.7669652513247,802.0215008325894,801.6106163108367,789.4918999404415
1731655834.2988608,812.9474813157667,804.0195154751044,801.8861556545298,795.4006555497797
1731655834.2995286,815.2141807412407,806.692105109416,802.3021346270535,807.575291406899
1731655834.3016202,812.9151902364925,808.7827410823336,802.7615086657406,813.8318641522858
1731655834.3027575,803.8194121307788,809.3868415267206,803.1121999938962,808.1501415258421
1731655834.306654,791.4840704971446,808.427304956294,803.5184356997252,796.6842836475597
1731655834.3105505,786.2127930269445,806.5195541452074,804.4891801245728,792.8514349773199
1731655834.3144467,798.3028326322318,804.3089863215893,806.3905823195546,805.5209807100724
1731655834.3151186,827.1639381158712,801.8722893046187,808.8421251966038,830.2640044968764
1731655834.3151586,857.3619440905294,798.7921133142531,810.6720846479757,851.2280665153646
1731655834.3183434,868.3180254577345,794.9036156012102,810.7031948836333,852.6796446058245
1731655834.320495,851.0098782267361,791.0117011855584,808.8400562800701,831.4769558181748
1731655834.32224,817.0305758112587,788.8156689751958,806.4936198335356,800.6111927695732
1731655834.3261364,790.9960005875225,789.9687201940271,805.7940661642724,780.4093660592097
1731655834.3300333,791.4221134795683,794.977612537643,808.0194637645706,783.5247180328969
1731655834.3307085,815.6456007492726,802.7638237622199,812.3890874370074,805.2564149123833
1731655834.3339295,841.8191855245133,811.11479053163,816.2334275665637,827.1890452277357
1731655834.337826,846.8716093585809,817.5948201480171,816.6258450987596,831.6807493209133
1731655834.3393688,825.525643007903,820.3500628031537,812.4644087617659,815.7246808129182
1731655834.3417225,794.3492130878154,818.5801756001536,805.4954986288975,792.9849840197718
1731655834.345619,777.5688059403975,812.7515537489455,799.3561805396292,782.4170296728165
1731655834.346298,786.785932662018,804.5724771995999,797.1513049860879,792.7933656947562
1731655834.3495154,811.5693860470859,796.5573342354533,799.3342442547246,815.6304420443781
1731655834.3500483,828.5111514706464,791.1092883571206,803.5670139628521,832.0649348799095
1731655834.353412,821.0035210844467,789.4930653207991,806.6594635926976,828.0049092578216
1731655834.3573086,793.274385916693,791.3647583551794,806.9188546199771,805.3432384848713
1731655834.358243,766.9400514558287,795.214302298067,804.9620875054183,780.2395306574371
1731655834.361205,762.7228941398135,799.3510325005166,802.6023676353167,769.9149527284137
1731655834.361888,782.5494473792437,802.6475055226337,801.1953438104157,778.8016910703498
1731655834.3651016,807.4421753947702,804.5997994648806,800.9377354886994,795.5088966920833
1731655834.368998,813.5632269493616,804.9893595046085,801.279719824413,803.0602791224421
1731655834.3728943,793.042997727202,803.7501682917007,801.6374637554571,793.579978896607
1731655834.376791,761.6253943708697,801.2434540886338,801.7588843412293,774.8457495078957
1731655834.3771172,746.2299042975687,798.5184357402793,801.6860057024176,763.3964044343913
1731655834.3774776,762.7092593439086,797.0145674928341,801.5590529751344,770.7143103584642
1731655834.3806877,802.3095263340862,797.700233198394,801.472201778958,794.6365004106513
1731655834.3845842,837.9008352274335,800.3005995897536,801.440776172003,822.5969611486246
1731655834.3849378,844.8579929307558,803.3562266583566,801.4365573974776,842.2411155730962
1731655834.388481,819.9545494708847,805.216890138915,801.4302125657805,849.336096027158
1731655834.3923771,783.50250333657,805.2527358601068,801.410242406427,847.5449883788584
1731655834.3930674,763.267072132582,804.3113154765477,801.3799872889539,843.0210699641464
1731655834.3959916,772.9682124768326,804.0293907387953,801.3470696750451,839.7852150963339
1731655834.3962736,802.3650152651983,805.5435441344905,801.3161812346143,838.6548324085217
1731655834.40017,826.6039157587435,808.6366453864542,801.2878141438306,838.6329829438718
1731655834.4040666,826.9361369076253,811.9840260757018,801.2603400483617,838.5896621461093
1731655834.407963,805.7191216017695,814.2334338173655,801.2322289499356,838.0515211108905
1731655834.4086573,783.5971840656566,814.968954696271,801.2029416869777,837.1257808370207
1731655834.4118595,781.761832936995,814.7802332112718,801.1726943330425,836.1030697252797
1731655834.4148655,804.3577026321772,814.5101981691073,801.1418846174093,835.1715609568865
1731655834.4157562,835.3169531475996,814.4601823632315,801.1107316145376,834.3579380655742
1731655834.4196527,851.5877762875239,814.2453938834644,801.0792332571438,833.6028644999232
1731655834.4198277,841.6106951569429,813.3013479131816,801.047288588889,832.8471497836207
1731655834.4235492,814.2742341279718,811.4767625305869,801.0148150449397,832.0686865194801
1731655834.424247,791.5206722161225,809.1786898098584,800.9817877810012,831.2751517740855
1731655834.4274457,790.6902901273733,806.9988062579174,800.9482147833335,830.4822562410263
1731655834.431342,810.7463211767005,805.1916406443486,800.9140943400924,829.6993727594489
1731655834.43374,833.5584618482951,803.4934759098853,800.8793953383447,828.9273179409067
1731655834.4352386,839.420659571553,801.5124888952741,800.8440798785969,828.1627456957641
1731655834.4391353,824.1412024913066,799.4211170593787,800.8081588654525,827.4026380797623
1731655834.4398367,803.2232723537719,798.2771432480865,800.7717342232759,826.6460282082063
1731655834.4430318,799.094068692842,799.4310091792208,800.7349551793454,825.8934485398906
1731655834.4469285,821.7389632354319,803.2597849809414,800.6978474512069,825.1457391829962
1731655834.4508247,859.0584117493645,808.3118197690835,800.6600997142554,824.4033320427691
1731655834.452614,885.3842320294023,811.903659139214,800.6210608673967,823.6662149030157
1731655834.4547172,881.5628056065309,812.0154127195508,800.58022952465,822.9342481570968
1731655834.4547212,850.4830800571183,808.9766447699449,800.5381754564812,822.2074408583301
1731655834.4554267,815.4454232203572,805.3563683037106,800.4971260520426,821.4859590557517
1731655834.4586177,802.2531745081479,803.9793276460546,800.4599211523438,820.7698551027053
1731655834.4625142,818.8963095455466,805.728153722982,800.4266911948467,820.0587297257151
1731655834.4664106,849.098968138595,809.0157678715141,800.3910662148924,819.3517275921744
1731655834.4703074,865.3616063350955,811.2651249837751,800.3407995500286,818.6482331710042
1731655834.4710164,851.3059870890025,810.9707546293694,800.2677411049197,817.9491188025607
1731655834.4714885,815.1173209840483,808.6256672782089,800.185019595048,817.2574457547511
1731655834.4742038,782.9307101329618,806.0296497587736,800.1358807228839,816.5768876309038
1731655834.4781003,777.6013067716735,804.852952338063,800.169839223117,815.9071655075114
1731655834.4819968,800.4158952226977,805.6340642413821,800.2761444633496,815.2391758161134
1731655834.4858932,830.6495625258951,807.7218550691024,800.3106292627665,814.55648523562
1731655834.486606,842.8570467052551,809.8892607550213,800.001118898481,813.8494611062281
1731655834.4896069,827.3071018635314,811.0691622159442,799.0896498657647,813.1382544596232
1731655834.4897895,797.0102431110987,810.8548467485998,797.5267229005566,812.4829686633005
1731655834.4903626,776.2964794268244,809.6667980466505,795.5394775146639,811.9492357828697
1731655834.4936862,780.8315035268753,808.5608711060015,793.5472496741896,811.5200961510299
1731655834.497583,805.3743422455982,808.6528065121884,792.0794335843982,811.0110702204313
1731655834.5014794,828.9105852139486,810.3061559763239,791.7207870940243,810.1161757277976
1731655834.502196,832.6168211623125,812.5588059770882,792.8968402207644,808.6918797813478
1731655834.505376,815.6818457364992,813.3825606770121,795.4720554488017,807.1823928400487
1731655834.5092368,795.7781105853186,810.9322467731268,798.5183251059375,806.757267560248
1731655834.5092723,793.7087683367375,805.0920552145323,800.6579023503273,808.58491478446
1731655834.5131688,815.0602295332995,798.0836590731429,800.9150873854759,812.168117091116
1731655834.5170653,844.4089259821881,793.3684096675614,799.4645398307729,813.9668313943489
1731655834.5177858,857.3116836353527,793.4134270987231,797.6143776155295,808.5967870372319
1731655834.5209618,840.4727080114486,797.9697734497588,796.929681619915,793.4475545335094
1731655834.5244966,803.504994775321,804.2290367802533,798.1239119465633,773.3502082003912
1731655834.5248582,772.3927469546845,808.7278380970624,800.5858522125968,759.7163042109609
1731655834.528111,769.5974875778783,809.5054373939056,802.9202470828947,762.8361044888761
1731655834.5287547,796.65090979154,806.9812389272216,804.0338730617717,783.2086947396107
1731655834.5326514,833.228657323492,803.1992864746368,803.834820839021,809.8700512644602
1731655834.5333755,853.486057774528,800.3235689167905,803.0238510392211,828.0557536433992
1731655834.536548,846.4105711492244,799.5510079880248,802.3561616736268,830.3000449247492
1731655834.5404444,823.6182926887902,800.94465432894,802.1357627996549,821.6679632359137
1731655834.5443408,808.4154567163573,803.8787185793734,802.2438696621647,814.533426466463
1731655834.5469854,815.5656630774246,807.5243903569041,802.4337748189467,817.3449341772695
1731655834.548237,838.8548316619566,811.0940562093839,802.5513075211766,827.2093790444036
1731655834.5489657,856.7434390393433,813.93361214238,802.576254079759,832.8526462645945
1731655834.5521338,851.0679524969689,815.6396464116642,802.5579176171948,825.3354228020893
1731655834.5560305,822.9391926495031,816.1921037398964,802.544457534366,806.9894915378782
1731655834.559386,792.5677535379883,815.9339674862949,802.5533867134075,790.5338936012939
1731655834.559927,783.230910448799,815.3420530378266,802.5780897031859,788.8706674771479
1731655834.5638237,802.6278592222059,814.7647075805278,802.6057170384596,804.1755503307512
1731655834.5645552,836.8365853952108,814.3215184768874,802.6287773474045,825.6325786553555
1731655834.5658596,861.6645066417506,813.9733614585458,802.6467738737854,837.9468926325052
1731655834.56772,862.0265632280349,813.6419964411145,802.6625380703418,833.7044136270752
1731655834.5716164,843.5126385020185,813.2827665376419,802.6785743566131,819.3054432534897
1731655834.575513,826.7373433846047,812.8938389168715,802.6956935643565,809.4351695000431
1731655834.5794094,829.2927951388992,812.4930862438748,802.7134841571595,814.5919562631508
1731655834.580145,850.4726435331937,812.0957289105372,802.7312790739278,832.0535134517037
1731655834.583306,871.5995266928147,811.7063470728167,802.7487312473766,847.7913697566772
1731655834.5847335,871.6480120241375,811.3220840179413,802.7658605027651,847.7150915648753
1731655834.5872023,845.1188766692444,810.9386659690294,802.782842942634,829.0425565922075
1731655834.591099,807.418556929251,810.553873604335,802.7998212543384,802.7262720449357
1731655834.5942757,783.314999876727,810.1677499822847,802.8168448510822,785.1856659329094
1731655834.5949955,787.614933711847,809.7812760769147,802.833907511779,785.9396127990703
1731655834.5957348,813.3080938992837,809.3952153275794,802.8510060409332,800.6825761900982
1731655834.598892,836.6351476461041,809.0097527834963,802.868166233188,814.9972991444577
1731655834.6027884,835.468968626929,808.6247011535099,802.8854229083166,815.7682101122655
1731655834.603608,806.9312193211749,808.239821673806,802.9027751559937,801.529442103499
1731655834.6066847,770.3430815867847,807.8549939110234,802.9201624664976,783.7629430163486
1731655834.6105816,752.7137470537871,807.4702149305299,802.9375121990466,778.0529496667933
1731655834.6113243,767.7506981523503,807.0855262248285,802.9548685686518,791.8513862433215
1731655834.614478,804.8522369072299,806.7009554350894,802.9725164628996,818.3010184088341
1731655834.6183746,836.8842258283823,806.3164998488912,802.990913965112,840.8837553989175
1731655834.6222713,840.6579614803113,805.9321358791543,803.0102816253905,845.2904105884606
1731655834.6224823,814.0389498157874,805.5478318373148,803.0299928684955,829.4824092139369
1731655834.6261675,776.594362452895,805.1635558216874,803.0483884158592,804.5540135347368
1731655834.6269145,753.861979651633,804.7792842759568,803.0638462128668,786.1182484719237
1731655834.6291654,757.9004667236728,804.3950160114257,803.077216119077,782.9163041412997
1731655834.630064,779.1494526219177,804.0107816280881,803.0938900205716,791.1373215746414
1731655834.6339605,795.4850233962826,803.6266239966011,803.1220142445684,798.5017655262459
1731655834.637857,790.8571590735473,803.2425348263791,803.164324999692,794.7613719659123
1731655834.6413565,768.2958406900702,802.8583792504116,803.2070143433117,780.2323665645187
1731655834.6417537,746.5761741504681,802.4739026756279,803.2178665938419,765.332589497776
1731655834.6425042,743.4339852880121,802.0889203678552,803.1686519824495,761.3466406142816
1731655834.64565,759.8603200961019,801.7036574148817,803.0813411881547,770.2227188298182
1731655834.6495466,779.2737835717276,801.3189444758048,803.0623710168962,782.4270471845535
1731655834.653443,782.3340716647235,800.935793205218,803.2587231213189,785.075996579628
1731655834.6573396,764.2767317173224,800.5541454195738,803.6941750270807,773.4080859619446
1731655834.658094,739.4928223625811,800.1715181555381,804.0593601991764,755.4417218085999
1731655834.6602306,729.4266507878469,799.7833761074162,803.6827902480975,745.4962269566472
1731655834.661236,744.2740831024498,799.3869811413695,801.9134537524167,751.9953719608227
1731655834.664055,773.9632015026704,798.9877341456263,798.8165449699273,770.0491840039781
1731655834.6651323,795.9287740520383,798.602092470194,795.6179806035952,785.3720778852281
1731655834.6690292,793.3709722893803,798.2482675215657,794.3121830257533,786.4635108875206
1731655834.6729257,769.1177771736458,797.9219790993754,796.4908101693302,774.7133202391623
1731655834.673684,743.6045513102551,797.5725780962492,802.1813666423767,763.5245931555733
1731655834.6768222,738.3614245460406,797.1143937954823,809.5952452248931,766.8666332039655
1731655834.6791048,758.5137276703309,796.5024827024097,816.066400004084,787.0117575818965
1731655834.680719,788.8781942905271,795.844851104329,819.5920675072514,812.1671543141504
1731655834.6846151,806.894635578756,795.4333075932518,819.9231054255133,826.1406530455799
1731655834.6885116,801.3656573463335,795.5635966480954,818.4705746388323,821.6570285191729
1731655834.6892736,781.2164738504424,796.2119445174935,817.1748547218383,805.9332517607525
1731655834.692408,767.3354841308458,796.9209873157778,817.221279533264,794.157511164074
1731655834.6963048,774.9570777530593,797.1985952726177,818.4790040732073,796.9593480808257
1731655834.6979792,801.4197550946759,797.1776852013492,819.8554493592296,812.5084551065681
1731655834.6989448,828.8766415218934,797.7928366423802,820.0775168547501,829.1995878126287
1731655834.7002013,839.0709296095014,800.0377564389493,818.3158765265615,835.8433423666111
1731655834.7040975,827.9864335514548,803.8454877061864,814.4625929145883,830.6145217780811
1731655834.7048633,808.710808635743,807.7428840693531,809.192804985472,821.6677454462588
1731655834.7079942,800.2706201304999,809.85743635494,803.8717216940778,819.3481306628787
1731655834.7118907,811.4500534442458,809.5120073816419,800.1613481888298,826.7288455452093
1731655834.7157872,833.0528056125306,807.8848111329789,799.2559455911847,836.575058777558
1731655834.7168534,845.5618267496271,806.9527416483043,801.0579647415054,837.5187195848895
1731655834.7196836,836.2645240985597,807.5932112629196,803.8978200140285,824.3446198818854
1731655834.7204533,811.3807718441402,808.6613576446524,805.2256742532078,803.5040521387933
1731655834.7235804,792.3745201593345,808.0306773792017,803.0806867979595,788.7965757343085
1731655834.7274768,798.8085262934604,804.6858886546382,797.482091712583,790.478121939239
1731655834.7313733,831.6070844958939,799.8659520694556,790.7268945440818,806.7066569327757
1731655834.7338345,870.5693945059171,796.1334530762693,786.2037605877571,824.4226535710608
1731655834.7352698,888.5497999673202,795.2556306134383,786.4063581182677,829.156290850786
1731655834.7357275,871.4864767492346,796.8960786592505,791.4967114445291,816.1940947907558
1731655834.736043,828.9514189386341,799.2451508719258,799.3921025515065,794.4856210347388
1731655834.7391665,787.2170333553672,800.8155456111355,807.1978629422267,780.1685207714033
1731655834.7430627,770.1054540565498,801.6132220163245,812.8602178858999,784.4532592149066
1731655834.7469592,782.15663907795,802.6643254924833,815.9249953347413,805.0807393381498
1731655834.7508557,806.9066276814381,804.5438955458106,817.1325079267765,828.1120430170204
1731655834.7516327,821.3085223280383,806.4583026708789,817.4606810476574,838.8449481607071
1731655834.7546017,814.5305961408707,806.8030389141139,817.4536027352815,833.2268746583785
1731655834.7547524,795.9590003818016,804.6734950685903,817.2071435689487,820.5195856588928
1731655834.7586489,786.2481283624975,800.9329765501581,816.7553858984727,815.0769103588441
1731655834.762545,799.2390134228116,797.8675247158224,816.3521276141173,824.127626407042
1731655834.7664418,829.8205872315059,797.698322075848,816.3786416759075,841.7264292092248
1731655834.7672226,857.5371329212821,801.1377686170295,817.0169607511591,853.7622488695937
1731655834.768724,862.7412105066963,807.0205367774524,818.0226555868131,849.6864785292714
1731655834.7703383,842.1377061590621,813.0903249871419,818.7897115749109,831.2411745510772
1731655834.773476,811.2977959954039,817.2033985665323,818.6117636811981,811.1267599649036
1731655834.7742348,792.1336086313574,818.1528429310229,816.9013928781235,802.7388205911539
1731655834.7781312,795.312343963069,815.8449632098672,813.2635284334466,809.2608647513979
1731655834.782028,811.9270754254608,811.0555317096178,807.5702116024086,821.0518225096906
1731655834.7828124,821.575602732364,805.0846945300299,800.2260959599151,823.7763421612518
1731655834.7859244,810.4235544334551,799.427447560564,792.5082144648321,810.89245653897
1731655834.789821,783.9960277887777,795.4116406448951,786.517026330309,790.0675311751799
1731655834.7923503,763.4361387669585,793.8049686026548,784.3902866857097,777.6760597605717
1731655834.7937174,767.9350165386911,794.5465711143358,787.0741843658324,785.4175172688164
1731655834.797614,798.007674485692,796.7877766286845,793.5238087213135,809.9973798533015
1731655834.798402,833.8267807388223,799.2612973774935,801.0589924362179,834.6467661108072
1731655834.8015103,850.3343601958965,800.8030460112975,806.7640463915242,841.6484113622743
1731655834.8036137,836.9281088060446,800.7967787220235,809.0102186571744,825.9725116142343
1731655834.8054068,805.6818625813463,799.3792960668636,808.0866648048312,799.0876757986862
1731655834.8093035,781.3717454242956,797.3289250155614,805.6018617760578,779.8577796242693
1731655834.8112245,781.4683366050351,795.6617722150552,803.2064608112839,779.853542921781
1731655834.8132,802.5840880658068,795.117364653123,801.6107531746734,794.9725037341555
1731655834.813992,824.5821591112758,795.8296974645253,800.5354352633689,810.1292675916403
1731655834.8170965,828.7038350332471,797.3849270579557,799.4497301938268,812.9467605961624
1731655834.8209927,814.0244602797791,799.1802170372598,798.3626457039624,804.7338255387583
1731655834.8248894,797.8364415097485,800.7718043653097,797.9858973832231,799.1553938478835
1731655834.828786,799.4858521097971,801.9642216176745,799.1713413917579,809.4417943743299
1731655834.8295815,821.815071323893,802.6889187853664,802.1251889404986,835.0525713209165
1731655834.8300986,846.7747298451545,802.936639553178,806.0511677781141,859.6622697917664
1731655834.8326824,849.6925563517733,802.8984635752569,809.5071718740508,863.0466365825208
1731655834.836579,820.563332988553,803.1452823801241,811.203319681801,837.6223295098118
1731655834.8385034,774.3815706690685,804.5114072301623,810.6651827146268,796.0307073902478
1731655834.8404756,741.30809067489,807.5733215716813,808.3433067205943,763.0603015987857
1731655834.844372,744.0079309328218,812.036660963158,805.1939598776654,757.8005203062836
1731655834.8451717,780.1731581593665,816.5498349647721,802.1035318647388,779.8858894558202
1731655834.8482685,824.3024568003835,819.2382208974517,799.5417586533234,810.4973344250777
1731655834.848973,847.4195294769289,818.7533483263666,797.5880829577595,827.0867461699162
1731655834.852165,839.0088890856956,815.209508272532,796.2189935174027,820.1087168965374
1731655834.8560617,813.7150697359854,810.3426292223998,795.6106238325998,798.8658104970114
1731655834.859958,797.8043338736495,806.6620183518326,796.2032271766483,782.567185966307
1731655834.8607614,806.8962490834467,806.0381346524917,798.3947112422202,784.41428673861
1731655834.8638546,833.3363613540911,808.6003193412776,801.9961502920956,801.5602053931926
1731655834.8677511,853.1646951321444,812.6541231493524,805.8724650607762,818.4322483492479
1731655834.8678472,846.3558886135304,815.6794035431948,808.2188560313592,819.9813679225676
1731655834.8716476,813.5978426646972,815.8090179723548,807.5103230335122,803.8986346900872
1731655834.8733933,776.3220698399855,812.9207475046056,803.5493181434691,782.2971796573236
1731655834.875544,760.2966949100993,808.6959288354534,797.7831189569243,771.9771139927554
1731655834.876351,775.7936328342056,805.5659838539508,792.5113821109876,781.195600807571
1731655834.8794403,809.7534117681229,805.13191478028,789.4692578969546,803.3203761624885
1731655834.883337,836.0375715648677,807.0610241286018,788.8281499764555,822.2314138062818
1731655834.8867214,835.7799015358379,809.294007071909,789.3854447790458,825.0613770025136
1731655834.8872335,811.7312249125081,809.563045778498,789.7778171709167,811.9914117543747
1731655834.89113,785.0681444926721,807.190162170415,789.6928583279843,795.2032573108131
1731655834.8919408,777.3178933110198,803.7412043413781,790.0245283455475,788.0756356342389
1731655834.8950267,792.3965997850052,801.8793515879483,791.8439537105722,793.8845205171364
1731655834.8989232,813.6744935001857,803.2371675617368,795.1884226871275,803.5562653599878
1731655834.9028196,818.2988565842941,807.0496065859272,798.8809851943706,804.1395994577828
1731655834.9055955,796.6043196931582,810.7287404033129,801.5182062347676,790.5383434760589
1731655834.906716,760.571058819991,811.9141859881559,802.5393125184814,770.5170623408733
1731655834.9075308,734.6941133307198,810.2601616701234,802.3765203549564,758.8371103461817
1731655834.9082828,736.8556706679725,807.4728755939756,801.8260293035682,765.3282299803672
1731655834.9106126,764.371131747801,805.6603364201403,801.43005184163,786.520342552744
1731655834.9145093,796.035185073553,805.5142170221515,801.3111349475506,807.6725036671522
1731655834.9184055,808.5254582897892,805.9137056396983,801.3440678041408,813.8929398199979
1731655834.9223022,794.3275988618846,805.1834915069935,801.3783703951619,801.6812051230231
1731655834.9231205,767.0105660726941,802.7358849223814,801.3476956150944,781.5251815277034
1731655834.92447,749.6828170036897,799.5936668727826,801.2636283806338,769.2006912097459
1731655834.9261987,756.1302820343636,797.4711510142756,801.1641131285927,772.7481572064644
1731655834.9300952,780.1488087999696,797.4366977917603,801.0747475986234,785.8798574008778
1731655834.9339917,801.6328844244385,799.3785471350142,800.9998385276537,793.3671476787138
1731655834.937888,803.863638078586,802.5063342890793,800.9318536322355,784.0437039658444
1731655834.9387102,787.2525877085776,806.0923592603343,800.8628798114789,760.7899252765351
1731655834.9417846,768.2788972966226,809.63624587365,800.7897858278031,739.3772743255688
1731655834.9431725,765.1018712193952,812.5017368015314,800.7134536995607,736.9900089225955
1731655834.943344,782.2399479394068,813.7674859970188,800.6359410243198,759.2266476892953
1731655834.945681,807.0011957353325,812.7631087851961,800.5585270177863,795.4375961783978
1731655834.9495778,820.4360307506063,809.8582620930089,800.4813593461059,826.0068888826588
1731655834.9534743,813.6630759434855,806.5954208814292,800.404009926586,836.2701067901185
1731655834.9543002,795.8357756979749,804.7997196860302,800.3260744869687,826.5347119019065
1731655834.9573708,786.6213687134554,805.3222998004716,800.2474163985726,810.3666907837141
1731655834.9612672,799.0593220918618,807.5001144527655,800.1681046130209,802.5958793952526
1731655834.9622183,827.3958293658653,809.7954260937233,800.088257475209,807.1480962099811
1731655834.9651637,850.8958991506905,811.031253963345,800.0079424896527,815.0590383766312
1731655834.9690602,851.0490024217185,811.1659946084521,799.9271638482189,814.0656685155805
1731655834.96989,827.677675017702,811.0378760441988,799.8459002320751,800.8709567399942
1731655834.972957,799.964889977178,811.4328686862821,799.7641469836749,784.9478723588093
1731655834.9768534,791.1346594613755,812.3388284439727,799.6819346689443,780.508675724926
1731655834.978062,809.3960795376306,812.9726574113703,799.5993126464642,793.7936722228471
1731655834.9807498,840.9276913850206,812.4627611394484,799.5163010302153,816.8290215310114
1731655834.9810927,860.7536239675347,810.5801554794357,799.4328396311512,833.1935603841016
1731655834.9846463,852.8137296546525,807.9701922555021,799.3487934813967,831.2224328989381
1731655834.9854796,823.0813028029436,805.7755909693883,799.2640731150046,813.8192639033243
1731655834.9885428,795.0100133167418,804.96432847396,799.1788443960095,796.6005739807763
1731655834.9924393,790.6905916929617,805.8093563125894,799.0936433592462,795.482656440435
1731655834.9963355,812.8171144673153,807.7953178280064,799.0091055804652,813.613394801855
1731655834.9999669,842.2669684023064,809.9248320505114,798.9251933844607,838.4461795531599
1731655835.0002322,853.5541650701703,811.1831551101521,798.8403780944557,851.6447685956194
1731655835.0010695,835.7094887527833,810.9133658035131,798.7519059072936,843.9071422796328
1731655835.0041287,801.5454118111691,808.999380494992,798.6581981553859,822.5879674875227
1731655835.0080254,777.7094114531785,805.8913795346981,798.5627287744472,805.8164025695872
1731655835.011922,783.5838576935815,802.5250400822408,798.4757046546785,807.859628032314
1731655835.0129516,816.0217210974689,800.1095698175144,798.4082000047426,827.6132961715497
1731655835.0158184,851.9427711728429,799.723508933821,798.3572871265552,849.4848373632083
1731655835.0166593,866.3518069843377,801.7732501899096,798.2919138938166,855.86727558621
1731655835.018841,851.2777085116646,805.5884627620843,798.1612900708824,841.1392596671554
1731655835.0197148,820.8465744922332,809.5268594944909,797.9441940993069,815.981982439568
1731655835.0236113,798.9460723390195,811.7286611923291,797.7240948105732,798.5500967443365
1731655835.0275078,799.7424683082671,811.1659901642572,797.7221703360688,799.6368885393113
1731655835.0314045,816.9147790216877,808.2666981545482,798.2060369507183,814.0454213191324
1731655835.032249,830.2615404049428,804.571347394478,799.2866203911032,825.4504913174337
1731655835.035301,823.863235033938,801.6016549749271,800.77243050842,820.715278104945
1731655835.0377152,800.2467749396936,799.8148963025463,802.2613097459194,801.4618782379624
1731655835.0391974,778.4625606437112,798.5098948470638,803.420344064268,783.0061976570883
1731655835.043094,777.7770988364297,796.743742775261,804.1927428971184,781.628393488729
1731655835.0469904,800.8891958121405,794.4199093262508,804.757022039714,800.9700952143708
1731655835.0478387,830.8483840600563,792.5712336837744,805.3252301611067,828.7630719799777
1731655835.0478413,844.3230433306267,792.6075718181504,805.9809790215085,846.2791025382857
1731655835.0508869,830.4260651293511,795.1956965166609,806.6551998959542,842.6501170136589
1731655835.054783,799.8225944307115,799.6733355740522,807.1974088562614,822.734453514727
1731655835.0565896,776.5877119232068,804.3622469860115,807.456318636341,802.6824953577019
1731655835.0586798,779.046677458531,807.4353584321917,807.3232626410722,797.0929707459695
1731655835.0625763,804.8925251612843,807.7354749920834,806.7603726227612,808.0846251012476
1731655835.0634286,832.8686745775901,805.198609113703,805.8800216342213,824.8238960871859
1731655835.066473,840.0681698103698,800.8693657436258,805.0845467590673,833.4607597713853
1731655835.0703695,820.8657476298652,796.5629185043867,805.1054417404748,828.9546085896311
1731655835.074266,791.7263494243341,794.1665560310279,806.6952480500208,818.9305023973186
1731655835.0754638,777.6563432393332,794.7297868772945,809.9756531650484,816.5832211753255
1731655835.0781624,791.3975246704957,797.8340807999082,813.9302138762205,828.828483623402
1731655835.0790184,822.5839830237878,801.7859628421763,816.700173314027,849.6745815238874
1731655835.082059,845.8671565060209,804.6454041259537,816.7707403986861,864.3094461789609
1731655835.082731,841.463543850756,805.3809609921874,814.1936416355486,860.6727775267535
1731655835.0859554,811.4637495112244,804.2803796597188,810.6835897223608,839.3182519709154
1731655835.089852,778.604661810122,802.3892364572043,808.310722479091,813.6301203647432
1731655835.0937486,768.3060796320519,800.6050365541847,807.8699831640562,799.9120190302731
1731655835.094338,788.3603534107276,799.2742854710366,808.4235305563527,804.9130531981895
1731655835.0946083,822.7145581157524,798.5231765365202,808.4293437710542,820.7158012164556
1731655835.097645,844.4190923969983,798.7578199594941,807.3395994652484,831.3383915461658
1731655835.1015415,837.1937139545961,800.6271591810546,806.14121559527,825.9443552986777
1731655835.105438,808.0696841385752,804.384772077136,806.389474833271,807.8776287935425
1731655835.1093345,781.0474873355738,809.3158623015905,808.6990395937802,791.9010346292908
1731655835.110198,777.3702119800827,813.9214323320253,812.0509249686099,791.7506223781139
1731655835.113212,798.7060693847233,816.8283067579682,814.449632377931,808.3107905886991
1731655835.1132307,826.6026933067338,817.6613315646565,814.3343969959146,828.3480020005981
1731655835.1171274,838.0403479880584,817.1120373309202,811.6551563051323,835.0601525766868
1731655835.1176207,824.1592150097856,816.169873969574,807.8720223515026,821.9086976916738
1731655835.121024,797.1760098645702,815.2534816074983,804.9237278801427,798.3369510933765
1731655835.1249206,780.2019621313121,814.0655236368482,803.9033913319687,782.4601343343794
1731655835.1257875,788.3281654737015,812.2894738793694,804.3788030878021,786.5213906727264
1731655835.128817,816.3292585537183,810.3822107193782,804.8506374040281,807.0616220343791
1731655835.1320865,843.0504059244846,809.5372273548995,804.0022829456557,827.9916859816734
1731655835.1327136,848.9427560743923,810.6630350648012,801.7627870197563,833.9619088794852
1731655835.13661,832.233219223082,813.2716641632866,799.3261436213397,822.7104089334752
1731655835.1405065,810.1506003361324,815.4482662306083,798.1191588293416,806.0443488269793
1731655835.1413777,804.0703249191171,815.1759844468598,798.5997363053618,798.9936805120338
1731655835.144403,821.0211028895687,811.9904896848501,799.9055075408028,806.7771656395638
1731655835.1482997,847.109645050106,807.5088363655976,800.618318499252,820.7217702473783
1731655835.1509607,858.4562525312805,804.3070141330571,799.9552477328292,826.2246930591261
1731655835.1521962,840.7622809885798,804.0584735488021,798.4002484189506,815.6186144562909
1731655835.1525102,801.6317395913971,806.4411200253129,797.3395681898833,795.038025346927
1731655835.1560926,765.6277142021397,809.581257146178,798.0731204665138,779.6929065744282
1731655835.1569674,755.8363721153121,811.5085661764133,800.9548909105432,781.5699975925918
1731655835.159989,776.5183962155002,811.4129203038123,805.1977804618028,799.717531385409
1731655835.1638856,810.5826004336221,809.8653872642184,809.3781123258938,821.0418548753393
1731655835.167782,833.4599309267571,808.0849347559542,812.2654927599094,830.690492858627
1731655835.1698349,831.4051602037185,806.9874824231719,813.457940816631,823.0474575624935
1731655835.1716783,809.2400477112153,806.728590127757,813.4424645746608,804.3450839443708
1731655835.172557,782.9265938164807,806.908578794347,813.0714606914775,785.9612713301661
1731655835.1755753,765.8978316684679,807.0663355928414,812.8575140805636,775.5954136376279
1731655835.1794715,761.4071551083495,806.995649202726,812.6373440842715,773.7416148956387
1731655835.1833682,764.6796113381374,806.7403915568237,811.8597293104845,776.3420876421407
1731655835.1872647,769.4302486960394,806.4312067089114,810.2140344688428,779.2526588543393
1731655835.1874,772.2371444749906,806.1565771690252,808.0143287254879,780.6257598903635
1731655835.1881473,772.9122623753235,805.9322796909242,805.9953541708285,780.672318383703
1731655835.188709,772.7312826741271,805.733208081782,804.7492925640355,780.3293109232682
1731655835.1911612,772.7877649662241,805.532441368437,804.352418799952,780.2516263920074
1731655835.1950576,773.4091449849342,805.3191199650548,804.4630209477039,780.5609310875354
1731655835.198954,774.3875425970243,805.0960774892968,804.6758852477685,781.0728266429076
1731655835.2028508,775.4144677842852,804.8702618745442,804.7721413666378,781.5863532365512
1731655835.2037368,776.3308623687375,804.6460459563293,804.7369081180038,782.0189765503981
1731655835.2067473,777.1413114595337,804.4239609652099,804.6480946829739,782.3906783122239
1731655835.2075834,777.9179371269802,804.2025526599544,804.573446247262,782.7530840099689
1731655835.2106438,778.7169016063347,803.9804200087002,804.5335590005292,783.139235023521
1731655835.2145402,779.5524941954767,803.7570585503125,804.5157410164636,783.5536134832082
1731655835.2184367,780.4121578459923,803.5326630421094,804.5008660674147,783.985699962965
1731655835.2193267,781.2797226961052,803.3076061100561,804.4789676298941,784.4251743572282
1731655835.2222896,782.147649797123,803.0821034053348,804.4502282896956,784.8683248586726
1731655835.2223332,783.0169007599577,802.856168159045,804.4190666256092,785.3166733505277
1731655835.2262297,783.8915701108557,802.6297185341845,804.3889496585768,785.7731140833021
1731655835.2264576,784.7746203958719,802.4026835837855,804.3607577430581,786.2393961682457
1731655835.230126,785.6667561533363,802.1750424044753,804.3336978136185,786.7157567112814
1731655835.2340229,786.5673506718618,801.9468101086537,804.3067413878509,787.2017075886126
1731655835.2349164,787.4756759691278,801.7180097087899,804.2793898235814,787.6968264289291
1731655835.237919,788.3914943229971,801.4886555428171,804.2516724444379,788.2010549920411
1731655835.2418158,789.3150053642584,801.2587520681653,804.2238159389099,788.7145991159825
1731655835.2453318,790.2465489839997,801.0283000551148,804.1959782927881,789.237719801577
1731655835.2457125,791.1863893446235,800.797302054999,804.1681757201605,789.7706083646165
1731655835.2496088,792.134670019844,800.5657639887531,804.1403381038034,790.3133765612507
1731655835.2505062,793.0914721122883,800.3336938830698,804.1123871577769,790.8661030417826
1731655835.2535052,794.056879801224,800.1011001690404,804.0842797599018,791.4288743768384
1731655835.2571793,795.031003840359,799.8679913068571,804.0560122564783,792.0017951738419
1731655835.2574017,796.0139653958031,799.6343770674576,804.0276011092462,792.5849744270714
1731655835.2612984,797.0058698977966,799.4002702766168,803.999050613224,793.178509157466
1731655835.264206,798.0068032242968,799.1656867195943,803.9703171892482,793.782484787683
1731655835.265195,799.0168661117284,798.9306412579667,803.941295310128,794.3969991519054
1731655835.266096,800.036228625293,798.695141226875,803.9118649993405,795.0221949425636
1731655835.2690914,801.0651451308264,798.4591833113873,803.8820157223608,795.6582614932278
1731655835.2729878,802.1038579952311,798.2227630305899,803.8519736573011,796.3053650259669
1731655835.2768843,803.1523872287286,797.9858996520219,803.8221555256413,796.963517043783
1731655835.2807808,804.2103633264021,797.7486607015331,803.7927865647584,797.6324915599859
1731655835.2816858,805.2772036631472,797.511149875863,803.7632913288585,798.311975954218
1731655835.2830803,806.3528305081855,797.2734273895463,803.7320404310955,799.0020450980767
1731655835.2846773,807.4386042395302,797.0353889269785,803.6972931547838,799.7036975934516
1731655835.288574,808.5374001520105,796.7967242462224,803.6595521917476,800.4187566976003
1731655835.292069,809.651581156651,796.5571212496886,803.6237809357058,801.1484371716014
1731655835.2924705,810.779022377615,796.3167444562604,803.5980776930456,801.8908917133001
1731655835.2963667,811.9103824167545,796.0766562964914,803.5860333048065,802.6399499851284
1731655835.2972755,813.0332415996129,795.8384929227047,803.575500097198,803.388465114655
1731655835.3002634,814.1462004669222,795.6028768735946,803.5353302741992,804.137514591932
1731655835.3019545,815.2756558347276,795.3671984822323,803.4353726687218,804.9058460218812
1731655835.30416,816.474418290859,795.1251538513785,803.291437266213,805.7261608062188
1731655835.3080564,817.7800908971385,794.8710414311012,803.2027543475251,806.6161770493479
1731655835.3119528,819.1403296626326,794.608884584587,803.3168129953747,807.5330779343544
1731655835.3128655,820.369683788425,794.3595232553755,803.6741902888125,808.3555144592925
1731655835.3158495,821.2425936398035,794.1526799376085,803.9930730304419,808.9558481217988
1731655835.319746,821.7678057197454,793.9956273380897,803.6061847715374,809.3772332919938
1731655835.320829,822.4854285462789,793.8330462975586,801.7808313813424,809.9969191531118
1731655835.3236425,824.3832458335604,793.5449868569048,798.352379371338,811.4192695509616
1731655835.326959,828.0439844550442,793.0371955253795,794.1724650816108,813.8929240804059
1731655835.327539,832.2279424245813,792.4173470630293,790.8628596918293,816.4602681850812
1731655835.3284552,833.1561167541379,792.1220848475319,789.9176635774589,816.6963463429215
1731655835.3314354,826.3228396491313,792.7792882711431,791.7461195524726,812.1243077657003
1731655835.335332,811.1205014300565,794.7574994082601,795.2992515465423,803.2449626822457
1731655835.3392284,794.6850337638384,797.7399136427704,798.5502312261183,795.6472728045886
1731655835.3397028,789.3088001629288,800.796646656324,799.6055562781485,797.6459552035533
1731655835.343125,802.7431445687993,802.9839610224044,797.84627259455,813.4769124001662
1731655835.3440447,829.3795727140852,803.9324099251994,794.4137817659214,837.7283749930759
1731655835.3470216,851.8313813249594,803.9124941924645,791.6652996016963,857.2349658620572
1731655835.350918,853.4014694959668,803.4403652815639,791.8293946125164,860.1698534158904
1731655835.3548143,831.5124665773728,802.8962183113744,795.6365045111286,845.1053243096305
1731655835.3585773,800.6729623017161,802.4647666709249,801.7753730561928,822.4005821315604
1731655835.358711,782.0102918124728,802.28777598183,807.5365742759545,806.6179859760196
1731655835.3596349,787.3413604651694,802.5539244782364,810.283195108985,805.9701529172515
1731655835.361848,810.2900187687226,803.4222812515397,808.9058981804477,817.0165598655788
1731655835.3626077,831.6204161862254,804.8864784611329,804.4219914291882,828.5130063387605
1731655835.366504,834.8225353563836,806.7204796233602,799.341607859567,831.0965365213422
1731655835.3704004,819.5591930885024,808.5524237967505,796.1523691168765,824.9138496437876
1731655835.3742971,801.7903045156911,810.0222239204318,795.8815288729983,818.9425284472828
1731655835.3752246,800.0558291950643,810.9364563668548,797.6990622945756,822.5942130750797
1731655835.3774514,819.2425082882392,811.331779614131,799.7851710939957,836.8524598407703
1731655835.3781936,845.8510485220647,811.4082173802414,800.727863399321,852.8637690203959
1731655835.38209,859.2438474904698,811.387162933311,800.3565372978932,859.5399611176915
1731655835.3859866,849.4551547281594,811.4018952695866,799.466492512827,853.6658675174996
1731655835.389883,826.1744323694569,811.4802651159072,798.8370068451756,843.474956457616
1731655835.3908143,810.9884240821083,811.5925269332475,798.465678292242,842.1408614096817
1731655835.3937795,819.376335714056,811.7044400577489,797.6521787494922,856.4028731673101
1731655835.3963256,847.6686233694226,811.8017810955207,795.7970277156867,879.9397745174526
1731655835.3967378,875.8943469872012,811.8880080573002,793.1940833386469,897.4073658417603
1731655835.397676,884.147626976763,811.9720897238362,791.1071206008601,896.386417482943
1731655835.4015727,868.9131549618231,812.0597922629116,790.9711348932676,877.8144166401759
1731655835.4054692,845.7119983747151,812.151922209318,793.246781264389,856.1553698631768
1731655835.4064045,835.6651688582305,812.2466657146654,796.8048461106647,848.4792455967099
1731655835.4093657,847.2209916428006,812.3422295292107,799.4384295234207,860.8544216491152
1731655835.413262,868.8138716857414,812.4379623277765,799.3106230288092,883.2549468723892
1731655835.4151998,879.1086264028453,812.5341224474744,796.3762634111374,897.5164374129279
1731655835.4171586,866.1427489488033,812.631209067148,792.6858487413791,891.9600256350026
1731655835.4210553,838.6312842956859,812.729523816791,791.1984416913517,870.6091536089716
1731655835.421994,819.3415814492581,812.8291055335058,793.8396292464553,849.537411443205
1731655835.4249516,826.0018796849562,812.9298661366312,800.1776229018371,843.7148628074037
1731655835.4288485,855.9380069160908,813.0317275523648,807.6796444225365,855.3389278727014
1731655835.4316275,887.3499345560465,813.1346726642735,813.3303854911305,872.849300640275
1731655835.4327447,896.1429081747228,813.2387269792446,815.4114201953843,880.7428438611826
1731655835.4340742,874.640821284652,813.3439230445546,814.2425313378999,871.7801875285993
1731655835.4366412,837.3806078542682,813.4502828308845,811.5617625968362,851.8601494339862
1731655835.4375837,809.6816759420282,813.5578222174083,809.1624588172657,834.1823092147752
1731655835.4405377,808.1392065721576,813.6665611528592,807.7454788172072,827.9566618453805
1731655835.4444342,828.3381598940458,813.7765201337188,806.6499157154716,831.1010519746615
1731655835.4483306,849.362555755078,813.8876970613205,804.5485933607862,832.9039417711856
1731655835.452227,851.3660643721967,814.0000429996788,800.6434584572825,824.2618599061339
1731655835.4529483,831.9289461099858,814.1134763391027,795.5710015477287,806.6198306130274
1731655835.4531736,807.8300739137051,814.2279656342461,791.3330672907201,791.6767334704087
1731655835.4561238,800.7885110863556,814.3436492587703,790.1754691444497,791.6988110058662
