timestamps,eeg_1,eeg_2,eeg_3,eeg_4
1731305171.3024664,802.5231333307879,387.41884118028855,624.044416756191,782.4315461549023
1731305171.3180673,808.5057994273135,414.91545322017896,634.2490673250963,784.3224454814915
1731305171.3336685,810.1044041578028,408.59283110879795,645.0882943927421,785.2360279725564
1731305171.3492694,804.3150244778898,355.1733308388923,652.9288374928492,783.9758940646589
1731305171.3510325,790.5912615469643,265.8584196471627,649.5728229075174,779.4223547071539
1731305171.3549347,771.2305342930684,161.73677639579262,626.6824354890139,771.2901076841395
1731305171.3588374,750.765103224849,54.26066225940207,581.6611995883095,760.7415394972237
1731305171.3627398,734.4303015595772,-62.823823339302294,520.2291459779973,750.2300999943132
1731305171.3648703,726.2885554902533,-204.93952852767717,453.44953250281947,742.5204936666058
1731305171.3666422,727.8370710866643,-380.0550092675973,391.6733038072498,739.480909254987
1731305171.370545,737.6915445693647,-576.9199200645039,340.5886837212314,741.3907688450458
1731305171.374447,752.3616069988024,-765.0476875274471,302.4542982366187,747.0556255227165
1731305171.3783495,767.6085613696364,-904.5694618668354,280.33703208205935,754.4252921882911
1731305171.3804717,779.7365201667536,-959.9871798198881,279.9306330285883,761.2266652534737
1731305171.382252,786.4387819586766,-912.845855495013,305.9123925483931,765.4419809019893
1731305171.3861544,787.2008270600088,-769.8419413995869,355.8226087046224,765.8284894646522
1731305171.3900568,783.396057034792,-562.4367903972416,418.027523752969,762.5909095050403
1731305171.3935387,778.0507333628328,-335.08256260308264,477.23965905143467,757.8398560782585
1731305171.3939593,775.1057280874303,-125.88006106269319,523.6748267105035,755.196407052646
1731305171.3960726,778.159225821806,47.83061455887025,557.5283272513287,758.3173533369372
1731305171.3978617,789.0532054251428,186.83888029766342,584.2775805658475,768.9850161674494
1731305171.4017642,806.900435284811,292.7283826749973,605.5400138628468,785.9387266029562
1731305171.4056666,828.0174002098162,354.56752524021806,615.5844349034869,805.2557984913284
1731305171.409569,846.8676536672154,356.9094670605654,608.4441137147068,822.065457230241
1731305171.4116735,857.7868102238347,303.56369693519866,588.8050079432309,832.5438525018766
1731305171.4123847,857.0335163064935,229.82693827159832,573.5986100706871,835.1417564012219
1731305171.4134717,844.522138541902,181.99691713637742,578.788444977116,830.7165515997964
1731305171.417374,824.4745936181421,176.30040224388893,601.5323247735864,821.954970427078
1731305171.4212763,804.3857188659771,176.92069336486543,615.9613114173511,812.5849170890301
1731305171.4251788,792.2932941775375,122.15490666178823,591.0415164634111,806.4742874071327
1731305171.4272745,793.2477106259097,-16.44803707629137,518.5409881605348,806.4387519439325
1731305171.4290812,806.6150890440562,-193.24258917688184,427.1923493613716,812.8960430013477
1731305171.431231,825.8405677731774,-307.0187175153856,368.46344785975936,823.1409970841864
1731305171.4329836,841.2629953055443,-268.8493151651242,382.9097798175212,832.1694459099951
1731305171.436886,844.8755942859539,-64.10788309830247,472.8752161928029,835.1526249096761
1731305171.4407885,834.554386226464,241.8002174900032,602.1143774250271,830.3151293407124
1731305171.4428756,815.2572006663361,553.7207803113874,720.7484499406795,820.2553124359712
1731305171.4446907,796.3043778025486,804.8579106992265,794.9150429058004,810.5064993399502
1731305171.4485934,786.2228002861548,974.8861509883538,820.2512245604387,806.0294172941544
1731305171.4500773,788.2198557256651,1065.218198579358,814.3191811465778,807.9545195824018
1731305171.4524958,798.9860834525622,1070.1425240056262,799.117130622057,812.8969920100842
1731305171.4563982,811.3418720269153,979.1022113488946,788.1230698811069,815.3936636237507
1731305171.4584763,818.7315852663531,804.4831713470668,783.9886332948187,811.7478548146659
1731305171.4603007,818.5489480344108,597.3762622341499,783.4195997186679,802.5657668888958
1731305171.4642031,812.4776839690039,425.48309152189745,782.7284629039927,792.3061773393836
1731305171.4681056,804.4105709528131,329.2075703955393,780.3966992859806,786.3866839747694
1731305171.468923,798.0748056745355,298.30306211703623,776.7980567829396,788.0190539961916
1731305171.472008,796.037401277367,293.2937176606233,772.8898596012,796.794182040813
1731305171.4740777,799.9658724189355,291.2287802010495,769.2834552497087,809.4586051531612
1731305171.4759104,810.7578358052542,310.0069004673435,766.060065110773,821.7880996033188
1731305171.4798129,827.6649848996143,386.0192020015655,763.022617560302,830.1762076265381
1731305171.4837153,847.1913649188274,526.4260525561573,759.9777946913905,832.4344610176704
1731305171.4876175,863.4795866908776,683.9522351356999,756.8548891687157,828.2140217530329
1731305171.4877694,870.9072059901715,782.308894393741,753.6802704005624,819.4294697522807
1731305171.4896786,867.4515124817232,773.1631743518392,750.5057480064413,810.2612291241254
1731305171.4915202,856.1502119331326,675.6610282165811,747.3618814293044,805.8515192616802
1731305171.4954226,843.1357868321087,563.7554706024613,744.2511856074743,809.5604930629481
1731305171.499325,833.5056984334963,510.3288276776565,741.1627298833703,820.1971639869149
1731305171.5032277,828.2572384221659,531.1581035919003,738.0868104048163,831.4845103937062
1731305171.5052795,824.7308897825475,569.7003526735,735.0204870845304,834.9710255130136
1731305171.5066156,819.9838342277149,531.9156166419787,731.9657352236151,825.0980731055621
1731305171.50713,813.9274992574161,346.5681393016755,728.925577279916,803.1294136832344
1731305171.5110323,809.3288832280866,13.4433540069669,725.9017600382972,777.0070434680583
1731305171.5149348,808.7395035889512,-387.0752171381342,722.8945414859882,756.9407303971657
1731305171.5188372,811.3765107039036,-726.2738210362547,719.9035140786159,749.629493413869
1731305171.5208807,813.1470984297124,-882.8528678464468,716.9283657457265,754.9807813814033
1731305171.5227396,810.124585552957,-793.3258935391748,713.9691590746565,767.2475877391926
1731305171.5254617,802.4482928510837,-472.7627704719817,711.0262513244626,779.2471045126185
1731305171.526642,794.9405842476442,0.9004276145318499,708.1001040204815,786.3813936842674
1731305171.5305443,793.4737223095783,524.560433343893,705.1911003935289,787.9495823913562
1731305171.534447,799.9235036976443,1004.5098397755326,702.2993746888756,785.7738452997876
1731305171.5364816,810.0185805823758,1371.1909067058489,699.4247033083765,782.1418867694089
1731305171.5383492,816.1418190347584,1578.168723236476,696.5666423562983,778.9355360794635
1731305171.5397704,813.0452332508374,1602.6259540494905,693.7250853092835,778.0574566680386
1731305171.5422516,801.9991790033891,1456.4163513044405,690.9010487681725,781.7739994071627
1731305171.544308,790.1472585215005,1195.0861696647466,688.0968755814224,791.7873069826785
1731305171.546154,785.6433654499464,902.5932605911423,685.3147838879256,807.4209574280891
1731305171.5500565,792.298800780979,647.9146917474787,682.5536618043169,824.6241272903005
1731305171.5520828,807.5040429053585,442.3420227763176,679.806429047492,837.2198729921677
1731305171.553959,824.3819347760925,238.4806492164099,677.0625508295136,840.0953323127145
1731305171.557861,836.0054759721311,-16.407061698223345,674.3188883985973,832.3180174358525
1731305171.5617638,838.5490322778074,-309.6487091713754,671.5941798469427,817.9276244213318
1731305171.563154,831.8275322242723,-537.0187529927352,668.9309334499752,803.6463577051944
1731305171.5656662,818.0516442088037,-554.6425878205089,666.3653327558691,794.8656065371874
1731305171.5676837,800.6337648077665,-278.86825201862456,663.8666210032015,792.4659182418536
1731305171.5695686,783.8953541290995,240.49062068420972,661.2940659136118,792.4989213839486
1731305171.5734713,772.8562293637333,832.4484317484735,658.4588380116173,788.920628567352
1731305171.5744596,771.7968554675274,1296.321386665969,655.3444903325556,777.6575521323477
1731305171.5773735,781.5885108774387,1506.088953308782,652.3896669668409,759.498448798525
1731305171.581276,797.6495091982819,1457.0001849983873,650.546908404233,740.0573156247683
1731305171.5820005,810.8638896546212,1235.3984195271305,650.8651535751858,726.8370795779781
1731305171.5832849,812.0548413470442,951.8788369291653,653.7998706228141,725.1545167814681
1731305171.5851784,797.7817222621768,693.4771237851662,658.896878395707,735.3378144947775
1731305171.5890808,773.6044760347343,515.8085465616986,665.1772110935707,752.7942216969113
1731305171.5929832,752.0787180221746,451.4584592182737,671.7738472637874,770.7715100474816
1731305171.5968857,746.0813923289012,502.11483091345485,678.2324463883532,784.0208672487896
1731305171.5988858,761.3129417027016,614.6079997498817,684.4393041628931,791.1371597560388
1731305171.600788,792.6100522813728,676.7822653015974,690.4713100332041,794.3475875022964
1731305171.6008463,826.402936913446,565.2772378940666,696.4977671026355,797.2253415317062
1731305171.6046906,847.8351156932471,230.94965951065984,702.6757631773635,802.0545231933917
1731305171.608593,848.311867229808,-238.96484882349108,709.039184509922,808.575484208339
1731305171.6091485,829.2719133942778,-641.5124161454023,715.4866955468507,814.707619956897
1731305171.6124954,800.5285182066642,-764.3461516440259,721.9012951088113,818.4512063126944
1731305171.6144867,774.7512346957395,-512.270527579549,728.2729387399428,819.4789363704331
1731305171.616398,761.5241556622423,33.19503713536977,734.6850917231164,819.3311324846494
1731305171.6196926,764.0231638120382,662.7006696165623,741.1957230485477,820.2236235204552
1731305171.6203003,779.3214405072912,1160.2199307183835,747.7726456027552,823.4246925321429
1731305171.6242027,801.16225483546,1412.527593821644,754.3631678016168,828.3166199295539
1731305171.6281052,823.0506060739507,1440.4667368202524,760.9930138878882,832.6317266015626
1731305171.630088,840.0626608323846,1348.6618582003418,767.7404746372641,833.5244394558589
1731305171.6320076,849.1649816820423,1245.22634757953,774.5923441382431,828.7562523525302
1731305171.63591,848.9369969559214,1188.9942070326024,781.3695033754767,817.5032887566715
1731305171.6385386,839.6409007464259,1184.085309458897,787.8797906306348,800.7514384534719
1731305171.6398125,823.7126587955738,1200.652910339182,794.2099919356082,781.3955487265293
1731305171.643715,805.8301145881439,1191.8845916298194,800.8493861831009,763.9088003385925
1731305171.6438377,791.6616307995484,1100.1276265009658,808.3886973053502,753.2382286874125
1731305171.6456888,785.3926957231977,868.5604184488822,816.8750620282822,752.9034023615625
1731305171.647617,787.3934145742769,471.8820072062615,825.3043191696503,763.0504858336536
1731305171.6515198,793.7705197034156,-46.43960617097849,831.8903374874749,779.7323503049422
1731305171.6554222,798.4979638118132,-562.7452859286307,835.4146315319267,796.2517282382025
1731305171.6573849,796.9890801607394,-909.9943337709706,837.0794447674172,806.1083774799716
1731305171.6593246,788.7874407439747,-950.8523089934713,841.2761023704525,805.8912643531784
1731305171.66129,777.5508278786883,-645.841800064532,853.5141076162656,796.3932695276218
1731305171.663227,768.3986235953472,-76.22753369980813,875.3788726565887,781.4530527068042
1731305171.6671295,764.5457484178365,589.5861619812453,899.4461325454657,765.5962252871543
1731305171.671032,765.5338023970968,1164.6883159927577,909.230630736231,752.193510655054
1731305171.6749344,768.062592872772,1512.5770624532463,887.4787673556943,743.1091376486595
1731305171.676231,768.5303118421767,1589.9929530363722,829.8727138079591,739.4100430230026
1731305171.6768909,765.3735207840214,1452.8939895455037,754.4947602285199,741.9034101027345
1731305171.6785266,759.7766935752915,1225.613374161939,696.7817210510111,750.7174676813024
1731305171.6788368,754.6779207377232,1041.3688113793874,688.536662894372,764.3270138612925
1731305171.6827393,753.0588524039489,975.2080001238187,733.1369306498593,779.1901439029716
1731305171.6866417,756.5865966636243,1004.0925400878602,796.2880818499821,790.7769523239747
1731305171.690544,765.0363576651507,1025.4053096254756,823.8740938468102,795.5839158330273
1731305171.692492,776.340617410617,933.0521795906479,778.5712773693451,792.8136346425954
1731305171.6944466,787.0558183625714,705.1286054130067,669.7284652489284,784.569119676347
1731305171.6950772,793.2934415463616,436.9038598765684,552.1639586388136,774.5032974633876
1731305171.698349,792.1729091552542,284.6327636883967,491.16509815974234,765.9300546502448
1731305171.7022514,783.3944821144858,353.50109042285175,517.5550230470108,760.5817186804958
1731305171.706154,770.007144638294,613.1597706626967,606.3186542820297,758.4866696868781
1731305171.7080927,757.5230443471887,909.8454230312572,695.3835629184962,758.6247387323638
1731305171.7100563,751.4378877527544,1070.2206314287853,730.1038784128189,759.7537354714299
1731305171.7132158,754.4090312013006,1017.8188549852728,698.9942583677965,760.9887142202107
1731305171.7139232,764.8577992740816,812.3665077622188,634.1799602113069,761.9790849417452
1731305171.7139587,778.0286012730083,586.581781144116,579.4370773446692,762.7567939511215
1731305171.7178612,788.9382557780709,439.81365920670663,554.7480448817549,763.476732732099
1731305171.7217636,795.3204194907601,379.34162393598723,546.9703538567023,764.2428660596217
1731305171.7236938,798.6379513898876,351.4329102176346,531.5577380019433,765.0700415567073
1731305171.725666,802.5794558470581,320.6008320295166,502.45743914746225,765.9247942296205
1731305171.7295685,810.2014455019778,313.8353125718271,481.04266011785825,766.7735730554393
1731305171.7327695,821.7408926782145,384.87342061739247,495.4321479860629,767.6036874986113
1731305171.733471,834.5098163141472,535.1964665235378,549.8384748610354,768.4193308897715
1731305171.7373734,844.7291567651469,675.4926810431843,613.694052307862,769.2293403829235
1731305171.739295,849.8627059750922,677.4008812884672,642.8338862347662,770.039041494777
1731305171.7412758,849.8736903109874,480.0300281570318,615.7418226164347,770.8489403172508
1731305171.7451782,846.7925169711949,158.41856673290232,553.3918083287709,771.6571749400746
1731305171.747905,843.199463372406,-112.66412847397766,504.7612118155014,772.4620505494985
1731305171.749081,840.7934501437253,-177.27988246881768,509.58891584226126,773.2630263658565
1731305171.7516155,839.876754725647,-4.827278313415775,569.1731832315788,774.0604204334351
1731305171.752983,839.7823426231411,300.0664668228832,648.3415068555731,774.854747705786
1731305171.754896,839.6746618765189,585.964606277447,704.754428351537,775.6463139711383
1731305171.7568855,839.1126316192934,761.8679547162867,719.6208737488765,776.435173327151
1731305171.760788,838.132728352904,835.7304901103587,705.3509290862623,777.2212684701209
1731305171.7646904,837.0045640430534,864.9962571480661,687.5769309369681,778.0045621669626
1731305171.7685928,835.9557888038559,878.9455452810779,680.6444443705462,778.7850832814504
1731305171.7704618,835.0539612681928,850.4232216877067,678.3928573898552,779.5629075818988
1731305171.770497,834.2458101595496,739.0990537461106,665.5077566766431,780.3381218147916
1731305171.7724953,833.4510047791509,556.1136359953248,635.7014555834694,781.1108010628875
1731305171.7763977,832.6231932885682,379.9246153803295,598.7076013957454,781.8810038290968
1731305171.7803,831.758572650107,302.1609905032478,570.7096139442748,782.6487783471714
1731305171.782594,830.8766953204005,351.2490062340593,558.9547802796864,783.4141756787592
1731305171.7842026,829.9996216761693,464.38201207775256,555.7295242432772,784.1772672921732
1731305171.786098,829.1392560569212,534.7066299928465,546.6843245721602,784.9381580411289
1731305171.788105,828.2937252083295,492.9745463875456,524.5742865049896,785.6969746594114
1731305171.7893078,827.4525191824887,354.33362881602966,495.12324051279506,786.4538135188367
1731305171.7920074,826.6068660144088,195.2310231199569,470.132278854914,787.2086668991919
1731305171.79591,825.7568816909419,87.55079073178598,455.2451571007032,787.9614044513969
1731305171.7998123,824.9092153840537,49.55289886713848,444.31272535797973,788.7119094792105
1731305171.8016992,824.0687012280849,50.42941859784122,425.6134706341213,789.4603776478747
1731305171.8037148,823.23370901411,54.17566000005934,394.27980289546866,790.2075597786254
1731305171.8076172,822.3996516052049,57.86400535206462,360.0845394793752,790.9545216873724
1731305171.808154,821.5651844304745,92.75526553061547,343.98224553477087,791.7016292175857
1731305171.8115196,820.733353558183,194.13029797817632,365.74979699671024,792.4472053825282
1731305171.815422,819.9071801466142,369.4394693998483,431.1038482480377,793.1873751028673
1731305171.8172832,819.0859344481671,587.1528274316124,526.1177995577241,793.9188940520924
1731305171.8173,818.2665602975524,786.2726284615925,621.670655090632,794.6447941058599
1731305171.8193245,817.4477999023067,894.8371370463824,685.3231198521501,795.3783328577862
1731305171.8232267,816.6316316486594,851.7345336755357,695.0134891943626,796.1371267408313
1731305171.827,815.820603235202,633.4837581434848,648.5201649938329,796.9225768630553
1731305171.8271294,815.0147659951278,280.3748821239951,564.3349352851649,797.6937630081361
1731305171.8310318,814.211934177086,-98.93776510437402,473.24342494554264,798.3626545855614
1731305171.832901,813.4105798299418,-365.12243635859267,404.5453201887349,798.8343016056377
1731305171.8349342,812.6116260908243,-421.10465699466596,373.9792046663392,799.0727670094141
1731305171.838837,811.8171449181971,-276.7108908086404,379.5424049804982,799.1305160730008
1731305171.842739,811.0278541035443,-52.698996019582864,406.56777401361643,799.1072199309041
1731305171.8458464,810.2424899791254,91.30022831465385,437.8616812755173,799.0812745753549
1731305171.8466415,809.4595478340963,61.61502441784427,462.3521567778566,799.0790916074808
1731305171.8485022,808.6790670665636,-106.70207027366558,477.8886580515951,799.0932230871557
1731305171.850544,807.9024251860217,-277.1348068208959,488.3892270276008,799.1124820877147
1731305171.851972,807.1306776210837,-309.5680606899352,498.8653442958798,799.1334262235448
1731305171.8544464,806.3634944124744,-155.9156126649729,511.9896314778629,799.1549404370493
1731305171.8583488,805.5997181642216,114.63911027996221,527.600889557542,799.1737691820427
1731305171.8622513,804.838689294728,371.3546250305142,544.1608221789187,799.1885415724064
1731305171.8641033,804.0809074798262,508.33474119188133,560.3551743173707,799.2040028987496
1731305171.8646924,803.3274925263679,496.7827329987442,575.753883341838,799.2270194779205
1731305171.8661537,802.57904837566,376.2465379428538,590.5824497261757,799.2586080908242
1731305171.8700562,801.8350137283746,209.5172654735443,605.2246500648665,799.2927291882771
1731305171.8739586,801.0941977790419,45.392371552795794,619.9336258575936,799.3239882109182
1731305171.877861,800.3561125380326,-89.26886623035085,634.8290909999854,799.354569102554
1731305171.8797042,799.6217074933451,-181.7379789992105,650.0112428256979,799.391530160743
1731305171.8817637,798.8924539094571,-233.45395823818723,665.5862011432025,799.4379839329539
1731305171.8835387,798.1685718042218,-270.1482182083743,681.4768546741913,799.489500117218
1731305171.885666,797.4485526844323,-340.01062138252763,697.0835488820366,799.5402375625674
1731305171.8866613,796.7308995930468,-482.1706444536696,711.1487051961622,799.5907597714872
1731305171.8895683,796.0161653208165,-680.4664177464258,722.239902268458,799.6474377906085
1731305171.8934708,795.3065502124113,-844.6986331122605,729.6945100524215,799.7143353702979
1731305171.8953052,794.6031705264082,-849.9029949910871,734.1534762546262,799.7881855207404
1731305171.8973732,793.9043773334679,-616.9008065414232,737.0909883261969,799.8629425832543
1731305171.9012756,793.2076493096146,-175.61923757758,739.8369242193929,799.9378941072665
1731305171.9023848,792.5130257884631,342.1269471046613,742.9971578607662,800.018747686154
1731305171.905178,791.8235393022132,780.6948336893286,746.5428577384635,800.1103460314774
1731305171.9090805,791.1415213958724,1052.8126644864612,750.2084239936448,800.2105670279418
1731305171.910906,790.4651892016719,1177.9669418052044,753.7984343174122,800.3133301173176
1731305171.9129827,789.7902270770043,1243.5499805470904,757.2718137332392,800.416713108329
1731305171.9168851,789.1150334557273,1326.5704731848753,760.6802983315225,800.5255869179821
1731305171.9207876,788.4433620183493,1439.3641079146682,764.083579214519,800.6454002753915
1731305171.921231,787.78089023181,1534.3234850282304,767.5077231054172,800.7752574638704
1731305171.9213505,787.1294363499113,1550.0125748515131,770.9482652835039,800.9092715244371
1731305171.92469,786.4848757611805,1452.1514139122623,774.3905997832869,801.0443766250336
1731305171.9265072,785.8398299396686,1239.5375361474948,777.8250709293251,801.1844229769127
1731305171.9285924,785.1876715485823,925.2138718914936,781.2503574899475,801.3352475711234
1731305171.9324949,784.5265277129376,525.9152374642065,784.6697104058612,801.4971542761033
1731305171.9363973,783.8651153024499,77.59668305910247,788.0864756487449,801.6646314751654
1731305171.9400773,783.2269561450239,-340.2472489565428,791.5021194345251,801.8337397356997
1731305171.9402995,782.6401983240362,-606.8146925807041,794.9165717440724,802.0075197429865
1731305171.9421082,782.1056621722644,-605.7384586671344,798.329339637917,802.1921535211136
1731305171.9442022,781.5640282285509,-292.4843465513463,801.7402123875893,802.3886360525834
1731305171.9481046,780.909400951199,262.5088123083454,805.1492968439886,802.5909307372804
1731305171.9520073,780.0778553635805,888.8262491172236,808.5567428650215,802.7936536388125
1731305171.9559095,779.1648701764153,1385.3887151496544,811.9626318135312,802.9999724604147
1731305171.9560394,778.4511622859725,1606.9229872112917,815.3672380100461,803.2192764644338
1731305171.9577093,778.2360541754446,1523.5447247639331,818.7714333918027,803.4560882480736
1731305171.958923,778.5301765033964,1227.4614034749434,822.1766320297897,803.7024766433102
1731305171.959812,778.8525739542488,886.8942669745272,825.5837275067589,803.9434974219517
1731305171.9637144,778.4205600741691,667.6432487331772,828.9913059423434,804.172501685156
1731305171.9676168,776.785665614698,654.4524287896519,832.3948383872303,804.403333497145
1731305171.9715192,774.5594346152369,807.9693813507882,835.7893476568265,804.665971577786
1731305171.9733102,773.6194116514606,983.8190544238489,839.1762706019658,804.979465973863
1731305171.9754217,776.3961796383102,1012.8564323575222,842.5700870951036,805.3117920276492
1731305171.9777694,784.4805213421155,804.0526605802061,845.9947596981023,805.5600969950516
1731305171.979324,797.402726517644,408.55358295600524,849.4616430387352,805.5905919635679
1731305171.9832263,812.4822125321308,-0.6647146341012444,852.9363991219284,805.3269548149729
1731305171.987129,825.9868201889178,-226.4768547347016,856.3284332045952,804.8078001089162
1731305171.9889114,834.933426414949,-161.04261887328977,859.5480828222007,804.1531420092088
1731305171.9907286,838.4102471249225,159.69110451121566,862.6383013895131,803.4788268834304
1731305171.9910314,837.6601896009739,592.7162897653669,865.8882285510292,802.8410895207226
1731305171.9949338,835.0329934839824,981.738356171154,869.7395252142569,802.2401263848416
1731305171.9966156,832.6110201723245,1236.5617199833791,874.3467361793919,801.6534457384789
1731305171.9988365,831.3614245558749,1348.1263911483475,878.9718562469328,801.0633376426027
1731305172.0027387,831.1443900434008,1348.245009523783,881.8733468530986,800.4653543242348
1731305172.0045123,831.296780096927,1266.0031663773834,881.5070477720113,799.8635577380905
1731305172.0066411,831.2523624077645,1122.4532902889373,879.0341240721548,799.263123047636
1731305172.0105436,830.8283709713804,955.607727431694,880.2260073098441,798.6664513660314
1731305172.014446,830.1540959863898,830.5337463707269,893.2031206103906,798.0732276088636
1731305172.0154617,829.4461491211529,803.7847244869508,919.786100130952,797.482140409418
1731305172.0183485,828.8384095667706,864.6430732141254,944.6147448537672,796.8922425060259
1731305172.0201132,828.3434319450428,913.4213439091803,934.1210293810411,796.3033068197528
1731305172.022251,827.9038204988296,816.1947996771326,855.5373386392173,795.7155286590412
1731305172.0254178,827.4589618422592,508.33493508650537,707.7643244618962,795.1291334822143
1731305172.026153,826.9821562787296,66.41811142889327,537.2324995808314,794.5441896862163
1731305172.0300558,826.4820163944764,-317.69306793075606,418.197949806663,793.9606263616669
1731305172.0339582,825.9824287441405,-451.67940394975227,407.0785109414584,793.3783266250412
1731305172.034308,825.4999780391465,-264.4771358900554,504.89317000967964,792.7971928196829
1731305172.0357144,825.0340466473687,154.23909251910294,656.8843180409833,792.2171579637537
1731305172.0378606,824.5738331123068,620.1285739576158,788.8929916118294,791.6381706236994
1731305172.0417633,824.1123669961768,967.5141394020791,851.8982282128504,791.060186920561
1731305172.0456655,823.6524092949157,1123.5969373047997,842.5294526984518,790.483179140088
1731305172.049568,823.1996806180179,1102.2707341982166,789.5949784341705,789.9071409824553
1731305172.0513153,822.753927982244,948.759993586863,724.2354722104883,789.3320586907475
1731305172.053154,822.3097349378728,699.5804459696288,660.7289333356806,788.7578424669459
1731305172.0534704,821.8651130021327,390.73079678995185,600.2626126355032,788.1842714346471
1731305172.0573728,821.4252335521402,87.46608231141937,546.748589556062,787.6110562005739
1731305172.0601068,820.9955463086787,-117.0300061777977,513.8963146696021,787.038086340813
1731305172.0612752,820.5735151156548,-153.24770485154016,514.3067598475251,786.4657476339715
1731305172.0651777,820.1505994351596,-37.49691279699368,541.8732590634108,785.8949389125262
1731305172.0669165,819.7225137302848,118.87459833530505,567.7797927454505,785.3263647406869
1731305172.06908,819.2948176917304,177.53165510845014,558.8018572418498,784.7591715435999
1731305172.0720005,818.8772276762054,73.84059234930794,505.09881201117304,784.190039348831
1731305172.0729823,818.4742479892014,-129.6435301057274,433.4880603038954,783.6146542526623
1731305172.076885,818.0822064997293,-283.4770520040541,392.33470153563167,783.0325793794053
1731305172.0807874,817.6919802315376,-257.152405279858,417.431551090128,782.4529516343446
1731305172.0825174,817.2907800472888,-29.882017213903964,504.6282975187752,781.8938181314279
1731305172.08469,816.8651329119514,300.3062829864473,610.5518531250167,781.3676390459448
1731305172.0885923,816.4146478987666,589.9408409299879,681.3560707126641,780.8556784061874
1731305172.0908463,815.9721784373145,745.540491010333,688.5423048793762,780.2937633490296
1731305172.0924947,815.60127766359,771.9065172442439,646.504069661107,779.6051727788653
1731305172.094796,815.3451524393696,747.6360181431548,600.5894916670898,778.7952981522636
1731305172.0963972,815.1512284177941,756.8460761925236,595.2613258234975,778.0522082016091
1731305172.0981183,814.8507199430347,829.4339157347127,644.2997843054821,777.7141336100715
1731305172.1002996,814.2594722368646,924.9741267275454,721.8723579156149,777.9726793093126
1731305172.104202,813.3609975063213,960.8611992576766,778.8315698809981,778.3867160988287
1731305172.1081045,812.4147985489263,861.7960528716114,773.0986169433252,777.6442510378101
1731305172.1096926,811.8353444509592,604.4520274608625,695.4327228307484,774.1913683781719
1731305172.112007,811.8623056970868,238.9498329379352,575.4927048916625,767.7917931541213
1731305172.1137197,812.2712799619794,-122.49811415559708,465.0540043077606,760.7763321899037
1731305172.115909,812.4280549263791,-349.4720541094271,408.80208145794467,757.2268907226701
1731305172.1198118,811.7396407721675,-354.25587213113914,420.61096301299347,760.1494746763395
1731305172.1237142,810.1578834643306,-139.1664746494145,479.73458747214204,769.086846838997
1731305172.1276166,808.2505095086568,200.30233642318123,548.2462715469212,780.3350121990096
1731305172.1285386,806.7393389601762,523.5625184289158,596.5729086308052,789.3215010863681
1731305172.1293204,805.9648385244993,716.9925916016751,618.6009204264086,793.0278464353714
1731305172.129485,805.7706630604945,745.1595343268289,626.4504320968882,790.941145123139
1731305172.1315193,805.7875478596185,652.0915664929223,631.6857660879439,784.5588451202641
1731305172.1354215,805.7436247307674,519.7236236094252,631.0254902938551,776.3522960161976
1731305172.139324,805.5651383611423,416.8439075012863,610.3705270634024,768.9157254685936
1731305172.1432264,805.3051135693659,370.2737974585384,563.862322000677,764.3997432085697
1731305172.1449215,805.036457654005,368.3744601372541,509.35647126385015,764.0074143474159
1731305172.1471288,804.7945586677158,384.279144785564,482.63625543006344,767.5216524494799
1731305172.147385,804.5763711555725,397.57719107041845,510.7829874198484,773.166619923764
1731305172.1510313,804.3641404201031,401.86288520287064,585.3899438404727,778.1266530110853
1731305172.1549337,804.1448243251953,400.2575481671269,660.1568980320053,779.669083682347
1731305172.158836,803.9155080370913,397.866240888759,679.377638515278,776.3656958373487
1731305172.1605225,803.6794076481646,397.4046138883868,617.810163148814,768.7747693153322
1731305172.1627386,803.4403234263772,398.8475196743268,500.7128370916822,759.2426097803034
1731305172.164174,803.1998917503819,401.0019975590989,386.87257249725565,750.9773221831475
1731305172.166231,802.9577568665555,402.91680023547883,326.8947310650442,746.890937535798
1731305172.166641,802.7128902951156,404.33842600030135,329.5075223444818,748.713737386676
1731305172.1705434,802.4645791219754,405.471554025869,362.3450721701086,756.6305059893648
1731305172.174446,802.2126544865455,406.589917049565,385.16891138187503,769.3917371842507
1731305172.1761236,801.9572507956744,407.8259412085598,386.5810957865544,784.6954893388013
1731305172.1783483,801.6985138037572,409.1686358322949,392.9455033956327,799.6591703876077
1731305172.1822507,801.4364692349716,410.55230322483646,442.58818770861984,811.322445721968
1731305172.1850772,801.1710425137419,411.9288531687011,548.4274785548993,817.2159357777092
1731305172.1861532,800.9021309355287,413.2878850384645,681.9619073257162,816.0040283113466
1731305172.1900556,800.62965297972,414.6417714692111,792.6828206261922,808.0622888422031
1731305172.1917243,800.353556907837,416.0050197359703,846.1711281869483,795.6875318455828
1731305172.193958,800.0738071172675,417.3840693128782,848.340674769421,782.6328400564059
1731305172.1978605,799.7903708834192,418.7779482874388,835.9377810626089,772.9233056851758
1731305172.1988633,799.5032148214262,420.18318354608436,842.8125287948923,769.3561900294294
1731305172.201763,799.2123068653245,421.59746857807875,871.6294222381368,772.4219597330662
1731305172.2039232,798.9176148612321,423.020508420091,894.4592817737847,780.2782997544077
1731305172.205665,798.6190982044485,424.453134977159,879.6119360756596,789.8227576018219
1731305172.2073257,798.3167003408639,425.8962466499637,819.7325160840936,798.2083291227482
1731305172.2095678,798.0103586571904,427.3503357954911,736.8661237076903,803.8793406078435
1731305172.2134702,797.700042007234,428.8155306734756,662.058460731397,806.6310724103937
1731305172.217373,797.3857973661071,430.2917677310207,609.7020979479646,806.9871776662553
1731305172.221275,797.0677487864104,431.77886896324753,570.1696864016681,805.6530827312324
1731305172.2227695,796.7459863202456,433.27659919381716,526.308991597486,803.5121894741703
1731305172.2229266,796.4203604784419,434.78490887279946,477.157732040317,801.8742166939215
1731305172.2251775,796.0903560659001,436.3043747486685,445.82971322609114,802.2562992281416
1731305172.22908,795.7553344202474,437.8364205226912,463.0691408721691,805.4092797685629
1731305172.2329824,795.4152808439619,439.3826214662705,539.8852393502516,810.2576092605012
1731305172.2335522,795.0716411746649,440.9428385566978,652.5744973025155,813.9179313957745
1731305172.2368848,794.7271505611664,442.513337198865,753.3097309528498,813.3094878040312
1731305172.2385275,794.383569405671,444.08762267275534,798.8005973912641,807.4583835394194
1731305172.2407873,794.0378504877436,445.66239814103335,775.8668059286922,798.6860875880438
1731305172.2416155,793.6802555479705,447.2467858204932,706.3974778235234,791.4605642333086
1731305172.2446897,793.2998298603062,448.8657362603631,630.494635170536,789.4906772297453
1731305172.248592,792.8992971820003,450.54496719014975,581.6938441216059,793.1909954891529
1731305172.2524946,792.511018944312,452.2748583984523,571.0983108762231,799.5261709429276
1731305172.2541287,792.1946909504512,453.97798489359,588.0919308770068,804.4159074656552
1731305172.256397,792.0034716654515,455.53265777203774,612.949265304498,805.8042560607045
1731305172.2602994,791.938426166426,456.89361126599925,630.4347425037149,804.9285083160562
1731305172.2604618,791.938120417689,458.2665316603706,636.0800696586283,804.7928594618394
1731305172.264202,791.921203354342,460.16419847373334,634.0219948679555,807.1693057739184
1731305172.2681043,791.8412138644402,463.13652525112695,630.8525959087505,810.6890012722681
1731305172.2682414,791.7040850928487,467.20501786930043,630.7107818468093,811.7121720383358
1731305172.2697296,791.5444694455298,471.4691113986061,634.0042268595707,807.3820990189232
1731305172.2720068,791.3917437423894,474.4407191624824,638.9246344262033,798.43277482738
1731305172.2759087,791.2521898377889,475.0181524358814,643.5744094245207,789.4059014356794
1731305172.2793078,791.1128631199613,473.2772516413542,647.1415926615954,785.8707784010817
1731305172.2798114,790.9571736827126,470.3895113237769,649.8695791208145,790.522494919034
1731305172.2837138,790.7780005056769,467.7947222443675,652.4120289158363,800.932287330729
1731305172.2853308,790.5797082690729,466.3176580131138,655.2429128264431,810.6020625553169
1731305172.2876165,790.3706863293573,465.8348878048857,658.4436835291409,812.6944143988328
1731305172.2915187,790.1550602297733,465.6317363117383,661.8287482095105,804.0163405989271
1731305172.2954211,789.9306479252946,465.09378505093287,665.1915735368398,786.7445973529595
1731305172.298154,789.6928733945529,464.15607549131465,668.4633714567613,766.9620404969404
1731305172.2993236,789.4393166596997,463.18213503087543,671.7047926586545,751.1593673070447
1731305172.3009317,789.1710745778357,462.4889513777903,674.9972244625891,743.0187644060456
1731305172.3029304,788.8914723049613,462.0471250177148,678.3607020831884,742.3409828624582
1731305172.303226,788.6041947072566,461.62928666045127,681.76448646841,746.3652323767286
1731305172.3071284,788.3111380037702,461.14936276193004,685.1879740489687,752.1703812199288
1731305172.3110309,788.009466524468,460.75327462789824,688.6484035168062,758.3881788394882
1731305172.3149333,787.6898493631983,460.58303921132045,692.1702404278877,765.2700189014173
1731305172.3165326,787.3404694344467,460.561729751268,695.7476026829071,773.476849892531
1731305172.3170002,786.9589088959946,460.4952683357834,699.3525752864722,782.787342703931
1731305172.3188355,786.5652752607365,460.3487680944032,702.9758933384275,791.7381527606409
1731305172.3227382,786.2009542531373,460.31935933998443,706.6430177123041,798.3376514405317
1731305172.3266406,785.8993155057148,460.59940765635395,710.3831125286598,801.2002301919607
1731305172.330543,785.6360578935204,461.1303215606789,714.1921621252816,800.2865229776601
1731305172.3321338,785.3006342939955,461.64891935924436,718.0394609226604,796.8566163636264
1731305172.3344457,784.7456748608935,461.9443346838892,721.9092852929963,792.7813533950546
1731305172.3358464,783.9297965158022,462.0046314512431,725.8230761928218,789.6476535657995
1731305172.3376195,783.0682934731594,461.9313900321796,729.8130003977515,788.1325081314391
1731305172.338348,782.6185287322675,461.79946200950315,733.8814078055077,787.9658634506271
1731305172.3422503,782.9721509293105,461.6269092367237,737.998877611429,788.41868058131
1731305172.3461528,783.9586146080087,461.41952315941154,742.1428828459373,788.8769506389307
1731305172.3477347,784.5558940178626,461.1957616373786,746.3267199044617,789.10163486306
1731305172.3500552,783.268918338434,460.9777790722458,750.5828729995832,789.1453478520011
1731305172.3539577,779.2572437226628,460.77861495178144,754.9255620758212,789.1470699143111
1731305172.3546925,773.6057647008693,460.6002187435975,759.3415697350233,789.1940928004014
1731305172.35786,769.6672412503143,460.4388237072246,763.8142451039365,789.2963255816796
1731305172.3617623,771.7263150867691,460.2905953352766,768.3366180736498,789.4240402336968
1731305172.3633358,782.3730375779064,460.15402243914485,772.8904654803355,789.5490046827484
1731305172.365665,800.1879608354385,460.02946413060295,777.4366695558329,789.6612744162833
1731305172.3695674,819.5696065488104,459.91777363441247,781.9751177703749,789.7649982770015
1731305172.3723087,833.3110943064037,459.81939044334877,786.6376776422586,789.8678144978825
1731305172.3734698,836.5670535655534,459.73420271801655,791.664353763483,789.974114133889
1731305172.3735387,829.6389280162405,459.66182726412853,797.1415183527367,790.0841752105803
1731305172.3773725,817.6316755501094,459.6018942113636,802.6139930597365,790.196361226725
1731305172.3789368,807.177607652851,459.5541558730746,806.9600444656896,790.3092629319145
1731305172.3812747,802.4968269775948,459.51845201837637,808.8775723660895,790.4224765835146
1731305172.3851771,803.463377941028,459.4946351228844,807.7544839871335,790.5363083376532
1731305172.3890796,806.7702591378635,459.4825251191217,804.1255244930095,790.6512009167004
1731305172.3923848,808.9909629609061,459.4819050881624,799.2432525365598,790.7674010124688
1731305172.392982,809.099875835545,459.4925372124795,794.2314085118185,790.8849434489127
1731305172.394538,808.7050682706727,459.5141774302489,789.5950430469952,791.0037872554074
1731305172.3968844,810.1769917453943,459.5465803562136,785.3027504414927,791.12393025036
1731305172.4007869,814.4247809771804,459.5894969934869,781.126718260232,791.2454258294443
1731305172.4046893,820.0975670261425,459.6426709091826,776.9016932032246,791.368319537707
1731305172.4069977,824.6184569630309,459.7058362735771,772.593973186539,791.4925783778345
1731305172.4085915,825.9462661247098,459.77871787232834,768.2478097619868,791.6181023173282
1731305172.4101388,823.5591351497152,459.8610315554482,763.9133147191679,791.7448698738223
1731305172.411231,818.0835819464448,459.95248397298917,759.6116926253138,791.8731530099273
1731305172.4124942,810.3152964281027,460.0527719621946,755.3383154061127,792.0035733000333
1731305172.4163966,800.864318952354,460.1615832430998,751.0801657905916,792.1367143558527
1731305172.4202993,790.8757338744672,460.2785997611264,746.8285662187138,792.2722743215033
1731305172.4242015,782.9755756890402,460.4035023224881,742.5819313020597,792.4083844982601
1731305172.4257398,781.0375964646562,460.5359712610056,738.3425132405182,792.5423044314261
1731305172.428104,788.2079017904476,460.6756767487872,734.1125974498773,792.67330667431
1731305172.4300773,804.2584845989592,460.82225911571936,729.8928360037963,792.8064607036139
1731305172.4320064,824.3598723206577,460.97531465640424,725.6825396554559,792.9530075882119
1731305172.4359088,840.7356888323608,461.1344149742809,721.4806334962798,793.1222581488425
1731305172.4398112,846.6647419196436,461.29917633965147,717.2863127869813,793.3055466379188
1731305172.4413407,840.3968996349859,461.46934466428297,713.099173080535,793.4650228887544
1731305172.4416869,826.2873453443799,461.6447933597649,708.9190295789867,793.5499785633564
1731305172.4437137,812.1968613784867,461.8253217200128,704.7456794039653,793.5534513104327
1731305172.447616,804.7776522858067,462.01028241132667,700.5787281815302,793.5801052050261
1731305172.448923,805.7801166669268,462.1983530067132,696.4175258049378,793.8412178789061
1731305172.4515183,811.8083077237163,462.3879748858358,692.2612782322578,794.4859798689033
1731305172.455421,817.4937916177312,462.57870688516175,688.1093944629939,795.2929433804869
1731305172.4569418,819.6483965518876,462.77273948564977,683.9619407308103,795.4715241681015
1731305172.4593234,819.373881376989,462.9745814702675,679.8197412268576,793.9677443395378
1731305172.4632258,820.7494181810353,463.18695041920057,675.6835288663791,790.37450272062
1731305172.4671285,827.2998524230592,463.4038054156792,671.5521113506758,785.7559388629115
1731305172.4677694,839.0044475913073,463.60685947602815,667.4208972084234,782.316527837409
1731305172.4710307,852.0251435660755,463.7752577044872,663.2833942114064,781.8635336602724
1731305172.472543,861.1862503114904,463.91181707753344,659.1374454554103,784.4464746139863
1731305172.4749331,863.2502785666163,464.0696530617836,654.9934266511823,788.4381694042144
1731305172.4763758,858.6705731958191,464.3409996351054,650.8750934671654,791.8198856993458
1731305172.4788356,850.8470987001238,464.77432394303406,646.8020987530592,793.4525822544817
1731305172.482738,843.7547134063769,465.2451076369926,642.7552791466934,793.4532641199133
1731305172.4866157,839.7417756679446,465.4066815802038,638.6523177595315,792.7001365016391
1731305172.4866405,838.8112721161422,464.89879403921526,634.382930298441,792.0656407426487
1731305172.488144,839.4303651552495,463.85265722977636,629.9313974178581,791.9428897137783
1731305172.490543,839.9319716617998,463.35172158419215,625.5242246697574,792.2387465661902
1731305172.494445,839.4793163841698,465.1200654599135,621.6217257577367,792.6507594668224
1731305172.4983478,838.174119350337,469.8681472011339,618.5590765918988,792.943688430547
1731305172.5022502,836.5722663068485,474.9238036304274,615.8947336214911,793.0597690604086
1731305172.5037453,835.1420114392166,473.6569782030284,612.028562074126,793.0701878464803
1731305172.5054617,834.0214473308768,459.9533500448289,605.0128426309604,793.069902423928
1731305172.5061526,833.0919831860641,438.0525064031349,594.9911721132754,793.1072261841215
1731305172.5100553,832.1756511477531,430.93864898319146,586.976439931416,793.1762336668305
1731305172.511065,831.1729390927516,474.31497905563543,590.6781764423883,793.2474319135915
1731305172.5139575,830.0835901528899,589.3313892755739,614.6354274418304,793.2988163036403
1731305172.51786,828.9563967327102,751.1877283316246,657.2587130504545,793.3265305325494
1731305172.519346,827.835486089907,889.8882543590887,703.412467943609,793.3376629560736
1731305172.5217624,826.7369456599134,936.8547507958685,732.5154948401182,793.3391288589964
1731305172.524308,825.653081478915,878.5708605292787,732.3959154853667,793.3329929324716
1731305172.5256648,824.5677404381452,761.9752029347816,706.1237351880629,793.3185325731366
1731305172.5295672,823.469508112253,644.4328771896896,666.290394321372,793.2953256226133
1731305172.5334697,822.3569050137345,539.5546783663675,624.0013837884819,793.2634338689618
1731305172.534947,821.2354858535988,413.60071073385103,583.63412389385,793.2219277712788
1731305172.537372,820.1110700943061,234.84700525823885,546.5574848742248,793.1689963335862
1731305172.5412743,818.9850063738553,25.895075294894525,517.3398281955392,793.1040787876321
1731305172.543154,817.8546315417143,-133.0104735769092,504.3943882723273,793.0291138799968
1731305172.545177,816.7170031483811,-155.12005223370846,513.8085334151021,792.9467038314202
1731305172.5457542,815.571551962879,-10.148163583867756,542.4097870342437,792.8570089353962
1731305172.5490794,814.419569555728,250.42952189725193,576.8748312133833,792.7573267644905
1731305172.550548,813.2621350868786,520.6988442441558,600.1597911134988,792.6453468055939
1731305172.552982,812.09901708663,695.3394586548468,600.6583716099942,792.5222704753977
1731305172.5568843,810.9291673249217,715.7404733372878,578.2002506645168,792.3916214228764
1731305172.5607867,809.7517191386974,587.998067226385,543.9963643386853,792.2548394231133
1731305172.5620005,808.5665538052708,375.52516677510016,515.2872408285112,792.1092668735819
1731305172.5646892,807.3742775293194,175.63990349551074,507.3334897233224,791.9515396739043
1731305172.566149,806.1756204311721,84.78978281502089,525.9807796028572,791.7822787071523
1731305172.5685916,804.9704569095785,157.72303083237966,564.3354810755434,791.6056709840263
1731305172.572494,803.7574024966533,376.8449983336028,606.1996763056217,791.4239206126617
1731305172.5763965,802.5349462291836,654.3780960833668,635.3338663828375,791.2338024502175
1731305172.580299,801.3033002138579,875.4796921228703,644.7802067701344,791.0306030829707
1731305172.5804431,800.0645793979379,960.3940639690077,639.2893815038171,790.8151499896754
1731305172.5808463,798.8204114965498,904.6081116663884,629.3975136844642,790.5946597789275
1731305172.5817502,797.5694920801684,769.6081471890175,623.148704405663,790.3748747116648
1731305172.584201,796.3082597195506,634.8507190794608,622.4210143630062,790.1515662468742
1731305172.5881038,795.0341752800718,550.0267774996629,624.8651917542295,789.9111969543875
1731305172.5920062,793.7478607954438,519.729056173494,627.5778304774205,789.642014366263
1731305172.5959086,792.4523939017996,520.5029040117842,629.1647603223264,789.3484529844974
1731305172.5973513,791.1523051681811,526.8568600779099,629.7298930222261,789.0601401247646
1731305172.5996926,789.8537866905574,525.9055860448138,629.9490025787334,788.8279299620981
1731305172.5998113,788.5614159843087,517.2039769307444,630.319055708528,788.7022455811299
1731305172.6037135,787.2663720564541,505.5640759183036,630.9488337654836,788.7027339804247
1731305172.607616,785.9346913499212,494.93106404835953,631.711998483866,788.8047468386262
1731305172.6115184,784.5206003243707,486.37337341111976,632.4599655264512,788.9577141860177
1731305172.612952,783.0235930368731,479.04251973900904,633.1273644864971,789.1177019096826
1731305172.6151323,781.5647440150275,471.79195073644524,633.7253993711253,789.2654953001348
1731305172.6154208,780.4038992356335,464.06189110328455,634.2911629591983,789.4026830607266
1731305172.6185386,779.8278012260713,455.89394495667943,634.8496852922904,789.5381963033407
1731305172.6193233,779.9603599251332,447.56191508365976,635.405167666077,789.6783314050082
1731305172.6232257,780.6682215424129,439.2681415495841,635.9502381033485,789.8242363981958
1731305172.627128,781.6621453470684,431.05767560637497,636.4771696134079,789.9740888577752
1731305172.6285532,782.6875250369831,422.87969087443844,636.9829324955095,790.1259011897181
1731305172.6310306,783.6319149102828,414.67380239594627,637.4684394594694,790.278833563493
1731305172.634933,784.5038498327067,406.41315429869087,637.9357662767042,790.4330420450912
1731305172.637385,785.3551146047754,398.1020015723549,638.3862388088799,790.588991046245
1731305172.6388354,786.2225735685811,389.7552426448159,638.8200876490133,790.7469648219984
1731305172.642738,787.1132261292955,381.3829838062304,639.2369923401001,790.906969682195
1731305172.644154,788.01668284499,372.98691460953717,639.6366679444678,791.0688652562445
1731305172.64664,788.9214706261863,364.56402881990743,640.0191033005918,791.2325122193603
1731305172.6498215,789.8227433171567,356.1111774807512,640.3845004950814,791.3978347662486
1731305172.6505425,790.7214632670194,347.6271249654259,640.7331232601958,791.5648072951946
1731305172.6544447,791.6204228056787,339.11222948313815,641.0652004213188,791.7334166968674
1731305172.6562307,792.5213915811971,330.56729219388876,641.3809133087195,791.9036377331227
1731305172.6583474,793.4245296999767,321.9927905544445,641.6804281757189,792.0754297920766
1731305172.6597552,794.3291412847359,313.38882128340583,641.9639295969695,792.2487455337849
1731305172.6622498,795.2345332896394,304.75545441056505,642.2316343708211,792.4235396776896
1731305172.6661522,796.140382959949,296.0930226116746,642.4837855846599,792.5997716210348
1731305172.670055,797.046664552872,287.4020003759978,642.7206343020662,792.7774013984723
1731305172.673957,797.9534324800242,278.68245192273537,642.9424194948225,792.9563826047149
1731305172.6750772,798.8606782695076,269.9334888332319,643.149362424775,793.1366589169749
1731305172.675356,799.7683085562288,261.15355886869406,643.3416938881614,793.3181715450214
1731305172.6778595,800.6761886605818,252.34217445029992,643.519715518483,793.5008791212076
1731305172.681762,801.5841869936805,243.50240939054103,643.6838526111553,793.6847769847991
1731305172.6845105,802.4921922807576,234.6415302125477,643.8346125647682,793.8698874638637
1731305172.6856644,803.4001090766895,225.7663803798401,643.9723850661433,794.0561974614722
1731305172.6895669,804.3078476778937,216.8732854151852,644.0971641760749,794.2435645362452
1731305172.6909573,805.2153179744503,207.9398960970929,644.2084918182602,794.4316862519278
1731305172.6934693,806.1224267980339,198.93339976543123,644.3059977854768,794.6202611822895
1731305172.6939232,807.0290745315187,189.84487645219778,644.3905422620406,794.8093616854768
1731305172.6973715,807.9351509897247,180.73455069561913,644.4650994913933,794.9997574671868
1731305172.7012742,808.840537917185,171.73665852668438,644.5337559525651,795.1926543046394
1731305172.7051766,809.7451268399575,162.96343627930617,644.5977827312163,795.3884518343817
1731305172.7065582,810.6488486047111,154.314456651093,644.650624944553,795.5850244473266
1731305172.709079,811.5516871934449,145.3443729017303,644.6777008146413,795.7773900103691
1731305172.7127695,812.4536360956298,135.46328457591375,644.6678229589461,795.9610835914738
1731305172.7129817,813.3545838502829,124.63345250938443,644.6354886897406,796.1392299312294
1731305172.716884,814.2542010572786,114.25032347996006,644.6373857964616,796.3278884627083
1731305172.7191997,815.1519952447787,107.30189039615209,644.7555434498727,796.5494507630217
1731305172.7207863,816.0476767351981,107.01817592939062,645.0399808311765,796.8073517035725
1731305172.7221591,816.9417163439823,114.67459585017377,645.4595611573479,797.0525672684471
1731305172.7246888,817.8355387060062,128.6217951378532,645.9289367648678,797.1750872370893
1731305172.7285912,818.7305868497585,145.60600200697252,646.3927781208847,797.0516809689244
1731305172.7316155,819.626120536446,162.92085604220102,646.8592313612231,796.6297488504766
1731305172.7324936,820.5172692461496,179.39017755573695,647.3404420083039,795.9710307892173
1731305172.736396,821.3965080172594,194.96681330904661,647.7961768811638,795.2066602001664
1731305172.7377603,822.2609512485153,210.01119062757533,648.1710332190252,794.448302490167
1731305172.7402985,823.1225790562053,224.92158330374238,648.4724311605312,793.7372131261136
1731305172.7442007,824.0104196063908,239.9952480182384,648.7699877478901,793.058691696244
1731305172.7481034,824.9508419031132,255.28815025060675,649.1054694186246,792.386503053585
1731305172.7504618,825.9255624824959,270.57552943737846,649.434132300515,791.711564124364
1731305172.7520058,826.8388246855376,285.5732075756506,649.6847589932532,791.039854169199
1731305172.7533612,827.5535571932912,300.24262813233594,649.8641497741756,790.3766776094867
1731305172.7538886,828.035229058383,314.81768196622653,650.0609590511319,789.7200898040213
1731305172.7559085,828.536457934983,329.50391384480923,650.3291201382251,789.0675885898767
1731305172.7598107,829.6059598811261,344.22549165306964,650.5954316729417,788.4227428762895
1731305172.7637131,831.6693272065339,358.74381213300217,650.7221643159863,787.7915912264008
1731305172.7676156,834.2031157039409,372.98583668098337,650.6732296552485,787.1745342479554
1731305172.7689624,835.1019899852118,387.14364721785523,650.6036300147114,786.5657218806253
1731305172.769308,831.2261586768849,401.41525222850333,650.762963799521,785.9611454807076
1731305172.771518,820.4995157198272,415.73892008609744,651.2761106863438,785.3644781486123
1731305172.7754204,804.3004620405062,429.8803079034065,651.9565469204086,784.7827631705183
1731305172.7793229,787.8813741919895,443.7544792197013,652.2917359945367,784.2177536001785
1731305172.7832253,777.8035099283044,457.5473961095219,651.7025726193518,783.664389583811
1731305172.7845633,777.999955791503,471.47127681793097,650.092788941948,783.1182187640642
1731305172.7871275,787.4022254994682,485.48192885614606,648.4245778046744,782.5817783118026
1731305172.788154,800.8070865967701,499.33972329539796,648.6652728399737,782.0616327841742
1731305172.7885778,812.142356916468,512.9357402036767,652.4718900872854,781.5602483555226
1731305172.7910302,817.7203769643211,526.4461701717391,658.9357153139313,781.0734951343961
1731305172.7949326,817.4799079860602,540.103719400259,663.232485216182,780.5968771823806
1731305172.798835,813.9277946075272,553.8880347619654,658.6012872685641,780.1320824455549
1731305172.8001645,810.0098185713189,567.5521865618418,642.200655607525,779.685247923418
1731305172.8027377,807.4644404130412,580.9569925216086,621.491864601499,779.2594085609126
1731305172.80664,806.4436043231506,594.2676826397437,614.956442077386,778.8511919319074
1731305172.8070002,806.1559234585285,607.7423920018804,642.8805528558426,778.4560429131742
1731305172.8105423,805.7603481042319,621.3885314971899,711.1965524059485,778.0749326479806
1731305172.8144448,804.8856823617966,634.9506554558897,799.2638712312691,777.7136433341824
1731305172.8157654,803.6321379587431,648.2556432930988,863.6371000805063,777.3756786714994
1731305172.8183472,802.287505999358,661.4543274529473,860.6691577881143,777.0583042874721
1731305172.8222497,801.0628887646337,674.8267009143052,776.148396584037,776.7569480064794
1731305172.823267,800.002112564773,688.4062084668872,641.4005595122654,776.4719923106402
1731305172.8258464,799.0383237551732,701.93535051205,521.260667816121,776.2088718243618
1731305172.826152,798.090757821536,715.2242799866408,477.9186399763102,775.9714339601007
1731305172.8300543,797.1211672588197,728.4269811473639,532.7964985503697,775.7575124795262
1731305172.8313663,796.1354301163145,741.8406882879214,652.0765243858996,775.5625867986329
1731305172.833957,795.1581414393194,755.4781309406466,766.554498411584,775.3865275355556
1731305172.8378594,794.2097125312984,769.0015152202769,813.4682113516991,775.2343896105876
1731305172.8417618,793.2971986326579,782.1617564369046,773.3455816104806,775.1102856966681
1731305172.8446925,792.4161313959598,795.211445462685,678.8002262055741,775.0126007456363
1731305172.8456645,791.5576759229033,808.7303829856407,591.1917418334349,774.9368967740039
1731305172.8469677,790.7164926132268,822.9767878376987,561.743899548809,774.8825382316754
1731305172.8495667,789.89473103348,837.4418912510728,602.6044982378346,774.8541790206042
1731305172.8534691,789.0992029877895,851.1092771222593,685.4080800673862,774.8561906484828
1731305172.8573716,788.3343399292897,863.2821483017217,765.5301545502,774.8875103205019
1731305172.857956,787.5982472559635,874.4232561183908,812.1795926002624,774.9437592254103
1731305172.861274,786.8863040604826,886.4295471268933,822.0960222211061,775.0237612410234
1731305172.8625684,786.1980395474733,901.8447397307251,811.1592958813316,775.1317520399992
1731305172.8635387,785.5386983764524,921.7848218077631,797.0948449801906,775.2723504547776
1731305172.8651764,784.9132576874974,943.399283527548,788.7904614186579,775.4450390962382
1731305172.8690789,784.320523398588,959.3308885484803,786.2515545767309,775.6455529559846
1731305172.8729813,783.7553943859594,961.9279710216699,785.8150141546362,775.872299145301
1731305172.8768835,783.2167469999897,951.726075418127,784.5794439478963,776.129124769217
1731305172.8781695,782.7101630194883,943.9593414550651,781.7999472215447,776.42061993147
1731305172.8807862,782.2408462100803,964.0715264034407,778.129297518531,776.746283583423
1731305172.8823848,781.8058661661615,1029.1028417484865,774.414921735199,777.1016482408635
1731305172.8846886,781.3977440299464,1125.0917878712137,771.0590322532237,777.485221529201
1731305172.8885913,781.017282501507,1200.3447567472058,768.0214001455342,777.9019837700205
1731305172.8924935,780.6791212972616,1188.134084186644,765.0968703196054,778.358110555624
1731305172.8926451,780.3984402637998,1049.791651005785,762.1376488650328,778.852813597871
1731305172.8937705,780.1686429502448,807.5716753185785,759.1129864722153,779.3774835352332
1731305172.896396,779.9545028985916,538.3067618961667,756.0616872649953,779.9243723362852
1731305172.9002984,779.716741623641,328.1550758274389,753.0282281920843,780.4966458078203
1731305172.9012313,779.4592987117929,222.14133523524245,750.0317493669307,781.1102947040737
1731305172.9042008,779.2677747511086,207.07924311664252,747.0685492228828,781.7856654696648
1731305172.9081032,779.2994069060313,235.76445329003857,744.127421864139,782.5339715932213
1731305172.9093716,779.7061343181888,265.1578227435207,741.2009310567689,783.3478719776784
1731305172.9120057,780.5328873046469,277.1895849896247,738.2878933574789,784.2037147422654
1731305172.915908,781.6809915932581,275.10426165317756,735.3905312055412,785.0743120813123
1731305172.9198103,782.9766021405405,269.1756773974629,732.5111139118513,785.9416671147117
1731305172.920077,784.2772025873735,266.24543041909686,729.6504773980795,786.8005337727725
1731305172.923713,785.5248801156669,267.39379174805623,726.8082764397908,787.6536289896801
1731305172.9249723,786.7284771986846,270.54591444115806,723.9838240404807,788.5051349315553
1731305172.927334,787.9181480975271,273.5658762586887,721.1766587801781,789.3571642681914
1731305172.9276154,789.1137907388003,275.62551080106596,718.3866408329568,790.209589945337
1731305172.9315178,790.3183032658343,276.97588040874643,715.6137854994267,791.0613891754602
1731305172.9354205,791.5254434441277,278.17478525888146,712.8580880397325,791.9117860325615
1731305172.9389234,792.7289625712929,279.56308561863585,710.1194543353939,792.7605894686242
1731305172.9393227,793.9265503157735,281.1751632587804,707.3977204912096,793.6079729436123
1731305172.9405737,795.1190746117808,282.8919278135793,704.6926985539433,794.454151272853
1731305172.9432251,796.3082710090856,284.60247042600713,702.0042050324822,795.2992150316834
1731305172.9471276,797.4952082586769,286.2684280350728,699.3320643512247,796.1431360650389
1731305172.95103,798.6800459096397,287.9063141014193,696.6760995203691,796.985843044422
1731305172.9549325,799.8624985418903,289.5456303932514,694.0361232982291,797.8272798782725
1731305172.9561746,801.0423135689499,291.20274276202156,691.4119352616895,798.6674202156619
1731305172.9577694,802.2194562576697,292.877856727465,688.8033234445919,799.5062539774287
1731305172.958835,803.3940532334683,294.56381249558433,686.2100671252967,800.3437702427652
1731305172.9620233,804.566267414855,296.254465583414,683.6319385508837,801.1799492260384
1731305172.962737,805.7362215583265,297.94765335616177,681.0687032451167,802.01476313922
1731305172.9666398,806.9039904087997,299.64398113060724,678.5201195741752,802.848180303088
1731305172.9705422,808.0696271846504,301.344570193249,675.985938373039,803.680168058909
1731305172.9717755,809.2331882134132,303.04976762248316,673.4659031755613,804.5106933215573
1731305172.9744446,810.3947413167182,304.7590775871954,670.9597512360497,805.3397217480839
1731305172.9766157,811.5543619006243,306.47166302389934,668.4672150052027,806.1672167973468
1731305172.9783473,812.7121261292903,308.1867799443303,665.9880230073952,806.993139288171
1731305172.9822495,813.8681070451548,309.90390832908963,663.5218986964496,807.817447411011
1731305172.986152,815.0223743444784,311.62266366157235,661.0685568784829,808.6400969243801
1731305172.9873767,816.1749958626821,313.34266398940815,658.6277001839741,809.4610413596706
1731305172.9900544,817.3260388599423,315.063468087664,656.1990212323079,810.2802321800831
1731305172.9939568,818.4755703247712,316.78460962467875,653.7822153372731,811.097618825979
1731305172.9954617,819.6236564245326,318.50568546954736,651.3769997317959,811.9131484934434
1731305172.9967124,820.7703616162063,320.22641446941304,648.9831204975944,812.7267655556227
1731305172.9978592,821.9157480571178,321.94657223825175,646.6003213062677,813.538410911167
1731305173.0017617,823.0598759678087,323.6657687915377,644.2282692387281,814.3480220643625
1731305173.0029776,824.2028052115747,325.3832007856377,641.8664890574145,815.1555347903748
1731305173.005664,825.3445972181936,327.0977033372883,639.5144131606033,815.9608860921545
1731305173.0095663,826.4853148945213,328.80841548568344,637.1716285200383,816.7640158946649
1731305173.013469,827.6250179860991,330.51590061983427,634.8382233943278,817.5648633684842
1731305173.014308,828.7637545501607,332.22269630516087,632.5148626139401,818.3633561350081
1731305173.0173712,829.9015556814858,333.9317399373848,630.2021223903264,819.159398642735
1731305173.0185783,831.0384453658384,335.6421443247034,627.8990698273351,819.9528755634248
1731305173.0212736,832.174471113057,337.3449525958174,625.6021506658794,820.7436852581778
1731305173.025176,833.3097383349649,339.0250240257434,623.3064116795388,821.5317946261671
1731305173.0290785,834.444403408707,340.67446569148194,621.0103788776007,822.317264050942
1731305173.0314014,835.5785806610219,342.31347266743654,618.722352347844,823.1001666065882
1731305173.032981,836.712184265698,343.99833148987943,616.4608536384314,823.88037880838
1731305173.033154,837.8448485164276,345.7886071598764,614.2408405811483,824.6573768042067
1731305173.0341797,838.976146320165,347.66917006680865,612.0469162586359,825.4303416185119
1731305173.0368834,840.1061838779808,349.4869670611788,609.8154315151819,826.198830541384
1731305173.0407858,841.2362060967833,351.0137883214807,607.4639295889224,826.9637897632774
1731305173.0446882,842.3683468971859,352.15833926408965,604.9898786054841,827.7278888265512
1731305173.048591,843.5037530948348,353.1272374454975,602.5930707137079,828.4937906157372
1731305173.0497806,844.6396516868822,354.28638769692066,600.6935868642472,829.2601314621314
1731305173.0520003,845.7682222632418,355.80712949270924,599.7373879974108,830.0180116881327
1731305173.052493,846.881308376132,357.50365409076306,599.889511873711,830.753757263922
1731305173.0563955,847.9818647707854,359.07543151057394,600.9097134439454,831.4622006626887
1731305173.060298,849.0944355745306,360.46287190468263,602.3508144439039,832.1649554887362
1731305173.0642004,850.2581473015082,361.8809345076578,603.8579614706712,832.9132102452189
1731305173.0653818,851.4892120967478,363.5129668914673,605.2858916087249,833.7488028341455
1731305173.0660906,852.7270166611883,365.27583803204897,606.6255607652893,834.6197699914859
1731305173.0681028,853.8204306600401,366.95110054614634,607.9094303140221,835.2972119115461
1731305173.0708463,854.6277064793069,368.4860370101863,609.1814470968435,835.368280773464
1731305173.0720053,855.2357859870674,370.05767846515846,610.4885171709105,834.3165096975654
1731305173.0759077,856.139703233922,371.8261832251466,611.8502204793106,831.6080106808835
1731305173.07981,858.0717244235268,373.7195914941368,613.2372918471465,826.7679290648061
1731305173.0809827,861.274340374235,375.53665365453816,614.6009422589678,819.6180901972316
1731305173.0837126,864.5681176469888,377.21943075408547,615.9272373515389,810.7969494080662
1731305173.087615,865.2653992761186,378.9256386929681,617.2494580538264,802.2555894894359
1731305173.0896926,860.7426641064742,380.8107186892041,618.602438078299,797.046444771272
1731305173.0915174,850.7690330503108,382.8205031433283,619.978452247831,797.9654670283728
1731305173.09542,838.2472500359264,384.7710363104532,621.3407660264786,805.5135781385057
1731305173.0965838,827.1321941390852,386.5989175492625,622.6735884576541,816.5310671290691
1731305173.0993223,819.154654601946,388.4415709139882,624.0008265793007,824.8470876985883
1731305173.1007795,812.4272656318955,390.4460232031853,625.3509974263138,824.1109546502685
1731305173.1032248,803.4429711154219,392.57157377815076,626.718167831735,811.3626793670333
1731305173.1071272,790.869675466283,394.65095464152654,628.071249229217,789.0939350169245
1731305173.1085386,777.7262181386749,396.6193627172744,629.3966233442595,764.295055409609
1731305173.1110296,769.6876090130295,398.598471433913,630.715207124959,744.8750931178843
1731305173.1121848,770.5684994104523,400.72699546074773,632.0521911958017,735.5747374487587
1731305173.114932,778.7084230548595,402.9732898988391,633.4023363277992,735.8324171795459
1731305173.1188345,787.5811343731334,405.1829765305913,634.7378915816325,740.7733091822281
1731305173.1227367,790.4936035605607,407.2911921313714,636.046755330376,744.4853810775211
1731305173.1266394,785.5146004566319,409.40869908159056,637.3479971883902,743.4038971384967
1731305173.127385,776.3300708518672,411.6681309344447,638.6643713362963,737.7932684852483
1731305173.1277857,768.5389612965129,414.0435477453989,639.9906241360179,730.7536827729577
1731305173.1305418,765.2737831680095,416.3887427682876,641.3010957720629,725.8100905053569
1731305173.1344442,765.9897611151143,418.6388715164671,642.5852757294615,724.8554849237762
1731305173.1354687,768.3322275500042,420.89862440240233,643.8617786755972,727.649506073904
1731305173.138347,770.3917930972818,423.29775498522923,645.1517379289395,732.7753245842727
1731305173.142249,771.562866615605,425.81327696363377,646.4489766331112,738.944945569336
1731305173.1433868,772.1524340390285,428.3020556959169,647.7285016664316,745.5231331193114
1731305173.1461515,772.6593849784957,430.6985482253116,648.9813564838203,752.021226148391
1731305173.1462307,773.3505928214578,433.1058733434727,650.2270575163911,757.3137781349161
1731305173.150054,774.2255441736527,435.65454535620125,651.4860300438729,759.6070880438054
1731305173.1539564,775.1688152054215,438.32256006725675,652.75047803098,757.49942107985
1731305173.1578588,776.0876069456629,440.9650313112475,653.9947577752238,751.3917934517798
1731305173.1589878,776.956788825943,443.5143228198571,655.211234024619,743.9792182314679
1731305173.1617613,777.7959990822866,446.0755095332006,656.4213749454652,739.109756472038
1731305173.1650772,778.6318359028157,448.7835208156307,657.6458245433389,739.5751580013986
1731305173.1656637,779.4772599411475,451.61658968017923,658.8748516701435,745.3622788181808
1731305173.1695662,780.3312634504648,454.42415570372,660.0810711521045,753.6911649462177
1731305173.170158,781.1874571089205,457.1342387095923,661.2576322146192,760.8661924348498
1731305173.1734686,782.0411245152548,459.8557495691719,662.4285648282771,764.581564677892
1731305173.174589,782.8912095875447,462.73163235324853,663.6157443459625,764.9914436579002
1731305173.177371,783.7388830015316,465.74146167645216,664.8077170599515,763.8761096242233
1731305173.1812737,784.585533040372,468.72622793791544,665.974457630533,762.7770158170578
1731305173.1839232,785.4317655691609,471.6059788716847,667.1089044561875,761.7528332081599
1731305173.185176,786.277466926779,474.4933491939321,668.2378218602015,759.7800732033468
1731305173.1890783,787.1222898769503,477.5432821664474,669.3855723191818,756.3357731003798
1731305173.1901898,787.9660180362542,480.74005508534026,670.5397465956913,752.6349195805008
1731305173.1929808,788.808638153722,483.91420987335727,671.666814883877,751.2628651964083
1731305173.1968832,789.6502181976148,486.9723750367581,672.7580034045696,754.3108572485958
1731305173.2007856,790.4907626591352,490.02913647047217,673.8427090606478,761.4308488857853
1731305173.2027695,791.3301740752792,493.2562233554545,674.9493385299969,769.3882667829341
1731305173.204688,792.1683682636847,496.6477834870511,676.0656437345134,773.5998161023991
1731305173.2048469,793.0054814358892,500.0222049344683,677.1536646863664,770.7009045515515
1731305173.205791,793.8419751371639,503.26630491507893,678.2012166494364,760.5017492467598
1731305173.2085905,794.6783812076561,506.4945095614462,679.2402660643174,746.1812473002007
1731305173.2124927,795.5146107658167,509.9002317060854,680.3048631004164,732.7385255116898
1731305173.2163954,796.3492651732346,513.491538213039,681.3837057490528,724.6975222531053
1731305173.2202978,797.1799495129383,517.0710284553973,682.4330234178005,724.2935103382738
1731305173.221392,798.0054546822101,520.4997301765924,683.4356394442083,730.9204669160615
1731305173.2216156,798.8291099044956,523.8950025038056,684.427121761918,741.8968624643989
1731305173.2242002,799.6599842669727,527.4851917521231,685.4505500471537,753.9982155173864
1731305173.2281027,800.5073389677467,531.3005857371729,686.4974815546916,764.9138279935491
1731305173.2320051,801.3674433140861,535.1128009577601,687.5147714839164,773.9009569355763
1731305173.2359076,802.2117904078907,538.7171830194607,688.4712368996464,781.4143542013932
1731305173.2369928,802.9956987128104,542.1993033709687,689.3981284698448,788.1511031015233
1731305173.239536,803.7018343381279,545.8469886297124,690.352467123611,794.3283037287728
1731305173.23981,804.401699268008,549.8337667765305,691.354875507234,799.7538680595063
1731305173.2404618,805.2695021971749,554.0664373135543,692.379925469108,804.4932235106849
1731305173.2437124,806.464987466191,558.2981065881531,693.3898608895005,809.3211125763652
1731305173.2476149,807.8814305149879,562.2124284501903,694.3334679446343,815.303660617919
1731305173.2515173,808.9453811152847,565.3196006811047,695.0983260804801,822.7359027754056
1731305173.252594,808.8251586740571,566.9714347363322,695.514760992264,830.4595184146873
1731305173.2554195,807.2787665719449,566.7501483874681,695.4665925887156,836.4401923502909
1731305173.259308,805.7307781034134,564.8660734801376,694.9992280528535,839.3619782875768
1731305173.2593222,807.3514458947911,562.0504120173667,694.2927886717619,839.87620236103
1731305173.2632246,815.10683002285,559.0526124300043,693.533904243802,840.1769433850575
1731305173.267127,828.6811195455296,556.2648580479179,692.8204294406723,841.9467752815937
1731305173.268195,843.1328101985786,553.71424140663,692.1590566501873,844.3091018374391
1731305173.2710297,851.3693749328571,551.2648743406182,691.5157569480599,843.7360325142367
1731305173.2742252,849.1147976969077,548.7992285392023,690.8611188459904,836.4054774811634
1731305173.274932,838.3471033564981,546.2822083921976,690.1863702277122,821.3812538709742
1731305173.278154,826.0104794795227,543.7363991574427,689.4971799891758,802.0384876210207
1731305173.2788343,818.6390960701267,541.1951267284182,688.8019091323031,784.3343109695562
1731305173.2827368,817.1251588247726,538.6754806717731,688.1048585657436,772.9988606996553
1731305173.283796,816.0527137897736,536.1768295047059,687.4058970304609,768.4879343275173
1731305173.2866392,808.4224950636283,533.6912389101936,686.7030681894274,767.0829457149306
1731305173.2905416,792.0836909391744,531.2125023927962,685.9948506407391,764.1225859741961
1731305173.294444,772.5664926667453,528.7389348524309,685.2808570642342,757.8889731032954
1731305173.2970002,759.7686668652156,526.2717404928894,684.5614257551771,751.1232429546412
1731305173.2983463,760.9103837369385,523.8124985489854,683.8369913360555,748.9711039095373
1731305173.299397,775.2438081396192,521.361840999316,683.1077537561181,754.9264189633282
1731305173.302249,794.6281843597069,518.9194689692488,682.3736823194226,767.8758879169736
1731305173.3061514,809.3964556154799,516.4847344229788,681.6346612033379,782.4673241688165
1731305173.3089142,814.8125333199296,514.0571015151903,680.8906048812006,792.4601356429465
1731305173.3100538,813.1875623700658,511.6362681052922,680.141488501055,794.5024330899697
1731305173.3139565,810.4489947067935,509.22206544148924,679.3873227200368,789.6123758160722
1731305173.314998,810.4634911925881,506.81432535459027,678.6281203466114,781.5558164886965
1731305173.3158464,812.0036136923368,504.41281665599877,677.8638802512912,773.7125645972023
1731305173.3178587,810.7379451295401,502.0172512199103,677.0945887591826,767.0133150316856
1731305173.3217611,804.230076763577,499.6273164250509,676.3202278337384,760.4233068961448
1731305173.3256636,795.3483035589699,497.2426988732481,675.540781341192,753.2514074114929
1731305173.329566,790.8333495544971,494.8630897651399,674.7562367654813,747.081797793312
1731305173.3305993,795.8978529016574,492.48817926825546,673.9665836307291,745.4993495397932
1731305173.3334684,809.2150597793856,490.11764991666024,673.1718105776845,751.6270279038948
1731305173.3346925,822.6043221700874,487.7511739703681,672.3719026133041,765.3038220730919
1731305173.3373709,826.1173696591005,485.3884143861908,671.5668402983863,782.1072713709472
1731305173.3412733,814.9298998210793,483.0290270009646,670.7566030765353,795.1393331805634
1731305173.3436034,792.8867918308089,480.6726621453166,669.9411772404457,798.5706163867295
1731305173.3451755,770.0075912007956,478.3189652845104,669.1205636757359,790.7795894920386
1731305173.3462,755.8231635827859,475.96757712718755,668.2947743886818,775.2583173427054
1731305173.3490782,753.512139177779,473.618133729826,667.4638082254043,758.9028993290568
1731305173.3529806,759.0330903464935,471.27026683157993,666.6276134623849,748.7983671983205
1731305173.3535388,765.4685045494849,468.9236043806202,665.7860741561736,749.2326061605789
1731305173.356883,768.7960553810261,466.5777711192898,664.939071591467,760.2492723513298
1731305173.3607855,770.4361838854405,464.2323891385816,664.0866311738899,778.0721007134881
1731305173.3618011,774.7927367757212,461.88707838871386,663.2290546634571,796.8795681483991
1731305173.364688,784.1958093786099,459.5414571750148,662.3668261600318,811.0558191378642
1731305173.3685904,795.7412568033118,457.1951426662011,661.5001284495797,817.1374636626475
1731305173.3723848,802.8519344414001,454.84775141656615,660.6281559783998,814.9440542545623
1731305173.3724928,800.411743302898,452.4988998815223,659.748953449266,807.623498731656
1731305173.3763952,789.3395204981866,450.14820490777186,658.8607119782544,800.5609581633643
1731305173.377402,776.8715270795291,447.7952842120219,657.9645721573002,799.3891643311671
1731305173.3782923,772.1848428523106,445.43975690823765,657.0668582511923,807.7079261728984
1731305173.3802977,780.5430019581871,443.0812441546218,656.1767411440096,825.3966082882031
1731305173.3842,800.1130311856144,440.719369910554,655.2966635858188,848.329745231446
1731305173.3881023,823.4352147368376,438.35376161999665,654.4098456804221,869.771719021769
1731305173.3912313,842.1307301906626,435.9840505017077,653.4791612946209,882.9286428515446
1731305173.3920047,851.4396625045904,433.60987127480126,652.4741045827022,883.5173861932357
1731305173.3930032,851.8350666134344,431.23086174136535,651.4239139037218,871.1824737058035
1731305173.3959072,847.3622142099283,428.84666341346303,650.4543438067524,849.2213916537712
1731305173.3998096,842.4958513206332,426.45692442576404,649.7329934395323,823.0023626660188
1731305173.403712,839.7707280606137,424.06130429510876,649.2815330188677,798.0871054407348
1731305173.4076145,839.3140169065947,421.6594768167716,648.7517488688865,778.9918025606213
1731305173.408604,839.8813038062394,419.2511251686156,647.444571538184,768.8163780943388
1731305173.410077,840.2152744551613,416.8359267505697,644.8716690983932,769.2158785331862
1731305173.411517,839.7940292286748,414.41353692136823,641.7780811903236,780.0355871597369
1731305173.4129815,838.7911892757207,411.98359454300345,640.79742455621,798.5716247507688
1731305173.415419,837.6365151203854,409.5457709240186,645.4429691742628,819.3034100330966
1731305173.4193218,836.6372183745366,407.0998492955346,657.1341721229959,835.1461599839206
1731305173.4232242,835.860034045777,404.6457604904046,672.5868899374607,840.3105259080933
1731305173.4242053,835.2113543671702,402.18346555040057,685.0461075555779,833.3182417822497
1731305173.4271266,834.5669510622043,399.7126535356986,689.2632231886414,817.9784944281859
1731305173.4289234,833.8563354196513,397.23244934972763,685.4355725252792,801.1776273388513
1731305173.431029,833.0819456552343,394.74157024029074,678.2839949881156,788.6972568523696
1731305173.4349315,832.2906504753965,392.23929926947045,672.8218333375139,782.0860350323964
1731305173.438834,831.5265798506553,389.72694491614556,671.0878099821564,779.0928505628821
1731305173.4398062,830.7984776300381,387.20831027243446,672.0128174279029,777.3614267731649
1731305173.4427364,830.0836560080531,384.6871759384065,673.3663102912329,778.1564990938473
1731305173.4466388,829.359378306389,382.1614929927698,673.6239031398665,786.4797963207841
1731305173.4476707,828.6269173812867,379.6183583255275,672.5825592322382,806.7702302859803
1731305173.4477694,827.9041585055128,377.03809747666145,670.9077568268457,837.3440537741398
1731305173.4505413,827.2001212741853,374.41354776952903,669.3644984423063,868.4212406250479
1731305173.4544437,826.5047507525326,371.7765082499911,668.3053688773981,886.2629193723166
1731305173.4554071,825.8053185560914,369.20190339375165,667.6005820318132,881.2277684673252
1731305173.458346,825.1055109414161,366.75247464245695,666.9035991225771,854.2330538758386
1731305173.4622486,824.4206635620163,364.36067951896086,665.9878718489663,816.9654089715722
1731305173.466151,823.7556268849006,361.72132527693344,664.8902185643964,785.608947507764
1731305173.4666157,823.0962146353119,358.3195421947838,663.7852577977014,772.341270334264
1731305173.4700534,822.42800679276,353.6480573740946,662.7656029276155,779.9826457560416
1731305173.4710083,821.7593733762953,347.51277854186606,661.7691356045118,802.4314553623273
1731305173.473956,821.1172536721382,340.2300489678318,660.7007167995878,829.4007441382439
1731305173.4778583,820.5162198793191,332.5249108578021,659.5671461828712,851.7000791802905
1731305173.4817607,819.9344696390606,325.0881082634318,658.4536277589356,864.1315830408406
1731305173.4823596,819.3254171164658,318.09238184104413,657.392059626696,865.6086497727132
1731305173.4854617,818.6585746307913,311.16314888563124,656.3117476753051,857.9696898702111
1731305173.4856632,817.9576266889305,303.8940515608534,655.1416135414443,844.9151658412438
1731305173.4866092,817.3059663117241,296.3386641281468,653.9195962678407,831.2473792069677
1731305173.4895656,816.8056984335471,288.8867248328362,652.7503428684272,821.7370503738448
1731305173.493468,816.4937472378654,281.6874060580756,651.6577559068912,819.339954379614
1731305173.4973705,816.251931475646,274.37767298906687,650.529081821524,823.5791650688885
1731305173.501273,815.7963528661116,266.51430846618786,649.2395938656346,830.4276788129226
1731305173.5022104,814.8363357965655,258.2193893754895,647.8193775119034,834.2819735039116
1731305173.504308,813.381882026616,250.23994495510638,646.4649653283672,831.1278461835126
1731305173.5051754,811.9858187122577,243.2579132551847,645.3699457685218,820.994176254375
1731305173.5090778,811.619329093903,237.08227346266742,644.5282671436495,808.1213970198193
1731305173.5129802,813.0826058477802,230.46038593234672,643.6643226613489,798.7194028272773
1731305173.516883,816.2811760882298,221.75063979227474,642.3392790306151,797.689224769335
1731305173.5170488,819.9831041262739,210.22907633913005,640.2319334258472,806.200536301454
1731305173.5178113,822.4381357574143,197.47258389933918,637.5474049364934,821.3126071191343
1731305173.520785,822.5390137576713,187.724135857391,635.3015300446375,837.524485228978
1731305173.523154,820.6109755164332,185.7799869247753,634.9810386668394,849.1566014232579
1731305173.5246875,818.0602088479455,192.1312258564494,637.281160451734,852.3230850997817
1731305173.52859,816.0312544660911,198.34297968798978,640.5463922213787,845.8141510495053
1731305173.5324924,814.1792701608261,188.45158840981634,640.5454466262267,830.9297177560237
1731305173.5334122,810.73871951972,150.1260125716144,632.9780272130098,810.7132400227524
1731305173.5363948,804.0490530152732,91.11520853562308,618.0089131113854,789.0120025838704
1731305173.5402973,794.3754400267017,47.67832266397431,603.4600136188457,769.5502815979078
1731305173.5420003,784.4127914378955,72.00589468678396,602.7659584718845,755.055468818142
1731305173.5441997,777.7886624531944,199.59095921558057,627.0351921910819,746.5808187054981
1731305173.548102,776.5111227828291,416.75671816443077,675.8045178843955,743.361201331602
1731305173.5490134,779.305246679898,655.6979320625894,733.8051902153788,743.4309239186897
1731305173.5517378,782.2590844558821,828.245351582311,777.8205083947082,744.7138625245816
1731305173.5520046,781.4796694061685,878.8603357752047,790.0298555144636,745.8894206508801
1731305173.555907,775.8556844473321,817.5997954650206,768.3380823001746,746.5716476442741
1731305173.5598094,767.8206692544576,705.680863305244,725.8197529996654,746.9418564111319
1731305173.5608463,761.4478172478392,604.0962548646978,680.0323539404768,747.2872828838221
1731305173.563712,759.2489682629847,528.0770252383027,641.34814046714,747.7531894428181
1731305173.5646143,760.134558968043,446.66252095018075,609.9309313749143,748.3304132096212
1731305173.5676143,760.2152975693042,327.3899136129163,582.7820592323383,748.9482563098516
1731305173.5715168,755.985877559888,184.91713942616292,562.808431237778,749.5534313265767
1731305173.5754192,747.5206126422939,87.10625630698303,560.0439310507676,750.1333010813021
1731305173.5793216,739.1453139894628,109.04415388785549,582.9224486176834,750.7005291262192
1731305173.5796926,736.8631782377173,272.1433856881987,627.6845909618747,751.2706940583275
1731305173.5802157,744.2856249934972,519.8664807797301,676.8071414047129,751.8508535187729
1731305173.583224,760.032618245494,751.0874354657658,709.5513108538867,752.4399555369012
1731305173.586427,778.5118669132094,884.5452853866018,716.1286763904063,753.0340834127774
1731305173.5871265,793.4370219364159,905.0493197563087,702.929848654295,753.6305010168921
1731305173.5910287,801.4194270363763,861.2902544646593,684.8308537149148,754.2286564945381
1731305173.5949314,803.1204976558532,825.3481764642254,673.1499139971104,754.8292538548039
1731305173.5958164,801.6234098444864,848.7119344679355,670.1510452667831,755.4330747074713
1731305173.5985386,799.8636823056821,941.5440958176428,671.9693240385734,756.040424310907
1731305173.5988338,799.1696494730069,1076.0535937104094,674.1245434356025,756.6511825490148
1731305173.6027362,799.422136340747,1199.2085623986252,674.5427941428056,757.265075822142
1731305173.606639,799.9712922034925,1246.096522111864,673.4385481173819,757.8818827543417
1731305173.610541,800.3507555344281,1158.6786551950845,671.862359445043,758.5015162814656
1731305173.6114175,800.4662333177979,914.3965835735968,670.5634001461578,759.1240435481787
1731305173.6144435,800.4428630459387,552.64398411261,669.6918484215674,759.7496682273877
1731305173.617385,800.4221043648033,174.52697544586744,669.0462090268587,760.3786125396425
1731305173.618346,800.4641124729818,-97.26318923619812,668.3996701022681,761.0108479906563
1731305173.6211162,800.5565369430094,-180.51563935369524,667.6563006726236,761.6458102360966
1731305173.6222484,800.6635950797938,-76.71744339372191,666.8364431440664,762.2824854887558
1731305173.6261508,800.7618027506729,135.3696834765949,665.9977944084422,762.9202547207317
1731305173.6270185,800.8476474497695,349.20990682873395,665.1781480559238,763.5602916354193
1731305173.6300533,800.9284080178027,484.625964790619,664.3832211108398,764.2062231141612
1731305173.6339557,801.0114668009348,510.6858679301274,663.6014645809872,764.8621111284921
1731305173.6362307,801.0996519925841,434.48607580173075,662.8212178708981,765.5271318759999
1731305173.6378582,801.1920821422774,282.78593089683704,662.0381518680662,766.1903030916392
1731305173.6417606,801.2868479306958,100.50177719841923,661.2538870978442,766.8329881496015
1731305173.6426194,801.3828079635957,-40.507296479329796,660.4716820598524,767.4458538168774
1731305173.645663,801.4798816490073,-51.83974350287912,659.693556254593,768.0548038012839
1731305173.6495657,801.5785130304862,126.10746151283371,658.9198274260496,768.7300935329324
1731305173.653468,801.6791132048703,468.9904346039132,658.149975558541,769.5430586869372
1731305173.6550772,801.7818418385982,854.920183316305,657.3835372133371,770.4638482704637
1731305173.655805,801.8866709228008,1121.93206866494,656.6204540334777,771.2705051977318
1731305173.6573703,801.9935301030506,1167.5939073340844,655.8609688434193,771.6164247875372
1731305173.6582203,802.102396455815,1017.7428502662494,655.105392188292,771.3676323791672
1731305173.6612728,802.2133043585831,806.4803843700345,654.3539589910642,771.0756954658409
1731305173.6651752,802.3263144660174,678.0743917467556,653.6068133380345,772.0731546946228
1731305173.6690776,802.4414835599231,686.8005561797218,652.8640575719085,775.5348687326632
1731305173.67298,802.5588526869694,774.2300619571405,652.1257981323489,780.4453234391682
1731305173.6738214,802.6784509403575,838.492872137106,651.3921614667214,781.8133689838822
1731305173.6739233,802.800306387938,831.6858858062249,650.6632877368463,771.5589473519453
1731305173.6768825,802.9244575288858,799.1053586476714,649.9393196674404,743.2540072748658
1731305173.6807847,803.0509592968838,827.9525271655548,649.2203961650669,698.1258857362342
1731305173.6846874,803.1798756984268,955.3606266705152,648.5066498958381,647.1592150225824
1731305173.6885898,803.3112541841017,1121.8323374943025,647.7982043139358,606.6027338662542
1731305173.6894226,803.4450929587385,1213.9057323183472,647.0951699692562,589.736569053485
1731305173.6904943,803.5813369372742,1158.0872262397147,646.3976470534562,600.5826226374709
1731305173.6924922,803.7199449658989,981.5383819042318,645.7057422923597,633.0531735567291
1731305173.6927695,803.8610250930379,785.6164582221519,645.0195962702966,674.8446828538259
1731305173.6963947,804.0049319619645,657.3758421716063,644.339394939322,713.0070189576946
1731305173.700297,804.1521347992916,599.262269636529,643.6653264714757,738.509726996164
1731305173.7041996,804.3027435722871,539.0868615540197,642.9974727687442,748.698631604685
1731305173.7050235,804.4559284770842,408.7270539930964,642.3357062670384,747.5305775787322
1731305173.708102,804.6099349343517,218.22214998947788,641.6797489835275,743.6395177489596
1731305173.7116156,804.7634621759731,57.05703727207276,641.0295231278342,746.5435691523978
1731305173.7120044,804.9182104103128,20.208666374286906,640.3856701849314,762.2133382409787
1731305173.7159069,805.0804447292982,123.07829704768727,639.749707078465,790.1173668865341
1731305173.7198093,805.258000625644,278.51360975244995,639.1231106535522,823.5467914042363
1731305173.7206244,805.4510456106259,355.40603527966755,638.5052394496047,853.2184015669864
1731305173.7237115,805.641769693874,270.97144559190235,637.8915712993577,872.0483961433918
1731305173.7251832,805.7966501267915,44.972009582729925,637.2752377468496,878.2494122142174
1731305173.7276142,805.894922952187,-220.61508889822704,636.6539988185788,875.1523233399288
1731305173.7304618,805.9773893916384,-413.48776067078876,636.0397387626,868.3932052940464
1731305173.7315166,806.173898222024,-477.6938742799928,635.4600328347449,862.622654866933
1731305173.735419,806.6483905593851,-432.058830357569,634.9390203824922,859.7206527780432
1731305173.7362256,807.4539558699964,-339.3825600107039,634.4580337780965,859.0752152748133
1731305173.7393217,808.4180875642131,-258.6931859147771,633.9266574987231,859.0699588690404
1731305173.743224,809.2197823660553,-215.26286330851002,633.2210340194897,858.4800779245269
1731305173.7471263,809.6308368497133,-201.0527810717162,632.3257353783686,857.0086535131512
1731305173.749308,809.6830169701574,-194.38278167516165,631.518956498966,855.0242577933362
1731305173.7510288,809.605268170079,-179.22859132930108,631.4157729265238,853.0241704669875
1731305173.7518263,809.6302447531764,-152.3268616364665,632.6997867529543,851.279088622249
1731305173.754931,809.8555736065751,-119.03271111518922,635.663239856765,849.7859147721123
1731305173.7588334,810.232630679272,-85.80863887914671,639.9741473340848,848.4033546593321
1731305173.7598724,810.64182118519,-55.78882878792166,644.919409864005,846.9997607661533
1731305173.7627358,810.9857362151383,-28.662230260612148,649.8784713459645,845.5250835045773
1731305173.7666385,811.2466655827127,-2.6256958209073673,654.6116745404242,844.0050859740222
1731305173.7674277,811.4792328534431,23.907992607293863,659.2156615841996,842.494434403782
1731305173.768154,811.7495597923687,51.599053263161636,663.8830667805893,841.0291826339572
1731305173.7705407,812.0756147228527,80.1981842796036,668.6893699726166,839.6077032789755
1731305173.7744431,812.4228069199115,108.96972670575207,673.5572411330356,838.2059946972498
1731305173.7783456,812.7521607485153,137.30682741279628,678.3810231316484,836.8068547323155
1731305173.782248,813.0634385547096,165.17535080382328,683.1518676360474,835.4138535517216
1731305173.7830286,813.3867163554752,193.0209131110784,687.9481249412166,834.0403843989328
1731305173.7861505,813.7397864266558,221.23586722115473,692.8233245740166,832.6912462542098
1731305173.7870002,814.1070595819824,249.76026295795185,697.7399495202594,831.3590539918019
1731305173.790053,814.4634754234368,278.2394261622636,702.6258414147374,830.0366989199607
1731305173.793955,814.808653278307,306.4997300858703,707.4702486481027,828.7275327563433
1731305173.7945616,815.1664811679763,334.74243857666306,712.3332355594091,827.4403645534151
1731305173.7978578,815.5527274043205,363.24472417552124,717.2621833518456,826.1772970718313
1731305173.7986298,815.9542519562102,391.9874753819111,722.2290230117188,824.9309006667443
1731305173.8017602,816.346318399653,420.69433175224725,727.1684947409638,823.6937314519867
1731305173.8056626,816.7244928479046,449.20885975238934,732.0631627803356,822.4672469957904
1731305173.8058465,817.110059043256,477.7009388558771,736.9632567106011,821.2594576103794
1731305173.8095653,817.5232160715753,506.43656307912033,741.9182514298881,820.0760457682271
1731305173.8134675,817.95883535781,535.4256833959976,746.9115288947053,818.9164262988105
1731305173.814231,818.3938161013962,564.4140936282056,751.8822086008392,817.7765766780705
1731305173.81737,818.8136081255451,593.2231791694637,756.803571094075,816.6504129969761
1731305173.8212724,819.223923663369,621.9843509818667,761.7156743068925,815.5270272257228
1731305173.8246925,819.6383551398206,650.9604875720534,766.6711691058124,814.3942803514783
1731305173.8251748,820.0665198980116,680.1943278832506,771.6657787876959,813.2572056334172
1731305173.8290772,820.5210818812991,709.4508016135812,776.6430385882402,812.1565995502061
1731305173.8292506,821.0232511154817,738.5315621788882,781.5654408833057,811.1544995713016
1731305173.8298316,821.5745823631095,767.5483215408115,786.45920966572,810.2713648461792
1731305173.8329797,822.1101646958867,796.7909018774626,791.3771803913555,809.4146716697161
1731305173.836882,822.5050122521219,826.3502622253959,796.3320779000139,808.3844542307837
1731305173.8407843,822.6862819701432,855.9744978679057,801.2872875068193,807.016841840628
1731305173.8435388,822.7909505950024,885.3443377302788,806.209783011651,805.4119317591455
1731305173.844687,823.1969996839413,914.4421529230397,811.1048020525972,804.0521538119948
1731305173.8454328,824.2833601982602,943.6010293902755,815.9829560691514,803.587635466777
1731305173.8485894,825.9870045375335,973.2174274642095,820.8167835650702,804.258475856286
1731305173.852492,827.499797770599,1003.4401561792197,825.573846960307,805.2902617899036
1731305173.8563943,827.5345790687762,1034.039625501435,830.3088328890788,804.864521925359
1731305173.8602967,825.2959349562883,1064.4126137294418,835.1829213994821,801.0810888813037
1731305173.8610337,821.690831369759,1093.7423617148654,840.3173757045762,793.6075879857354
1731305173.8623848,819.8192884922661,1121.545499538476,845.5744497322216,784.8810328277891
1731305173.8639398,823.9147141787075,1148.5681139423937,850.5047030001182,779.557167210119
1731305173.8641992,836.8250735790342,1177.1907844399877,854.6274582056353,781.8695081204652
1731305173.8681016,857.3388182309179,1210.1825514857533,857.935485193748,792.2287288156909
1731305173.872004,879.222968932469,1247.8370119304873,861.2424796020009,805.5014959396552
1731305173.8759065,893.1182722450952,1285.6341342181324,865.9585168399972,812.8038351061388
1731305173.8766348,890.7412343177515,1315.2797945065079,873.1720045952051,806.3945122634059
1731305173.879809,869.3130816580654,1329.488323143679,882.3930160745401,784.8671975184764
1731305173.8812313,833.8429882208458,1326.5499603228634,890.6565658821988,755.1996433559412
1731305173.883711,795.9824817321005,1308.905695526687,892.6107558124897,730.0171313184663
1731305173.8876138,769.8382898184889,1274.0732259428592,881.7185939748081,721.4822739292551
1731305173.8915162,766.4101676245284,1204.4385532314277,852.1311070363064,735.349370946457
1731305173.8922358,788.7970351526812,1067.4156717801438,800.583219772469,768.4631785718278
1731305173.8954186,830.1270896160246,832.6808505522437,727.92851620715,810.7034076908411
1731305173.898629,875.4599920527138,499.8851095766261,640.2784942518518,849.8192105928903
1731305173.8993213,907.5716821630301,118.55604534811431,549.6319831519855,876.4049522376295
1731305173.900077,914.6311022313623,-217.2021270087692,473.3129212428032,886.8219433463926
1731305173.9032235,896.1373747283103,-401.73028673609593,431.08009406065776,883.3424638633298
1731305173.907126,863.4972227910029,-362.98049324599896,439.24545481190324,872.0989402843124
1731305173.907837,834.0837631473995,-96.77324832268533,502.83178531315764,860.0521959595017
1731305173.9110284,821.5693086489005,325.27972144105973,609.0428166541216,852.2518536085283
1731305173.9149308,828.1958938680251,775.1762265869211,726.6163632963986,850.3802678938155
1731305173.9188333,844.0206624492309,1106.7486827086702,814.3868201499656,853.002326988838
1731305173.9189234,853.9003871053961,1202.7693958960865,838.0292624550075,857.1425939387486
1731305173.9227357,847.7547257856166,1020.5426625042555,788.054509465076,860.1235045621885
1731305173.9234378,827.2440272389298,620.0901937764634,688.4339098905674,860.5377193395974
1731305173.926638,804.3678447097009,154.29217830308215,587.7657019567334,857.9655389598774
1731305173.9305406,793.0874782672261,-189.812620227031,534.415806357416,852.079691908732
1731305173.933318,799.8825640477804,-280.44202691513345,548.7026881264131,842.2444413158032
1731305173.934443,819.702347846759,-112.49236977259369,610.2948410794509,828.1689337463431
1731305173.9377694,839.7711727997054,190.28475070189805,671.4385296391783,811.0664295973737
1731305173.9383454,848.1795068615869,454.1006918222674,689.2588515359723,794.1059412332363
1731305173.9390388,841.1232045427982,567.3530204723565,655.1633962489743,781.3766713767824
1731305173.942248,824.0476888119675,546.7261798597226,599.2642812950762,775.8003442415109
1731305173.9461503,806.528330561272,506.14354796210085,565.3574274989118,777.3878869586548
1731305173.9500527,795.056654914826,551.3581460842873,575.1981372664661,783.1091703077008
1731305173.9539552,789.0051706105916,684.4582125350762,610.6634903830121,788.5178889049946
1731305173.95464,782.3731635075259,797.9079068255833,628.9120003911739,790.0571434773789
1731305173.9566157,769.5851674375472,765.7608968902512,598.1616842165851,786.5927001794311
1731305173.9578576,750.7643961827788,557.848526428639,523.3780860649435,779.3808057065728
1731305173.96176,732.4812038515377,280.6511986044629,439.99637363437853,770.7779409554664
1731305173.9656625,723.4288840289036,107.26623825758298,383.82465058655487,762.7130251385038
1731305173.968007,728.2236687941513,150.32537243318637,366.5835076526017,755.8589517877825
1731305173.969565,743.8431890024135,378.7481140025004,376.109160751093,749.7809973340884
1731305173.9702408,761.2229115192148,642.4172658992725,393.15484071242093,743.667405785031
1731305173.9734674,770.7886815471664,780.8506146191962,405.6226447855882,737.0052602004523
1731305173.9754615,768.0176517191676,728.1469521992259,411.4508532405846,729.8057550509551
1731305173.9773698,755.3928537595682,538.3515513647951,413.9861377324575,722.4238125519039
1731305173.9812722,739.9450411516011,326.3777076486382,416.74580333194274,715.2995679902072
1731305173.985175,728.6661376864109,183.8748755093136,421.10235408770666,708.8988666916057
1731305173.985842,725.125857152085,134.6779181479809,426.6422248846062,703.8471905897854
1731305173.989077,729.0999408286997,147.8115772363169,432.4404656633628,701.0028464248569
1731305173.9929795,738.4434317821641,178.59510775192553,437.9296305002094,701.2180315243636
1731305173.994308,750.9840810914679,199.48212336101656,443.0503511595803,704.797714992946
1731305173.996882,764.8727443163267,205.67746622749266,447.99875697700986,710.9868073314366
1731305174.0007844,777.7333171440548,204.56726307289006,452.9583246616063,717.9393374824837
1731305174.001443,786.2515295885117,203.96477026959636,457.99255153801744,723.413276094179
1731305174.002696,787.3614829398424,206.92140617787933,463.07380899829593,725.9708081185271
1731305174.0046868,780.4314027523926,212.5140649876247,468.1527035498358,726.0166203699481
1731305174.0085893,768.4965192198888,218.6806916539832,473.2015107295276,725.9067854805945
1731305174.0124917,756.9995468817043,224.1552106308917,478.2193147960876,728.7956097341571
1731305174.013154,750.4940279086376,228.80331384743695,483.21745237991524,736.7073216465126
1731305174.016394,749.6952577788803,233.0601088145303,488.2055644667535,749.0113640993598
1731305174.0170438,751.3674455697249,237.33278226720694,493.18664295358815,762.450226630972
1731305174.0202966,751.4710683126373,241.76135871580317,498.159120862892,772.9318435254377
1731305174.024199,749.2667688903209,246.28282953317876,503.12079668753756,777.9929600037524
1731305174.0281014,748.934768470413,250.78559778455815,508.07111381518445,778.1730967654954
1731305174.0320003,756.8894336120266,255.20623793463693,513.0110815656378,776.2030217173026
1731305174.032004,776.3304011011417,259.5410020054378,517.9417625684143,774.5737928367469
1731305174.032645,803.089895028638,263.8134925187557,522.8627381625388,773.4344967353137
1731305174.0359063,826.3458959835696,268.04369429602724,527.7719575568262,770.6302869456177
1731305174.0373852,834.3655341339264,272.23694074365767,532.6679054315448,763.9713025118742
1731305174.0398088,821.60623885308,276.3883431634125,537.5534523833988,753.8560691770051
1731305174.0437112,792.2571144483425,280.4910993320533,542.4380533789694,743.8730540802694
1731305174.0476136,757.7591267825317,284.54127845689857,547.333171444904,738.5565259697851
1731305174.048246,730.1765493802294,288.5381022127999,552.2387916290907,739.8973067098234
1731305174.0508463,716.1359255277188,292.4821146720999,557.1288570062004,745.4575486971031
1731305174.051516,715.2297619612109,296.3735886757573,561.9553192404771,749.8422994760908
1731305174.0554185,723.1085422384257,300.2120299156101,566.6895480478954,748.6262909390854
1731305174.0593207,736.0201800156765,303.99646301126455,571.3904321879705,741.7766046775417
1731305174.0632234,753.0069306820902,307.7258752385395,576.2355817592384,733.8762781574433
1731305174.0638473,774.4735206301306,311.39945102148926,581.4213325435848,730.8751597559268
1731305174.0671258,799.0457822794503,315.016570204339,586.9028649947124,735.7496149198084
1731305174.0696926,821.8769182004029,318.57670607949706,592.1400684302413,746.2587376806176
1731305174.0710282,836.0778538900372,322.0793442301236,596.2260061669276,756.3771131206726
1731305174.0720744,836.29798392474,325.52396119308287,598.7181558289737,760.2890255236892
1731305174.074931,821.9181856012192,328.9100423083604,600.8944457318436,756.1078963298806
1731305174.078833,797.8468932075436,332.23710537970345,606.1659688986015,746.8992732629819
1731305174.079448,772.7008113413638,335.50471214916655,617.9100841446427,738.6155250561037
1731305174.0827355,755.5961725939821,338.7124674438584,634.3977155314949,736.5766980124083
1731305174.086638,752.9997647160111,341.86001361700914,644.1674656950332,742.7701727957129
1731305174.0885386,766.4941390162787,344.9470264805075,628.6504745245393,755.3108691600638
1731305174.0905404,791.8375072560052,347.97321444188475,576.269263515152,769.8528149846762
1731305174.0944428,819.7162195302587,350.93831956148017,500.3522738621862,781.7479148501809
1731305174.0950491,838.5770567432451,353.8421187601596,442.35006346758604,787.7985886089859
1731305174.0983453,839.2006685867401,356.6844243055274,449.99568313665077,787.1394220543382
1731305174.1022477,819.3385399484713,359.46508363571604,544.3052712671821,781.3487041727846
1731305174.1061502,785.8385539408349,362.1839789435992,702.3833503292375,773.9535541424317
1731305174.1067634,752.3616859596611,364.84102683686064,869.9122792833458,769.3093964592257
1731305174.1073847,733.1154397269097,367.4361781465213,992.9934430913693,770.9076481709722
1731305174.1100526,735.6635861789423,369.9694178072143,1046.0904091827406,779.6346959925472
1731305174.11065,756.9274592143859,372.4407647166661,1038.986949741513,792.9436144439455
1731305174.113955,784.9567267097851,374.850271533268,1002.6557761922716,805.7196897146579
1731305174.1178577,805.666233256332,377.19802441882285,967.4767147786679,812.7000109045908
1731305174.12176,810.644295992098,379.4841427502244,948.6613296792195,811.222133093914
1731305174.125662,801.4221630130825,381.7087788165323,945.0438566287421,802.6789576074881
1731305174.126231,787.8070039775587,383.87211750483726,947.2495657242935,791.7514530550604
1731305174.126251,781.5906614745362,385.97437597093915,946.9204230077228,783.8551373485585
1731305174.1295643,789.695490519841,388.0158032905433,941.173230843172,782.3292376964652
1731305174.133467,810.839000235161,389.9966800896206,931.735508741282,786.991682494159
1731305174.1373694,837.2416906850225,391.91731815506404,921.7123673605462,794.7823006320766
1731305174.1412718,859.6590296026067,393.7780600274476,913.0691552974371,801.927130099423
1731305174.1414526,872.2832842998879,395.5792785770407,906.0209512564517,806.1242069473639
1731305174.141852,874.7599200588533,397.3213765633423,899.762689683141,807.329396698184
1731305174.1450772,870.8464486512767,399.00478617808824,893.4397818464778,806.9245092914174
1731305174.1451745,865.3304574577385,400.6299685722194,886.6774724191243,806.3309818944143
1731305174.1490767,861.4142611308802,402.19741336831214,879.5863887118165,806.2180970244624
1731305174.1529791,859.8538842249642,403.70763816045354,872.4827267919156,806.5524142398561
1731305174.1568816,859.7072899170943,405.16118800223956,865.597442291991,807.0320273244613
1731305174.1574533,859.6640128760605,406.55863488019395,858.9499038988445,807.4324892041352
1731305174.160784,858.9758861628258,407.90057716668895,852.4168492555623,807.7043450691336
1731305174.1639233,857.6324551557509,409.18763904825084,845.8902439707729,807.9048183889378
1731305174.1646864,856.0188524377347,410.4204699359195,839.3697158441732,808.1015009920058
1731305174.1685889,854.4974295604146,411.5997438802967,832.9226713096168,808.324383699103
1731305174.1724913,853.200937757459,412.7261590186839,826.5863147681669,808.5687014028338
1731305174.1730542,852.0638104348386,413.8004370535031,820.3318444187687,808.8178623523372
1731305174.1761415,850.9598662532196,414.82332269725197,814.118533053971,809.0606898483038
1731305174.1763935,849.8109332529062,415.795582965117,807.953975624388,809.2954483117426
1731305174.1802962,848.612480504464,416.7180062437317,801.8815468140341,809.5256740295097
1731305174.1827695,847.3995728311139,417.59140127918675,795.9191637066689,809.7550884347662
1731305174.1841986,846.2038496976534,418.4165965191328,790.0351642884377,809.9852949179424
1731305174.1881013,845.0347908587631,419.19444029084923,784.1918234792344,810.2161105672184
1731305174.1886551,843.8863145489482,419.925801706498,778.3956299170243,810.4468231164641
1731305174.1920035,842.7505858520411,420.61157097113136,772.687668250715,810.6770613641073
1731305174.195906,841.6240939940169,421.2526568664751,767.0892432502393,810.9069578103655
1731305174.1998084,840.505737348197,421.84998032140754,761.5753896557126,811.136906741783
1731305174.2016156,839.3950378112243,422.4044672109559,756.1091108780686,811.3672966915319
1731305174.2037108,838.2939883442486,422.91704880205504,750.6892629492252,811.5983904986213
1731305174.2042563,837.2079320830723,423.3886783028694,745.3499760961661,811.8303343350972
1731305174.2076132,836.141311757786,423.8203597688905,740.1148237390913,812.0632186691666
1731305174.2108307,835.0920194314194,424.2131626739286,734.966677897386,812.2971492614074
1731305174.2115157,834.0517299090395,424.56818087365883,729.8711287180739,812.532321334873
1731305174.215418,833.0134457938042,424.88642076503396,724.8209845333395,812.7690695761943
1731305174.2193203,831.9794562670421,425.16868620236266,719.843746391752,813.0078148187284
1731305174.2198572,830.9626420740765,425.4156220565907,714.9639422208581,813.2488355848106
1731305174.2204618,829.9798576113129,425.6280624234395,710.1707144852147,813.4919432862571
1731305174.223223,829.039935511627,425.8075802920625,705.4324165421147,813.736393740776
1731305174.2271254,828.1302746100089,425.95670573387855,700.7375527572086,813.9814766265438
1731305174.2310278,827.211368258908,426.0780545764672,696.1078793987996,814.2278298523245
1731305174.2349305,826.2346341946605,426.1721878057765,691.5676532773865,814.4785335699013
1731305174.235458,825.1882365848146,426.2356286920967,687.1108133714044,814.7381021522224
1731305174.2388327,824.1419293847721,426.26212855962535,682.7089881566723,815.0080500760342
1731305174.239308,823.2358135572322,426.2496505826214,678.3481269192284,815.2809311190325
1731305174.2427351,822.5869674969958,426.2105068863258,674.0446810609077,815.5394889552838
1731305174.24552,822.172276369321,426.1741055993825,669.8212621945869,815.7689304690069
1731305174.2466376,821.8021111795889,426.16854433263927,665.6755530213469,815.9818762437106
1731305174.25054,821.2356314697971,426.17985060744576,661.5831989719485,816.2364982928898
1731305174.2510593,820.3441516862925,426.1187916087188,657.5289476036091,816.6123289150466
1731305174.2544425,819.1740784779879,425.8545374735357,653.5240939335384,817.1224116319737
1731305174.2581542,817.871681735396,425.35798842517585,649.5886495635233,817.603994701247
1731305174.258345,816.565859856608,424.90130995503796,645.7234378292428,817.7149384764837
1731305174.262247,815.3096040567467,425.12717200099297,641.9084814990724,817.1712549273046
1731305174.2661498,814.0940999389126,426.8034038773695,638.127963524458,816.169461923562
1731305174.2666602,812.8907509241371,430.3601646591704,634.3882687672599,815.6062385993613
1731305174.2700522,811.680737292297,435.60612007394496,630.7067561711289,816.671090389417
1731305174.2739546,810.4613307374195,441.87180850706324,627.0873810745517,819.9391016868633
1731305174.2770002,809.2384616683988,448.397596186514,623.5146184165663,824.6569895201743
1731305174.2778573,808.0180833152497,454.66448620873024,619.9719343751856,828.773028846246
1731305174.2802088,806.80243468915,460.54605924494786,616.4599773599602,829.6862818543649
1731305174.2817595,805.5907508979827,466.25092500610776,612.9921050362294,825.3446622148538
1731305174.2822614,804.3814436884377,472.067124378558,609.5752799657924,815.2519321583786
1731305174.285662,803.173552462584,478.0790656072573,606.202034983065,800.9447131061291
1731305174.2895644,801.9669751490114,484.11304899779293,602.8619532864285,785.6320041201387
1731305174.2934668,800.7620294747069,489.96450428708613,599.5534490972303,773.0516046305098
1731305174.2958465,799.5589992178265,495.6528382722529,596.2769832812652,766.0393084884862
1731305174.2973692,798.3579573044483,501.41526349925573,593.0201519042015,765.5185856215616
1731305174.2978623,797.1588212690654,507.44695270490104,589.763478142092,770.4134372638047
1731305174.3012717,795.9614798399922,513.6694952739309,586.5131319293305,778.4640730371952
1731305174.305174,794.7658755415791,519.7559729103664,583.3242817103178,787.4045732580249
1731305174.3090763,793.5720116244485,525.3730111118922,580.2684249528656,795.7787729881958
1731305174.312979,792.3799019965022,530.4527208505101,577.3446841625414,802.9625560854385
1731305174.3134634,791.189502276533,535.3654287174264,574.406222067587,808.5563749888328
1731305174.3146925,790.0006746848746,540.8997228688175,571.2038895388453,811.7979896028454
1731305174.314898,788.8132470719015,547.8712259772241,567.5913318079889,811.6269692165814
1731305174.3168814,787.6271861974807,556.2825215676249,563.7934209581513,807.4576619361013
1731305174.320784,786.442785037809,564.5242625395166,560.4914534843168,800.0059431266881
1731305174.3246863,785.2606187366187,569.7094244027365,558.4688617558504,791.2947889905063
1731305174.3285887,784.0810330157825,569.8486450380766,557.8198369786483,783.5390807488145
1731305174.3290644,782.903290394384,566.8242319601575,557.2043626566796,777.6050469871712
1731305174.3324912,781.7251600967745,567.3496133359945,554.00366424461,772.3093157627364
1731305174.3335388,780.5441345397282,579.6382958820404,546.0042824976271,765.3551924150585
1731305174.3363936,779.3606608521432,607.1021037083742,534.1990947315746,755.4329066414336
1731305174.340296,778.1813629333451,644.3372125462407,524.9126036800982,743.9335530830094
1731305174.3441985,777.0175581521391,680.3720508696455,528.8589032204196,734.8062571766234
1731305174.3446653,775.874983626925,707.9963520130384,555.9663888946849,732.3920992448561
1731305174.348101,774.7380066229682,730.6321927252068,607.760077499402,738.6264720045717
1731305174.349587,773.5639564325692,757.7916221423754,672.0412876248404,751.5673088457329
1731305174.352003,772.309247546397,790.0271738683975,724.9552855136394,766.2967082948951
1731305174.3523848,770.9915026171738,807.0307400225662,741.819834682119,777.5581752723413
1731305174.3559058,769.7451574874624,774.5868706800901,711.7877149670353,782.3421946842294
1731305174.3598082,768.7811772152443,671.1500605573901,646.8831338502297,780.8619525844318
1731305174.3602664,768.1825753651722,513.6340407214193,577.6079008352206,775.6768877717301
1731305174.3637106,767.616196825332,355.77505328311577,535.6930059950048,769.9971290812639
1731305174.3676133,766.2718040175785,252.45197683152657,534.5159360553233,766.4551387574486
1731305174.3712313,763.4282013007496,215.85421662319354,561.2417843774177,766.830003850851
1731305174.3715155,759.6849286008405,203.82401982366588,587.4944767086334,772.2173157936553
1731305174.375418,758.0433316855712,158.0042677878634,591.4175194465083,782.8815083652705
1731305174.3758674,763.3468688038355,64.43485843864221,574.1790418318078,797.662782775363
1731305174.3793204,779.3230485557841,-17.69652256152898,557.4635917071726,813.6232803287155
1731305174.3832228,804.8102819411561,7.3741790938098575,564.0011697200789,826.7323181819938
1731305174.3842762,832.5175816038238,192.8184657280072,598.1606831401837,833.6101826981483
1731305174.3871253,852.2924556161588,493.1621514614118,643.7200284207084,833.3429847334268
1731305174.390077,857.0654623730629,784.4476945348363,679.1989413179057,828.0704113974198
1731305174.3910277,847.0708183231084,950.9037071007415,694.3520855875106,821.7792699668781
1731305174.3914683,829.1496896319811,968.5769776985949,693.3766987297918,817.9768015655618
1731305174.39493,811.8338482402652,914.6782209942327,686.5664648453419,817.7207110184387
1731305174.3988326,800.110906620518,893.4180034728389,681.4722104664545,819.2551998893327
1731305174.402735,793.7011931919028,942.2222346873308,680.0951045231336,819.4329506245695
1731305174.4066374,789.5719111937715,1000.8318319909451,680.9133742370519,815.9572123960763
1731305174.4070694,785.9696220809413,971.1560677078955,681.8784734219686,809.0100847739732
1731305174.4089234,784.2915747655676,814.9960481302427,682.0072835175503,801.2918546959016
1731305174.41054,787.2893775030091,601.8828792903015,681.392719187993,796.5275864568537
1731305174.4144423,795.4478610557787,462.198026842355,680.5333351856141,797.4240621230072
1731305174.4183447,805.0512484018323,483.79090025142983,679.7908736564156,804.3180861726634
1731305174.418965,810.0536729114234,639.8170484263107,679.2423194394181,815.2284842549714
1731305174.4222472,806.5926874127958,808.1677561385942,678.7941515533948,827.0940058769908
1731305174.4226704,796.553933888739,864.1527057960616,678.3379654841473,837.2779736184391
1731305174.4261496,787.057184743583,768.2142997372957,677.8266594731127,844.3988957730879
1731305174.4277694,785.8023344519025,580.430112310045,677.2688800030403,848.1650748231309
1731305174.430052,795.5016581305885,400.56713461863296,676.6918057715185,848.6563775197582
1731305174.4339545,811.5294094742987,294.0974877982604,676.1135771533089,845.8317713571893
1731305174.437857,824.6695481843473,267.2044116020596,675.537098621962,839.723528895164
1731305174.4382715,827.1094232930861,300.1709634957968,674.9569002201011,831.096944633964
1731305174.441759,817.4418168069473,392.1917733805289,674.3673248011012,821.871177142562
1731305174.4456618,801.2036836260122,564.3582313523615,673.766169399626,814.7067666091915
1731305174.4466157,786.7893656919708,814.8633631985406,673.1540973599508,811.7933584370433
1731305174.4495642,779.8972930509314,1074.218102617975,672.5325998814726,813.5391987558822
1731305174.453467,780.5181370559151,1215.8301398726826,671.9026076871892,818.0594078906256
1731305174.4536543,784.3181442920371,1129.5765502869383,671.2642495347475,821.9171381101453
1731305174.4538724,786.8880075654224,805.7176904688883,670.6172544935656,821.7858160200742
1731305174.457369,787.3442645040809,359.15593280627894,669.9613795108376,816.1065449600782
1731305174.4612715,788.6006684208832,-32.34827278731234,669.2965806222128,805.805950107904
1731305174.465174,794.4313623688353,-233.7151746056723,668.6229669107942,793.7059606299736
1731305174.4654615,805.9154379526133,-224.11527069338666,667.9406897505648,783.0144362949766
1731305174.4690764,820.1080315736033,-84.55422798681587,667.2498733442574,775.7584901081202
1731305174.4694736,831.8298613473055,81.49474378915056,666.5506063789651,771.9618715922362
1731305174.4729788,837.0290394584547,226.984828176783,665.8429652208434,769.8835179947854
1731305174.4768813,835.1672128111444,378.5105741186386,665.1270362568893,767.0687216283526
1731305174.4807837,829.0983608024166,584.9821729876845,664.4029238394947,761.6320137121232
1731305174.484308,822.8937761415337,846.4957486610647,663.6707466531393,753.1924605321361
1731305174.484686,819.3927490116686,1084.8797774532247,662.9306306437481,743.1125176147965
1731305174.4850743,819.0768548405777,1181.1130826372917,662.1827044104481,733.9873476058465
1731305174.4883437,820.619733007139,1052.0428317160486,661.427099241111,728.595569107603
1731305174.4885886,822.286757911135,710.7778441024952,660.6639534561798,728.7228049309823
1731305174.4924908,823.060094758492,269.2086900222481,659.8934185187738,734.359302625725
1731305174.4963932,822.9053568859244,-117.98238993444107,659.1156614760856,743.6663781094625
1731305174.5002956,822.3468867144213,-331.7870227940322,658.3308569371558,753.7701381762938
1731305174.5006757,821.8948499630704,-343.7601939192485,657.539167094356,762.0052494715926
1731305174.503154,821.7429163008334,-219.2931288497162,656.740722752656,766.9645140295676
1731305174.504198,821.8030797569174,-72.30787308973055,655.9356336862288,768.8230643178613
1731305174.5081005,821.8968892622611,-0.07335014639863857,655.1240516765099,768.8532082607669
1731305174.5120027,821.9067053560931,-34.93100990583497,654.3062642243207,768.5242429142276
1731305174.5159054,821.8138372919634,-137.71264858020237,653.4827232935644,768.7611668733889
1731305174.5162766,821.6600817736843,-232.24363377364335,652.6538810304276,769.7241874695367
1731305174.5198078,821.4954308397137,-255.4767645905253,651.8198150791817,771.0704678677339
1731305174.5220003,821.3462182367457,-189.16767572409634,650.9799088856753,772.3809115085993
1731305174.5230324,821.2086185691013,-54.10732538885662,650.1331245184492,773.440239500477
1731305174.5237105,821.0611812260022,122.3204131605973,649.2792573927508,774.2660114421908
1731305174.5276127,820.8855393774372,332.87179560682,648.4206518691518,774.9835097527588
1731305174.5315151,820.6801255852404,585.0871481126769,647.5624968948466,775.6986934845345
1731305174.5318775,820.456386172845,868.4374362889114,646.7093941252626,776.4485347264696
1731305174.5354176,820.2232922937266,1127.9775965445053,645.8582611166128,777.2161247373127
1731305174.53932,819.9778631041279,1277.5823843769508,644.9930814963136,777.9647378895562
1731305174.5408463,819.7113437914824,1251.4277979173698,644.0917595932291,778.6637899524371
1731305174.5432224,819.4212399081212,1053.8211406172352,643.1517131644131,779.3025335252397
1731305174.5471249,819.1130424584691,762.0174153540519,642.2235223342467,779.8912889022315
1731305174.547479,818.7903495050206,473.8081236431299,641.4195300481294,780.4490902739802
1731305174.5510273,818.4482463525711,240.82712043537765,640.8674265573753,780.985544435546
1731305174.5549295,818.0803284161835,44.52858895837147,640.6304081049594,781.4932770054355
1731305174.5577216,817.6902684643082,-163.12684774442158,640.6642601975351,781.9585321230478
1731305174.5588322,817.2904541287209,-389.58187558629385,640.8473317572783,782.3773274055345
1731305174.5596926,816.8852635702038,-566.1946107734868,641.0443083146843,782.7580356786722
1731305174.5627346,816.4574049207566,-583.9702474844428,641.1571278357366,783.1083412919845
1731305174.5630796,815.9770077030079,-375.96208556166783,641.1542424396589,783.4242042580153
1731305174.566637,815.4319134584234,19.92733931050151,641.0718911842155,783.6952135114409
1731305174.5705397,814.8546047775123,469.6342346719498,640.9739155117852,783.9187504306486
1731305174.574442,814.3164811537667,817.2958668668591,640.890917131652,784.1037907651618
1731305174.5783443,813.8771983408061,968.7220863738203,640.7937578603286,784.2591720519999
1731305174.578539,813.5088961696256,925.8532909578439,640.6280239455168,784.3817313073957
1731305174.5786808,813.0520640041876,758.8952046509935,640.3706020204564,784.4594027001245
1731305174.5822468,812.2766365877617,551.2747183989071,640.0501891603288,784.4842544111699
1731305174.5861492,811.0762671797041,363.1137057891902,639.7228594568822,784.4582182013538
1731305174.5900517,809.6984185165081,228.68382146461352,639.4399003038733,784.3861145528314
1731305174.5924108,808.7814736797953,167.13595466179106,639.225786664,784.2687483342688
1731305174.593954,808.9907449844796,179.88028891579972,639.0425908564046,784.1068137379376
1731305174.5942817,810.3219107638387,234.55027106994936,638.7437847291106,783.9086305179458
1731305174.5973847,811.5429178522593,262.6040543077903,638.1052781062299,783.6895599908123
1731305174.5978563,810.4057150073671,193.012309919592,637.0256450652762,783.4638820165407
1731305174.601759,804.8603652928637,9.057953581662218,635.8117978660009,783.2387027100591
1731305174.6056614,794.6711584433349,-216.6145790329693,635.234893167867,783.0143339616268
1731305174.6095638,782.2131829411637,-347.35849856292344,636.0490631917276,782.7882210152551
1731305174.6098828,771.518399278871,-262.37832498702795,638.0801134035248,782.5582671884265
1731305174.6134665,765.884750084036,61.320954680693944,639.5860314618751,782.323928096635
1731305174.616231,765.6765561834366,524.7444182939265,637.8154744173647,782.0856979060625
1731305174.6173687,768.1260784779777,960.2873731465966,631.1001402260163,781.8442366389143
1731305174.6212711,769.5689412773083,1226.6666648578816,621.5533282918609,781.5998921072966
1731305174.6251736,768.5495424068394,1281.8234376682474,616.3445795117113,781.3526913352256
1731305174.6254838,767.2981016666636,1190.015937949954,625.6354056373885,781.1025394834265
1731305174.6270998,770.1854092539343,1067.1098721221913,657.0346874503457,780.8493837564113
1731305174.629076,780.1758325640035,1005.931340642112,709.0761086338281,780.5932598734222
1731305174.6329784,796.0494880495972,1027.4580196311374,767.9330618809478,780.3342590738491
1731305174.6350772,812.6883595532328,1079.056284446596,810.7042725503229,780.0724816420957
1731305174.6368809,824.3004164970057,1071.3818157130252,815.0032605285282,779.8080136643661
1731305174.6407833,828.0870469339408,929.5261442076247,770.238154655321,779.5409280997188
