timestamps,eeg_1,eeg_2,eeg_3,eeg_4
1731139312.3654351,812.1998806796377,793.9865893120538,825.5751979895746,810.0060716788361
1731139312.3843331,809.8420924532716,794.04828592868,827.9943886845565,810.6638188798405
1731139312.4032311,776.8982689331392,795.8666177519154,805.9522752753232,797.2834623759671
1731139312.4083664,707.4383513117239,800.2507574648403,753.191343658309,765.5802004518714
1731139312.412267,625.9457854969962,806.5098238417062,686.6763272987896,723.6809179314852
1731139312.4161673,569.7487880113617,812.5533992457227,634.8510088712472,685.9556375111324
1731139312.4200678,561.5579922605581,815.6585600361562,617.7214923362134,662.8721485612707
1731139312.4214156,593.219203758904,813.6381026177454,633.3310749183199,654.5719343634036
1731139312.4221292,633.0564161157085,805.9314842472382,660.3858916674584,652.7357982883897
1731139312.423968,650.6324303764691,794.106086821519,674.6300923930814,648.671928081939
1731139312.4278686,639.0292445371713,781.4468108161664,666.2233050105592,640.7028002449571
1731139312.431769,617.0963202388248,771.6883806446322,644.9634752177351,634.7912929674765
1731139312.4356694,610.8690180050987,767.3958328892166,630.1850470731351,638.2365553513464
1731139312.4370005,630.6060503751833,768.801083607728,634.4675093963892,652.2282089372848
1731139312.4395697,662.9367968460084,773.7797699552896,654.7169371256223,669.9428082336126
1731139312.4410272,683.9291952815231,779.0434582940973,677.1587803278189,681.9195761928487
1731139312.4434702,680.6403521164157,781.8864468049436,690.5853596209664,684.0381892700491
1731139312.4473703,661.905905263037,781.5014360360736,695.5010132629421,681.180994855149
1731139312.4512713,649.3541169991153,779.1851835994989,701.2770245608269,683.4518819181467
1731139312.4525847,657.4139711277915,777.422239086171,714.8213291591748,698.186638187073
1731139312.455171,680.6128838084612,778.4129376876482,732.1883232845656,724.3899684891863
1731139312.459072,699.4987274281197,782.8377673429765,741.6568287084456,753.9135814346187
1731139312.4599252,699.4349195057665,789.4898534500011,735.5625532367432,777.8691700045407
1731139312.4629722,684.6717320686721,795.9437030696755,719.0946485399443,792.5583633888444
1731139312.4668727,674.3683904935435,799.8618794858919,706.4599634579772,800.1542218665126
1731139312.4681697,684.0288254336976,800.191928577381,706.9835517568986,804.4306662005713
1731139312.470773,709.7469454707059,797.6121263119614,714.4565053766595,806.2902170588604
1731139312.4746735,730.4890402941526,794.0650869382256,711.344595568981,803.5845836112159
1731139312.4785738,726.9588806353206,791.7265248627468,685.827802355109,795.1158915485377
1731139312.4788232,699.8629175181883,791.9902297468959,646.5407640280588,784.2884015858051
1731139312.4824743,670.5249980604078,794.9532244756666,620.2695029730789,778.0323862733763
1731139312.483754,662.8808703766488,799.5813512755395,632.4170003836584,781.2898361887793
1731139312.4863746,682.9893798150401,804.3884660252503,685.9031667272379,792.0428647995725
1731139312.4902751,714.4546984800337,808.2229924446548,756.6173112223483,801.9449427678819
1731139312.4941754,733.5538903791693,810.736371890047,809.8600127136381,802.7526898093066
1731139312.4977212,729.980342305538,812.3152113682477,824.4137989603594,793.3200518577747
1731139312.498076,714.399663677469,813.5705887905727,804.8171538290721,780.9855129390793
1731139312.4993386,706.6034368684351,814.7257886477199,773.2390078481785,775.8477849076492
1731139312.5019765,716.044369300414,815.3054038392286,749.910519552604,782.6580653432153
1731139312.5058768,733.1932811209876,814.3582385620522,739.5211295223575,797.2493272272766
1731139312.5097773,739.5168481095488,811.1029697549466,733.5105396458392,810.4955444260581
1731139312.5136776,726.2039642067832,805.5702777492742,722.8755267047816,816.1975457068363
1731139312.514923,703.6761685514571,798.7829045123963,707.6224121825786,815.9337907975392
1731139312.5166192,692.7042294042807,792.3374927741146,694.4659778477936,816.7635667112838
1731139312.517578,705.1237708934709,787.6857824842964,687.2319257809742,824.0774016699906
1731139312.5214784,731.8036538166859,785.5942116829608,681.5749829577226,836.0869099593755
1731139312.5253787,749.1267415346771,786.0562525455541,670.3885011529445,844.8058726459317
1731139312.5292792,738.8909577439636,788.55497156611,654.4243594372106,842.5504673809827
1731139312.5305078,704.8342116578165,792.361597219001,646.2982622082853,828.2386615680324
1731139312.5331795,671.8733496935994,796.6643595514983,661.8116595165594,808.1932553297008
1731139312.5355172,668.6078945765478,800.6084910685674,705.0788036219343,791.1381131060506
1731139312.53708,707.0284149172148,803.464908563258,761.1617769727387,782.0212816974458
1731139312.5409803,774.7512811343814,804.9292099653196,804.3730165793281,779.842077729855
1731139312.5448809,844.3464550032985,805.2537487323399,816.6435173823161,780.6013659785253
1731139312.5460925,891.2552694001242,805.0151001552904,800.8767317714214,781.8379771442206
1731139312.5487812,906.9200132818006,804.7214384720362,777.9003743155163,784.2998663117788
1731139312.5526817,899.5024534417391,804.5955643165452,769.4529174924276,789.6938879392687
1731139312.5544152,884.6305531206474,804.6184220336845,781.3841215963166,797.5571200495763
1731139312.556582,874.6311238376456,804.6854231247734,800.6624258944892,804.9760640392863
1731139312.5604825,873.3223911947327,804.7226928791366,807.7065650665087,809.5897190212722
1731139312.5616772,877.6516999870449,804.7164184838579,792.8217938671592,812.5299392636766
1731139312.5643828,882.6353902506792,804.6874712816768,763.039936224925,817.6699365166716
1731139312.568283,885.2453916351807,804.6586763516073,734.9240956111654,827.2488183263362
1731139312.5721836,885.2940974425857,804.6394744724258,721.1384840115146,838.0081754277636
1731139312.5733132,884.149937598535,804.6276764979333,722.9580992946799,842.1872835463631
1731139312.576084,883.1533916207467,804.617478999802,734.1187368835284,833.4445857338816
1731139312.5772617,882.8719971671875,804.605166198016,750.3429885372924,812.8429368754734
1731139312.5799844,883.1781234610924,804.5902557739624,773.9617002094445,789.2798121603506
1731139312.583885,883.6389088132188,804.5739707711846,808.6846953050108,773.3045006872392
1731139312.5877852,883.8686458038139,804.5575170951853,850.185367115295,769.2394722192776
1731139312.5916858,883.7356998203462,804.5413537427286,883.4385169758149,772.4002941371018
1731139312.5922112,883.3760805952884,804.525345690174,892.2020549909378,774.0021704351486
1731139312.5928464,883.0175028974398,804.5092006089749,874.2123668631824,769.5958248050094
1731139312.595586,882.7630974580513,804.4927547000608,848.3517700749537,763.5879139869778
1731139312.5994866,882.5353555220636,804.4760151296094,844.7367927039701,765.6411679699606
1731139312.6033869,882.2086331842522,804.4590714164727,882.5828553675767,781.8403641650305
1731139312.6072874,881.7547689183987,804.4420058784339,952.4456604798187,808.2809206414165
1731139312.6074152,881.2445234837887,804.424859446322,1018.352207591544,832.8841200017912
1731139312.6084309,880.7415163523443,804.4076422308614,1040.8416983397667,844.1845687638676
1731139312.6111093,880.2349860664773,804.3903563712919,1004.9778072058336,839.6904417972721
1731139312.6111877,879.6735596322407,804.3730101556464,932.0180580449997,826.7849676595507
1731139312.6150882,879.0308374133925,804.3556208720745,865.0277699845661,815.9379143522209
1731139312.6189885,878.3191408219702,804.3382128379268,838.8134727921221,812.8851034846197
1731139312.622889,877.5551848859236,804.3208149122959,857.0414217544352,816.4400602835889
1731139312.6240156,876.7440805885044,804.3034557400861,893.7864225236217,822.0967834921711
1731139312.626789,875.9135818756079,804.286153480668,917.1912620984702,826.458204049182
1731139312.6300073,875.142586899223,804.2689038797205,915.2993427547275,828.7888213113089
1731139312.63069,874.4960789424782,804.251681864768,903.0285632242891,830.0141118412699
1731139312.63459,873.8759527388366,804.2344739192813,905.5886095758515,831.2140026289885
1731139312.638491,872.957400978008,804.217336290909,933.6133516287259,832.866270301037
1731139312.6396005,871.4074409685935,804.2004290101739,971.9447886750904,834.893496928437
1731139312.6421692,869.3427205214776,804.1839438692962,991.7663660337857,837.0288280315904
1731139312.642391,867.6219807115974,804.1678899736148,975.29193122299,839.0911171523576
1731139312.6462915,867.461244431227,804.1518593907898,931.2462101292008,841.0494943429209
1731139312.6489053,869.2867060145443,804.1350868968468,887.4395986091971,842.9571740073372
1731139312.650192,871.5535097612486,804.1171063120655,866.8287243265361,844.8704481710096
1731139312.6540923,870.835869033503,804.0988381034194,868.079761008601,846.8119373080217
1731139312.6551847,864.0720756692734,804.083091102101,868.0007860396574,848.7758290662613
1731139312.6579928,852.180998678779,804.0729465192937,844.251218082128,850.7478920968277
1731139312.6618931,842.2698621076099,804.0674864835303,798.7341578802956,852.7193362127855
1731139312.6657937,845.2634110969933,804.057314886307,760.6634108840638,854.6893683185984
1731139312.6678033,868.4667893761641,804.0253710533295,765.0420959351014,856.6612926956689
1731139312.669694,907.2950863821108,803.9566125521058,823.2525043769849,858.6382711347165
1731139312.6707697,943.3069734528065,803.8505298584151,909.9491831388955,860.6215816328632
1731139312.6735945,952.9237757214228,803.7232276057555,977.976681627625,862.6110352918313
1731139312.6769233,923.1802661055475,803.5950931486584,990.7270688670765,864.6060634517788
1731139312.6774948,863.4532662905874,803.4768269597521,947.3981919063995,866.606427972665
1731139312.6813953,802.606544933149,803.3671652339511,882.1686076777138,868.6123452398144
1731139312.6852956,771.050479757373,803.260541768595,838.5903613310829,870.6242836977988
1731139312.686354,779.8213969841066,803.1537983078413,839.1670902312825,872.6427076409078
1731139312.6867013,813.0507538338304,803.0462805237614,872.6878469422628,874.667876069476
1731139312.689196,840.941673202415,802.9370871358952,907.176000655626,876.6997302130715
1731139312.6930964,843.9007852824586,802.8253289415668,916.5189630857163,878.7379662550168
1731139312.6969967,828.3863900859509,802.7129002785992,899.4359320896699,880.7824271325676
1731139312.7008972,820.760512454394,802.6041076499333,876.985534834121,882.8337414538679
1731139312.7019386,843.3496999912568,802.5007448569721,872.4506641686809,884.8936709029913
1731139312.7047975,892.43690310477,802.399087075957,890.9453615145077,886.9642925655368
1731139312.7055993,937.4861456471184,802.2940900402433,915.2549887369559,889.0456470404065
1731139312.708698,943.9226599268727,802.1859609045559,920.6659839222468,891.1332183313757
1731139312.7116773,901.8081541601836,802.0800095464882,896.2054587377155,893.2186767568672
1731139312.7125986,836.5841480671983,801.9796542430266,854.8455945960243,895.2971336583197
1731139312.7164989,791.6347591945256,801.8820963735807,824.3017485976599,897.379003839255
1731139312.717523,795.3062108378174,801.7823105819109,825.6139970914022,899.4953463158639
1731139312.7203994,838.5161332176594,801.6793846005148,856.4493342242722,901.6802674004562
1731139312.7242997,881.5648494915947,801.5767793818026,892.4353629888085,903.9255330422606
1731139312.7244973,885.6356731681738,801.4774160952759,905.763186033277,906.1364876249731
1731139312.7282002,844.2747184910745,801.3811875807828,886.7970726161891,908.1550423399129
1731139312.7321005,789.532159131784,801.2874358910151,851.9954376269139,909.9051310791829
1731139312.7331078,767.360190946784,801.1968536109084,831.9029841296826,911.6111687535017
1731139312.736001,801.4277550089349,801.1083456548114,848.1382890673702,913.8673212773015
1731139312.7399013,873.8899606575734,801.0149767089955,896.4952464905982,917.2544955291845
1731139312.743395,938.2456227298999,800.90733731572,948.4527077310082,921.448047302722
1731139312.7438018,954.0476929179187,800.7859649806571,969.6360148625818,924.3952428592634
1731139312.7464314,916.2478797421597,800.6722680338944,941.7697685623916,922.7199693606283
1731139312.747702,856.7386176203589,800.6015457533025,873.1323478483006,913.9921171129592
1731139312.7486925,817.9927512555225,800.5917024293528,791.7266192580603,899.4030212798841
1731139312.7516026,820.4837984471485,800.6056982413963,727.6036808850122,883.8835016239491
1731139312.7555027,849.5333102148093,800.5467208672139,696.9505844557393,872.7919143015046
1731139312.7594037,870.7384261769714,800.3164919009707,697.2276170637297,868.1715264343273
1731139312.762293,859.9690105737893,799.9201708559924,713.763242176859,868.0259218968764
1731139312.7633038,822.8765891914946,799.544210377842,730.988326045477,868.6716163142537
1731139312.7642772,788.4671695792906,799.5188252408424,740.4578303308776,867.5442642202955
1731139312.7672043,783.1595906663053,800.1378369706687,742.1012084888283,864.2959110790705
1731139312.7711046,807.708177764781,801.4204616832034,740.4106498027832,860.054528091547
1731139312.775005,836.4561423678325,802.9813727358872,739.7310669313513,856.0643815181907
1731139312.7789054,839.3575157157845,804.1448121354678,741.7695445547378,852.8552523242714
1731139312.7798617,808.0333170088591,804.2860825844376,745.8242273397736,850.244227790597
1731139312.7811854,763.7305301561021,803.2055234908964,750.3540064480537,847.7874699850859
1731139312.781191,740.1935588798791,801.2808634222458,754.3051996482636,845.1805519529476
1731139312.782806,755.5280288428542,799.2751008595138,757.5031163357344,842.3779573513476
1731139312.7867062,796.5882091719504,797.9154914156651,760.3277992013897,839.4949810480829
1731139312.7906067,829.2755724692695,797.5201269269239,763.2198680240849,836.6603686456618
1731139312.794507,826.6521433784524,797.9032387232478,766.387570353076,833.9317327747324
1731139312.7954464,791.7114714445944,798.5810144773036,769.7857921341575,831.2919386099898
1731139312.7984076,755.6353399382015,799.0987628195572,773.2571412095281,828.6919589868555
1731139312.8000894,752.3591719535056,799.2554465976444,776.6869671635848,826.0972328738857
1731139312.8023078,789.9342203865059,799.1184582997631,780.0688526884619,823.5076231426217
1731139312.8062084,842.2582079488956,798.8827454406428,783.4633414263363,820.9444479782388
1731139312.810109,868.5065935261506,798.7101111193823,786.9164350538466,818.423345999701
1731139312.8110309,845.1571287915549,798.6520019503841,790.4232112517632,815.9407622842718
1731139312.8140092,785.1398068432661,798.6694510854115,793.9579960362747,813.4841971202128
1731139312.8159397,728.8252501254606,798.6975152099803,797.5165817460694,811.049826086634
1731139312.8179097,714.0202347223089,798.695615541556,801.1148217961673,808.6455992693651
1731139312.8189874,748.675544027202,798.6600195970848,804.7553579343272,806.2784805952549
1731139312.82181,807.3767661028518,798.6089958574636,808.4179828636562,803.9442660572169
1731139312.8257103,853.2880084736032,798.5621088473158,812.0924847533624,801.6332189346464
1731139312.8266156,866.9761637734864,798.5277895848229,815.8079768522678,799.3431942113122
1731139312.8296108,858.8040740213619,798.5025188590001,819.6087017542028,797.0824525434402
1731139312.833511,855.8387419005583,798.4779422792741,823.4918746157514,794.8583431228401
1731139312.8374116,875.4645890073419,798.4489633468894,827.3787018242617,792.666710412806
1731139312.8378854,908.6016235338204,798.4165880300073,831.168771778732,790.4963356050857
1731139312.841312,926.9515846860075,798.3845276322784,834.8506641398216,788.3436285017206
1731139312.8422005,908.2408706572477,798.3544003723487,838.5786875840513,786.218971162802
1731139312.8452125,858.0250147444901,798.324781671257,842.6225333701466,784.1351540068754
1731139312.8491127,809.0630019430789,798.2940764885104,847.1580469484928,782.0899822024796
1731139312.8506937,797.6242188126505,798.2628284717889,851.9882350916146,780.063507105835
1731139312.8530133,835.3023303206198,798.2326640658225,856.4314352759192,778.03538545213
1731139312.8567834,899.1518722965503,798.203788437286,859.660181402597,776.0070664922579
1731139312.8569136,948.5802737586591,798.1745423874017,861.5284897665747,774.0090764110412
1731139312.8577847,955.9542881680306,798.1435080769397,863.3704636080492,772.0856779919744
1731139312.860814,926.712914730574,798.1113756511281,867.7983725259896,770.2613562540375
1731139312.8647144,893.0767721506527,798.0802599494094,876.8583182036793,768.5015973585196
1731139312.868615,886.6375918671978,798.051364425695,889.2795871518817,766.6957678319632
1731139312.8725152,912.1186085621113,798.0237178681685,899.130329528672,764.7062128590462
1731139312.8733697,943.6093927465872,797.9951225720876,898.264520476277,762.5029076480711
1731139312.8756814,946.3163238253297,797.9637678009788,882.4646696150971,760.3088369192196
1731139312.8764155,906.1025731758516,797.9288918674315,857.3814189139848,758.5802033586322
1731139312.880316,842.6923201849627,797.8915008964682,838.5901247863087,757.6822000153481
1731139312.8842163,795.6055290919361,797.8569978654191,843.1210436632095,757.3773082546084
1731139312.8854475,793.9484435823529,797.8375773006846,876.6556826240778,756.5721589572836
1731139312.8881173,834.1807061605522,797.8485997436126,925.9330607178495,753.8191394759073
1731139312.888954,883.4152060589337,797.8984914189775,964.1499377163473,748.5826293503296
1731139312.8920174,905.1539509786624,797.9816363915575,967.8745984520303,742.4629637129228
1731139312.8945794,886.5152378579571,798.0824245108612,933.9133980440907,739.1301264381074
1731139312.895918,845.4085746483258,798.18596353234,882.6641077372141,742.3381826028408
1731139312.8998182,812.9723990755448,798.2850509083762,843.9391889318708,752.9612231488616
1731139312.9037187,806.8321899303847,798.3796645396699,835.3635250444747,767.342449657354
1731139312.9045386,817.6976180376141,798.4726796160866,850.3855852517148,778.9256892471784
1731139312.907619,819.9922535968153,798.5663546509556,865.867361788628,782.8138809182408
1731139312.9115195,796.7029802019009,798.6612511448913,863.1268310762639,780.1258340743129
1731139312.9134774,756.6580701378966,798.7568441993249,844.6191212622805,778.3008345500698
1731139312.9154198,728.9558455242569,798.8524686199293,831.6543880630066,786.0857791977103
1731139312.9193203,738.7365241549119,798.9478148815838,844.6460640015566,806.29017105842
1731139312.920123,784.5631778482813,799.0429206810161,882.8528238109734,831.9744303307742
1731139312.9202018,836.8282220242255,799.1379506196593,921.7752159805008,849.8965884740628
1731139312.9232206,859.394877690501,799.233022368181,931.5977989030563,849.6092227116352
1731139312.9271212,837.3294761306549,799.3281613885773,901.6454999811164,831.6990188869662
1731139312.9310217,788.1824879281818,799.4233391888565,849.8142026556208,808.5366152814395
1731139312.9323754,747.4797514990363,799.5185235712195,808.1445916941702,796.2209812933936
1731139312.934922,740.1548198521116,799.6137026329287,796.1646474820199,803.2894661196499
1731139312.9357078,761.2427013572446,799.7088824838359,804.7504765822438,824.6863168594463
1731139312.9388225,781.6054271251636,799.8040750878461,804.9831774405083,845.7775545386402
1731139312.9427228,773.8485675946124,799.8992894513541,775.2862742400089,853.5037498955783
1731139312.946623,736.8339587158897,799.9945297508059,723.8975756168848,846.1141120753076
1731139312.9505236,698.1681918413828,800.0897976074546,686.6083607811343,833.9374452700106
1731139312.9512734,692.1026923292548,800.1850947178626,699.865598531837,830.6637517125022
1731139312.9512925,730.686087381863,800.2804239881242,770.2150704848602,842.1063249746635
1731139312.954424,791.9709476300206,800.3757893106211,865.13954847152,861.3909403075886
1731139312.9549558,835.5257547090489,800.4711948910858,933.8375489895499,874.3677174976276
1731139312.9583244,833.3309440445981,800.5666447970136,942.6300216731449,870.8751683268162
1731139312.9622247,791.3957915026526,800.6621428773863,897.8517729520511,852.8402657059831
1731139312.9661252,744.6304938162498,800.757692886062,838.8805082394201,832.7742204627851
1731139312.966877,728.97684471552,800.8532986096374,807.4044860484564,823.9263638628391
1731139312.9700255,753.1904963255769,800.9489639117771,817.2304434444011,830.0045646799392
1731139312.9701717,792.9951601332477,801.044692708841,847.5294698423975,842.6596760683318
1731139312.973926,812.2080274373735,801.1404889260168,863.1048257663389,848.6747085681574
1731139312.9778264,793.4991876986829,801.2363564660702,844.0182367851158,841.0303773513265
1731139312.981727,753.528923534596,801.3322991945994,800.6769052684526,824.9386874941392
1731139312.9824617,729.8325414471184,801.4283209322532,763.4989921419924,813.9668875503622
1731139312.9856272,749.8373604491255,801.5244254485906,757.1785292348148,819.2647057176976
1731139312.9890697,807.1419994983377,801.6206164623304,781.251240799589,840.3705509109407
1731139312.9895277,864.6259313045811,801.7168976539857,812.2941208623888,864.804309852282
1731139312.98971,882.4612650490747,801.8132726820046,824.7709831711894,876.7317168608226
1731139312.993428,848.9664583845775,801.909745171132,812.5771257014928,867.9495383653627
1731139312.9973283,789.7424825440869,802.0063186384086,793.5314563871955,842.8427634329283
1731139312.9980464,747.7620559955031,802.1029963678425,793.5275845826801,813.9462379032432
1731139313.0012288,750.2371310453392,802.1997813359002,823.651544430637,792.1857414965915
1731139313.005129,788.5613637721414,802.2966763529834,869.0761493524137,779.7776053432711
1731139313.0079677,827.0009168374563,802.3936844917889,898.9949738583109,771.1125723707514
1731139313.0090296,832.6736032077121,802.4908095506661,890.1556994422483,760.1022148416994
1731139313.0129302,802.3756321466952,802.5880559152918,845.8113032397657,747.1636182796638
1731139313.0136309,764.6441121372869,802.6854272125307,795.2662231098544,739.615159500444
1731139313.0168304,755.6907801880463,802.7829241027131,773.8668924127612,745.1389405922162
1731139313.020731,789.0358017541533,802.8805432690522,798.0211149884143,764.1022554880003
1731139313.024464,843.6439836001583,802.9782806543348,853.5406250630456,787.6966926141446
1731139313.0246313,880.182804376027,803.0761398676069,905.6103395032966,804.0112050930811
1731139313.0268655,872.1200073954777,803.1741403927383,922.6275613388584,807.3406568629575
1731139313.0285318,826.4092126392316,803.2723133985253,896.2233119778759,803.0022927425597
1731139313.0292156,777.1602594933419,803.3706747901791,843.5298628493766,803.355737687046
1731139313.032432,757.8176975141668,803.4691844837769,792.1121221351747,817.8939599521224
1731139313.0363326,774.8544260165878,803.5677328279056,761.0955739480078,845.2931768026791
1731139313.040233,804.5213768359555,803.6662099207354,752.7728335245606,873.9469929114538
1731139313.0441334,814.9993282668454,803.764667017243,757.6903883576758,890.7465747370975
1731139313.0448003,795.1672274551994,803.8634575427769,765.0290274817796,891.1688760374036
1731139313.0457635,765.5796839044406,803.963125644793,769.1394011214622,882.5903206948433
1731139313.0480337,761.887016265686,804.0638693162983,769.773401123352,878.1479087284553
1731139313.0519342,803.9003282036178,804.1647939525145,769.0454535012126,886.069727162364
1731139313.0558343,875.8967019210755,804.2637626756697,768.727170302979,903.0337221708495
1731139313.059218,935.2019157204811,804.3588502736384,769.3237432052686,916.8474207186613
1731139313.0597353,943.3132463709401,804.4514071196141,770.4763899541949,916.232939645969
1731139313.0603848,895.2772884572148,804.5483922955198,771.6778211679273,899.8272008130837
1731139313.063635,823.8937618746085,804.6595456971717,772.673420478353,877.2228677815689
1731139313.0646615,775.1123444749297,804.7864509990201,773.4760867916057,861.3530739829397
1731139313.067536,773.9034159314459,804.9079770228859,774.2055569949393,858.4953483396466
1731139313.0714362,807.4591562132385,804.9764436592999,774.9526213319652,864.0045592367122
1731139313.0753367,838.6397322379129,804.9381183327502,775.7388610212842,867.1255478054718
1731139313.0759697,838.2781831668767,804.7694133359355,776.5425944700967,860.769134711281
1731139313.079237,809.8644628250452,804.4959276759655,777.3370674816298,848.0439709268921
1731139313.0831375,786.4440888565132,804.1734026081666,778.1100431518832,839.9770061316465
1731139313.0835595,802.2245070051848,803.849788932652,778.8631563607496,846.1162987725089
1731139313.0870378,862.0847011473127,803.543437562169,779.6029739278655,865.6921371917558
1731139313.0909383,934.1631778046205,803.2490574175982,780.3340755989428,886.795799864073
1731139313.091554,972.28121735962,802.9564295061715,781.0573268961521,894.6914215651207
1731139313.093972,950.9336733314408,802.6626280363312,781.771462773057,882.9631707865107
1731139313.0948386,885.279439222234,802.3710302662746,782.4751048470692,858.7110463696561
1731139313.0987391,820.2813624732585,802.0835330201162,783.1677045884659,837.5322952305665
1731139313.1024575,797.4814349211536,801.7957923669727,783.8494355441663,832.0235084828449
1731139313.1026394,825.3630773880989,801.4998138186234,784.5207011857326,842.6534582156872
1731139313.10654,875.9718051902261,801.1916069408445,785.1817850615168,858.0043455666856
1731139313.1071386,909.3007924374078,800.8787352513344,785.8327807102481,864.0288949959499
1731139313.1104405,905.0809820250464,800.5818053031429,786.4736856082275,854.9675165022137
1731139313.1143408,876.5659620975285,800.3237160810556,787.1045069066627,837.4433355005787
1731139313.1182413,856.3530402279125,800.1055326207561,787.7253061455806,824.8023540605523
1731139313.1213555,867.2582521446711,799.8829188168799,788.3361897679056,826.4755483939059
1731139313.1221416,902.9188327507064,799.5732333260497,788.9372822271125,840.863489526303
1731139313.122723,933.8974966285762,799.1166588971204,789.5287083804961,857.1420598687295
1731139313.126042,933.4059509509581,798.569276064022,790.1105908446592,864.1241591047856
1731139313.128726,900.5035372058951,798.145376719695,790.6830554030624,858.8009598861669
1731139313.1299424,861.1448998237097,798.1144771751107,791.2462364400042,847.7820866513807
1731139313.1338427,846.3623249838731,798.5485603580107,791.800278883628,840.895068430427
1731139313.1377432,866.1837188502387,799.0769069681894,792.3453372793336,842.6486228202517
1731139313.1383078,901.4247626126823,798.9072231161673,792.8815740746804,848.8394113387072
1731139313.1402535,920.3517923302369,797.2663546675134,793.4091586458127,851.0674765034469
1731139313.1416438,906.1374946328804,794.0939149251328,793.9282674703074,845.1185580872467
1731139313.145544,871.7596117814073,790.4979760375193,794.4390849582823,835.7649268153408
1731139313.1494446,849.414639547372,788.4670338115143,794.9418039242354,833.4365413429935
1731139313.1533449,863.0051235671161,789.7711733121678,795.4366246107464,845.1050077701249
1731139313.1538925,906.7560629386098,794.6455012544571,795.9237519749238,866.9015937444415
1731139313.1572454,948.1319725604601,801.214146934534,796.4033928698782,885.0370971202206
1731139313.1591516,952.8303795370823,806.2799734085663,796.8757568267753,885.0706688307497
1731139313.1611457,910.9743303280131,807.1825563646325,797.3410637151352,862.6939417088112
1731139313.1634803,842.9706340951825,803.5575900359182,797.799555918215,827.6125456357057
1731139313.1650462,781.7575261552986,797.7331760495136,798.2515030101097,797.2691213307955
1731139313.1689465,748.7337621317034,793.3616436471312,798.6971819128814,785.0248092446363
1731139313.169477,743.7074262205092,793.1366770908619,799.1368285715214,791.6969587645956
1731139313.172847,752.8962412969532,797.141791302308,799.5705933102888,806.5983989176211
1731139313.176747,762.7784048089801,802.9484450112255,799.9985693260047,816.688275343034
1731139313.1780496,767.502243091968,807.322858231976,800.4209495757972,816.2344669096215
1731139313.180648,767.9026486390788,808.2656291075172,800.8382539635561,809.4578526696587
1731139313.184548,767.0802627418466,805.9630579799647,801.2513894651893,804.7347032795489
1731139313.1850617,767.144075625197,802.1512889609469,801.6612338183359,805.9079997409497
1731139313.188449,768.4499445919898,798.6154036872025,802.0677155993302,808.3561977456508
1731139313.192349,770.3748841388422,796.0885924807983,802.4690595807666,803.1201302894262
1731139313.1962495,772.2634953473986,794.3001593606816,802.8625133991565,785.40263350388
1731139313.1969476,773.8556695227073,792.8553654073888,803.2474642584756,760.0264998162743
1731139313.1982343,775.2236470673635,791.95778548246,803.6295864413715,739.0075044595703
1731139313.2001498,776.5373693943523,792.2624723648125,804.0213618586075,733.0107314626837
1731139313.2006464,777.9025961949255,794.0694075047453,804.4334189116886,743.5488640264001
1731139313.2040503,779.3314347038141,796.7444589818905,804.8571422237862,762.1615554233226
1731139313.2079506,780.7881947120743,799.0309698104087,805.2523831621612,777.0905548874931
1731139313.2118511,782.2389689915382,799.9949227017196,805.5653013300685,781.9283825438414
1731139313.2157514,783.6718327415634,799.6748248657448,805.7915981070184,779.3184807040049
1731139313.2158456,785.0917844131245,798.8452055218269,806.0572109060645,777.061599109359
1731139313.2162309,786.5079802956031,798.2641596678012,806.633945065603,780.296043537534
1731139313.219652,787.9256332152771,798.1903619005232,807.8167577287522,786.5338810461421
1731139313.2235522,789.3450029925979,798.4554999026833,809.7208612000859,787.7558999433315
1731139313.2274528,790.7641124320407,798.7876124918091,812.1893303222056,777.7361497076236
1731139313.231353,792.1813965108067,799.0318975577932,814.9160951901672,758.3284631860254
1731139313.2318156,793.5966135202764,799.177963531094,817.6532307274122,739.2593049381471
1731139313.2329884,795.010271434064,799.283113737949,820.3061804882219,731.3255803959622
1731139313.2347436,796.4225848765798,799.3976604532688,822.8853030120088,738.3645598110274
1731139313.2352536,797.8329187550962,799.537381890776,825.4238705243639,754.4576885560169
1731139313.239154,799.240298669721,799.6933234987101,827.9479481167435,768.6524208017338
1731139313.2430544,800.6449306453737,799.8514847585467,830.485553390805,773.4283335186512
1731139313.246955,802.0496475356122,800.0044404725692,833.0625038986705,770.1141669221137
1731139313.2474003,803.4592253196231,800.152229525206,835.6734192638085,766.947671555666
1731139313.2508552,804.8759440094234,800.2980737785495,838.2663274026161,771.470298733756
1731139313.2536416,806.2929692926273,800.4445493371101,840.7738624889555,783.5969452310902
1731139313.2547555,807.6922806211114,800.5923444218377,843.175597832949,795.1787090225115
1731139313.258656,809.0561400364928,800.7409051153843,845.541183165003,796.5491348477875
1731139313.2625563,810.3933544902892,800.8894890709245,848.0115549886901,784.7401135583948
1731139313.2629848,811.7617689400132,801.0377361590224,850.7111833949203,766.5795251787081
1731139313.2664568,813.2492997466542,801.1856748618827,853.6287186465015,754.0414003095467
1731139313.2677424,814.8860898538362,801.3334820664212,856.5451133836224,755.60785115945
1731139313.2703571,816.5241107318639,801.4812869460477,859.0927027042495,770.6226974427113
1731139313.2725396,817.8160181548449,801.6291164970002,860.9479204286371,790.8503031469236
1731139313.2742577,818.4555642153108,801.7769363051688,862.0280410786896,807.1630497265947
1731139313.278158,818.6767472958168,801.9247069758422,862.5264874798247,815.3302264676187
1731139313.2785697,819.6284080455898,802.0724116839551,862.7624958224856,816.8147193889522
1731139313.2820585,822.9117140069652,802.2200529604825,862.9894023255731,815.5976092686525
1731139313.2859588,828.8338643792838,802.3676369523747,863.3083424021631,814.7832241239303
1731139313.2898593,834.1872578563837,802.5151623180473,863.7038583238219,815.3576861651659
1731139313.2914376,832.0719603913585,802.6626214479932,864.1240223559445,816.8450513555954
1731139313.2937596,816.4806231599681,802.810012144519,864.5350488431241,818.4593950105591
1731139313.294154,790.5310030742608,802.9573496952281,864.9325789611889,819.7795575828789
1731139313.29766,770.397102658823,803.1046637728485,865.3278637142542,820.8066563468703
1731139313.3015604,776.1683677974829,803.2519687066751,865.7319768948166,821.7234612259738
1731139313.3024964,813.5060979495845,803.3992177434659,866.1491058972874,822.6769824440428
1731139313.3054607,864.0609354038838,803.5462869517204,866.5779560695572,823.7072090386613
1731139313.3093612,897.4689342116295,803.6930506418922,867.0157712506243,824.7832994735228
1731139313.3097386,895.996658750337,803.8395592059273,867.4609686149582,825.86337921062
1731139313.3103356,869.1750287599507,803.9861963826557,867.913532147396,826.9271326323967
1731139313.3132615,844.5903788081719,804.1335601212469,868.374196985776,827.9763399691435
1731139313.317162,842.8216773052682,804.2818737131365,868.8436236748017,829.0213014220456
1731139313.3210626,858.8663649433668,804.4301599743031,869.3220839785828,830.0696784075222
1731139313.3249629,866.868317382806,804.5760638073095,869.8095628354961,831.1233473909386
1731139313.325323,844.6539874899528,804.7174385168947,870.305975435425,832.1806653404394
1731139313.3288634,796.9988434138687,804.8557214362498,870.8112980922788,833.2396460522151
1731139313.3292336,756.7192244523621,804.9985404891205,871.3255801972582,834.2995396982085
1731139313.3327637,760.7614733965763,805.1566660001462,871.8488974451607,835.3607313083453
1731139313.3366642,819.635682423639,805.332002737849,872.3813089145185,836.423973793833
1731139313.3372505,905.2167183355572,805.5014698743879,872.9228426475815,837.4898202333407
1731139313.3405645,968.1629460820542,805.6125241404139,873.4735027845722,838.5585224207441
1731139313.3409078,972.7049341415319,805.6054390325035,874.0332819518458,839.6302274098524
1731139313.344465,922.2180559458762,805.4531403404505,874.6021682872993,840.7051829691949
1731139313.3481317,855.6335789896195,805.182710315529,875.1801449329035,841.7837455536168
1731139313.3483653,817.4184253679524,804.8556149334888,875.7671847483377,842.8661531839866
1731139313.3522658,824.6028433231173,804.5272661776584,876.3632447446912,843.9522367202852
1731139313.356166,856.5186353339082,804.2226621623989,876.9682653483162,845.0414308558884
1731139313.3564923,874.6760438476314,803.9392526487426,877.5821785402642,846.133418354562
1731139313.360067,856.1329994162554,803.6626886523778,878.204923208609,847.229262124052
1731139313.3639672,813.1316648980533,803.3801927356235,878.8364551967247,848.3320077145246
1731139313.3670297,783.1588900326951,803.0867806420463,879.4767313420034,849.4451835794304
1731139313.3678677,797.6552742844483,802.7854696761578,880.1256569333352,850.5686031004649
1731139313.371768,854.8738955079815,802.4831040944654,880.7830247106426,851.6939991417149
1731139313.3720045,918.9952037379703,802.1843286029393,881.4485228645211,852.8066155099052
1731139313.372077,946.4376663113354,801.8881578940075,882.1218919350222,853.8983409305013
1731139313.3756683,918.5471030686034,801.5901435775025,882.8032001675687,854.9886016286403
1731139313.3795688,854.9599326866825,801.2876913884426,883.4929944160928,856.1329322446268
1731139313.383469,797.5965784168446,800.9825868771198,884.1919424237395,857.3904210874821
1731139313.3859277,778.592754431874,800.67810535532,884.8998120844902,858.7428014358596
1731139313.3873696,797.7165701310068,800.3746363356975,885.6143922989501,860.0186659888225
1731139313.3876617,826.4157292297624,800.0694088307278,886.3318469896825,860.9397804576225
1731139313.39127,833.8272683607383,799.7604965132983,887.0498891018302,861.3841732667189
1731139313.3951705,812.7188262628066,799.4497104200303,887.7729017228422,861.7712159552952
1731139313.3990707,784.2767271788862,799.1404089815,888.5141450872752,863.1710552276663
1731139313.4029713,778.6563478798145,798.832835835895,889.287975909347,866.6146589188627
1731139313.4032464,808.2169358805052,798.5229452270984,890.0901412537082,871.5501204095647
1731139313.4048257,856.0209586818171,798.2066339548524,890.8789747477766,874.5662266316737
1731139313.4067583,889.1406825449795,797.8849492890544,891.5860282211632,870.4327411408079
1731139313.4068716,885.5765900252192,797.5646563432183,892.1797333547787,856.1955268902911
1731139313.410772,852.3023189506057,797.2532031469941,892.7599020386538,835.3639307169248
1731139313.4146724,819.3431914526957,796.9518210956079,893.5866202752313,817.3456195532912
1731139313.418573,814.7055544560827,796.6512706401761,894.9145663414495,811.0226637205643
1731139313.4188309,840.952370603621,796.333598625131,896.6156844015815,817.5105026064149
1731139313.4224732,873.0277647465513,795.9826368959116,897.8585660683532,828.7838487706088
1731139313.4237237,879.4289005947385,795.6025183540862,897.3876577358498,833.9626135472048
1731139313.4263735,849.349601531219,795.2329436410168,894.7976740748975,828.2523955248741
1731139313.430274,803.1031009359996,794.9390251706864,892.2879288733628,816.9766293302652
1731139313.4341743,776.5927611199396,794.7609110756929,895.0356853932325,811.0836268271792
1731139313.4344156,791.990474854466,794.644493310341,907.9760970907511,817.666979576677
1731139313.4380748,838.531735491976,794.4175740321992,929.4019906489208,833.3847655865073
1731139313.4415126,879.5657530373419,793.8769030372168,946.9282677825794,846.4699376604865
1731139313.4419754,880.7832184196591,792.9791047887682,942.7012944706454,845.9757418773929
1731139313.4426217,837.1261128390936,792.0179230260524,906.5902774211391,830.7807891939731
1731139313.4458756,776.6293186780414,791.6183973105445,845.969601057739,810.8347768735839
1731139313.4497762,737.9894749079039,792.4662103322302,782.3576323491011,799.3622426019622
1731139313.4500003,740.0202085386021,794.8887586787008,737.6164899885301,802.2304615691415
1731139313.4536765,767.8544585344096,798.5644732423981,721.2440426761927,813.2245116295999
1731139313.457577,787.1378709610419,802.6006005571992,727.6291911534646,819.3105210766101
1731139313.4614773,774.4783481732546,805.9735151499331,743.0215580198104,811.7850211849795
1731139313.4615197,738.8480825677764,808.0478231333141,755.2875010037576,794.1968225085823
1731139313.4653778,715.7433388011818,808.8184914974903,759.5796885079907,780.3154414410109
1731139313.4655848,738.123781974957,808.7356361085975,757.8217856115926,783.4174230940031
1731139313.469278,807.455469629455,808.3031450911456,754.5645453665849,805.3222336498319
1731139313.4731786,888.7288429445261,807.8006620411078,753.1184279118274,834.0551670105831
1731139313.4762666,934.4203829078685,807.3195004711203,754.161155935194,852.268188012465
1731139313.477079,919.1473097034683,806.9751756825932,756.5639596949293,849.9862953741307
1731139313.4804175,857.9782024113492,806.9791930360486,758.9200957059187,831.7636730668056
1731139313.4809794,794.1741124737075,807.408385871802,760.5202221710647,812.7506724723196
1731139313.4811697,766.287241914242,807.8666922339208,761.4482916855546,806.9366246663235
1731139313.4848795,780.6350995015047,807.4414700056752,762.157391135332,816.9023324242538
1731139313.4887805,810.3455670117884,805.1744347007703,763.0194515338491,832.9702271206872
1731139313.4926803,820.513094433946,800.8118369070819,764.1264472411755,841.9630263403062
1731139313.4965813,798.1578516234144,795.2645099802085,765.3543461223239,838.1538296972761
1731139313.496754,762.451798636485,790.3248577829347,766.5443403384637,827.5339722259675
1731139313.4993155,747.4006401538189,787.7117159391148,767.6358224798223,822.2458487673238
1731139313.5004814,771.9299502191199,788.0443884544168,768.6706835114276,830.1043608790442
1731139313.504382,822.4644697806244,790.4536061471996,769.7093873346896,847.9587080511183
1731139313.5082822,862.5104587363908,793.1177901680954,770.763169707358,864.24806642533
1731139313.511021,861.3968483685687,794.377762964795,771.8041632242565,868.4528816007615
1731139313.5121827,818.6596656598155,793.701996680182,772.8186883806288,859.5818883814526
1731139313.5123386,764.3097457594668,791.9105645265635,773.8269389831048,846.826512157198
1731139313.516083,735.0806058396746,790.5891765070655,774.8475336336122,842.0647706634117
1731139313.5182135,746.2472332328492,791.1380541409376,775.8624656396485,850.5168856198491
1731139313.5199835,781.7875545092639,794.0554246605077,776.8367813387872,867.1530121740814
1731139313.5238838,810.1628322345238,798.8009652188451,777.770895661666,881.52516030611
1731139313.5277843,811.8265750858731,804.166750052428,778.7138846989434,886.7392763020174
1731139313.527923,795.2432357358472,808.8209491997474,779.7105616295763,885.0382337245402
1731139313.5316846,788.2476106594994,811.7223920594464,780.7383332167154,885.4808855628411
1731139313.5355852,812.444757136373,812.3169192995485,781.7082268254137,895.8365044095221
1731139313.5371118,862.6005010329847,810.5920155840407,782.5394678641309,915.539741102694
1731139313.5394857,908.791968864685,807.0618624241648,783.2479604609578,935.5532071981279
1731139313.543386,920.0272689417012,802.6544454426403,783.9800694619383,945.2280273972794
1731139313.5435078,889.9760782870588,798.4416472244856,784.9528752761573,940.5529224117591
1731139313.5457747,843.379060889919,795.2642165082974,786.2924751685334,927.1663868205842
1731139313.5472865,817.3809986927105,793.4517445255445,787.8218893872959,915.8609972427746
1731139313.5511868,832.5864600111594,792.8450979707139,788.9718873557593,914.3547872970854
1731139313.555087,877.1864873514943,793.1310451892382,789.0613124394627,921.9191322560865
1731139313.5560098,917.0009502140571,794.2357887418239,787.9952029378503,930.8843720414995
1731139313.5589876,923.2523598237998,796.4343190704402,786.9236773323244,933.3540899103202
1731139313.5590923,895.4685036928279,800.0361870622116,788.0100895110535,927.3515301202472
1731139313.562888,860.883106187241,804.872555905492,792.8221152361598,917.3758530874352
1731139313.5667884,850.8926160849575,810.0316597508762,800.1271804583362,909.2082093785597
1731139313.5706887,873.9557772057146,814.1494369709742,805.1105870150949,903.7009781611547
1731139313.5745893,907.434467226329,816.1308968722167,801.7056621932056,895.1718409614529
1731139313.574677,915.6072593138107,815.7934280061053,787.260258365244,876.175760847005
1731139313.5749078,879.6940086630888,813.922625628635,765.879149241504,844.976087793427
1731139313.5784895,815.5366526931884,811.6560291145983,746.6958579816127,809.4429551020604
1731139313.580529,764.0073255092967,809.6431790772202,737.5216266450351,783.5830838491606
1731139313.58239,760.9045900049156,807.6371074819128,739.3722073294622,778.6211295779982
1731139313.5862904,809.7169206414292,804.8597794847396,747.00449450781,795.0421884000604
1731139313.590191,878.7339839343024,800.875829787558,754.1984974279387,821.6573618517259
1731139313.5902617,924.8849638771977,796.2810799295411,758.047655833674,842.6807244027943
1731139313.5938058,925.5577003117429,792.6152088213322,759.1556006683938,847.8301753096564
1731139313.5940912,893.4547735999201,791.4816468135501,759.4146256893697,838.1962830072405
1731139313.5979917,863.3110727768277,793.4713328918854,760.1396753749732,823.8545168005533
1731139313.6018922,861.9480776069142,797.6706800339193,761.592598275798,815.446226360667
1731139313.6057923,886.3326230132918,802.1407558717292,763.4244774285174,816.3667951187191
1731139313.6058464,907.3538127411317,805.0696202934912,765.24374646069,821.366251818608
1731139313.6096933,895.6917485506176,805.8220055112323,766.885850565029,822.0492513664263
1731139313.6127038,847.9786472689058,805.1817621152742,768.3869298892299,814.2922366555936
1731139313.613593,791.3717640254803,804.6451584739804,769.846987437046,801.3805710469845
1731139313.615283,762.6452427658412,805.2757316445256,771.3311357749172,790.5830603308306
1731139313.617494,779.015423871486,806.9218381082057,772.8489421962768,786.5473441420587
1731139313.6213942,824.6671066585079,808.3342633832397,774.3802573920487,787.5002254313639
1731139313.6214309,863.8441716907462,808.0899245728269,775.9048892569613,787.5837841780321
1731139313.6252947,869.404176048504,805.6597455949486,777.4153906383538,783.0879270124162
1731139313.629195,843.2006214321098,801.8433121230886,778.9145990789198,776.7553218157109
1731139313.6316018,811.8705805919111,798.2218238535921,780.4081563002884,775.9669747540205
1731139313.6330955,802.3666472736871,795.9790799566427,781.8995371149342,786.1347485523227
1731139313.6369958,818.4256184606911,794.9312434423887,783.3892585097121,805.1784896019575
1731139313.6370156,838.0517115204281,793.5250816335173,784.8763868368305,824.3770586659723
1731139313.6408963,834.0697658525952,789.9244126123389,786.3601148235645,835.4152779382457
1731139313.6447966,800.070825906161,783.5220245815624,787.8404108104182,837.7545989593884
1731139313.6486971,759.1941705521197,775.8422536602154,789.3178596281223,839.6325677391816
1731139313.6500373,747.3028740317206,770.1322292983725,790.7931836621093,851.0933749619073
1731139313.6504998,783.5582759973249,769.7792713954855,792.2668001026468,874.3614726472641
1731139313.6525974,852.4356850791685,776.4681601790951,793.7386018747027,899.6874029452047
1731139313.6526003,912.6187890980464,789.1695937570637,795.2081351979563,910.8475373951538
1731139313.656498,926.76980169657,804.5186288935114,796.6753021936369,896.7381685529091
1731139313.6603982,889.182860959115,818.285481297997,798.141341039481,860.2586014428049
1731139313.6642988,829.5738115279469,827.0486930852563,799.6091489850996,817.3607651955617
1731139313.6681848,789.9179443878465,829.2111507327003,801.0816715481595,786.6102267181731
1731139313.6681993,792.5179385728645,825.0471984577218,802.5581334696573,776.9770865417504
1731139313.6693978,824.3975891855749,816.0871828620917,804.0306987615116,782.9776066538802
1731139313.6720996,850.0957010439116,804.4055458801649,805.4869611738924,790.5871699215014
1731139313.676,842.293505497966,792.1772514632596,806.9223723092788,789.0501044412125
1731139313.6799004,805.4771469908667,781.4614550535911,808.3577275543031,779.3307867057829
1731139313.6837697,773.3922708010687,773.9391006845366,809.8430058086736,772.8194676574615
1731139313.6838007,782.0198910233362,770.4631232837464,811.4238812759402,781.6345590814262
1731139313.684791,839.5150788706502,770.6327815684666,813.0700701692011,808.3413215855496
1731139313.6877012,917.2730675493927,772.8216482471364,814.6190414135757,843.1569404773916
1731139313.6882958,969.7569131093096,774.9036918010459,815.8372874368864,870.707546818642
1731139313.6916015,967.9770380665368,775.4050681082728,816.6660007617083,880.9493626551716
1731139313.695502,920.5942531956927,774.3633587971116,817.5385399672791,875.7703459656873
1731139313.699354,866.2531725081097,773.2314353154744,819.4031152936763,866.3585895319907
1731139313.6994023,843.3771176209672,773.7902531420395,823.0257490685184,863.7502885882923
1731139313.7033029,861.336441698662,776.8049714675356,827.6291902664273,870.2535468857392
1731139313.707194,895.572695744697,781.4342515134816,829.9567000497807,878.5430720026632
1731139313.7072031,909.9814753195828,785.8752546602333,825.6581994680586,878.9035997199467
1731139313.7111037,888.0505450267608,788.749946803491,813.9811234929157,868.4503817170751
1731139313.7149386,847.3917471847382,790.1049376649022,803.0744233099505,854.543415396427
1731139313.715004,825.8725308876377,791.1838941512847,809.1057417856842,849.3784809544851
1731139313.7189045,850.5828443859406,793.1573809307962,844.8566456094529,860.0538371693723
1731139313.7195451,914.7855573139152,795.9112077737263,905.0835737350923,882.3125551632526
1731139313.7228048,981.5915911703302,797.9909008949256,964.1329439690883,903.3755691429824
1731139313.726092,1011.586367144081,797.8322274617685,992.038124852949,911.9478052889449
1731139313.7267053,992.4023238917055,795.2800771348562,976.5659181925448,907.4944481846721
1731139313.730523,946.7852367162759,792.0875474687326,931.8308357485712,901.1602124911147
1731139313.7306056,913.1356077379955,790.8863044676375,886.2460801809502,907.1712701750928
1731139313.734506,914.6506248547524,793.3657869580073,860.7661230057643,931.1520472215519
1731139313.7384064,942.1038974212402,799.046188264544,855.8344080739499,964.4604313947764
1731139313.7423067,963.8188491267208,805.5538685436699,856.7554232851804,989.1900685047133
1731139313.74499,953.9617294740154,810.1381542643968,851.0157201986968,990.3207868041804
1731139313.7461078,915.2725788946537,811.2818126609859,841.4415464667157,965.9715078637093
1731139313.7462072,877.0769618752786,809.3235700656452,843.5710772114646,928.1263276051972
1731139313.7501078,870.0291604943263,805.8667943203395,869.7526386965926,893.4554529285425
1731139313.754008,898.6012580974435,802.6256006789174,914.1541711166614,871.3127579169284
1731139313.7542992,934.6608335960105,800.5909351370593,952.4818868220125,857.9236741971696
1731139313.7579086,938.4234027404634,799.9404735457778,958.1933069929186,840.7850412239727
1731139313.7616923,890.4176764155541,800.4687886532922,923.1349493995864,809.3664505374958
1731139313.7618089,808.4539140570593,802.0140889764422,866.0401761537494,763.5375746308412
1731139313.763888,735.1368305059451,804.5413075727163,821.0148138291245,713.3057283621897
1731139313.7657094,705.1538527855625,807.9341105436639,813.5082920780765,670.568556548751
1731139313.7696097,718.2393979407775,811.7890538551663,841.4552331607784,639.8999059426651
1731139313.7735102,739.6314065151709,815.4513983884634,876.1547222417148,615.8513424506714
1731139313.777277,727.9918688899415,818.303465165451,882.9901128484842,588.618348206546
1731139313.7774105,668.6668215789388,820.1196570283464,847.0629684392271,552.927113336643
1731139313.781311,585.724358073471,821.2561155963797,784.7541059674783,512.4685236419134
1731139313.782786,523.1449079522749,822.540521403705,732.5235558664535,476.20478476924416
1731139313.785211,510.2326120166383,824.8972975341903,721.3006373865253,449.9557742179472
1731139313.7890532,538.8366913636328,828.9003518720178,755.584801613361,430.76957393768885
1731139313.789112,570.2736484495304,834.5025046549421,812.5029264640984,409.1675372346728
1731139313.7928617,565.9196211463284,841.0886267617296,860.507210769712,377.49209355766186
1731139313.793012,516.740385833853,847.7762968074252,882.3543584447395,337.19612397520757
1731139313.796913,448.53447544154454,853.7056798327757,884.3882958636001,298.6812568809685
1731139313.800813,399.7717955682911,858.0985908237957,885.9663958470907,273.5997808678702
1731139313.801684,390.94169437188026,860.1341569091821,899.402955957233,265.97190797485905
1731139313.8047135,410.3851695665994,858.9519058238266,918.3609682262693,269.5142173513517
1731139313.8084464,427.1982353642232,854.055269890919,924.8499164033342,273.3547348101471
1731139313.8086138,419.2782164469785,845.9946127734721,908.3923297181759,271.3084244219946
1731139313.8125143,392.5807636009093,836.774182935196,879.69568045815,267.02330716884376
1731139313.8164146,375.68511190969184,829.4014075995584,865.2639868291654,270.87701448457085
1731139313.8203151,394.67510453459084,826.5352607755012,885.810010958036,291.35495970198133
1731139313.820582,449.63165948573624,828.9387104048868,936.2478275571134,328.02340395460635
1731139313.8238072,512.4555209279956,834.7789314239731,985.310939931039,371.6589266384978
1731139313.8240309,547.987383730289,840.3902771400087,997.374141438185,411.15256510971244
1731139313.8242154,541.2819840572025,842.1658478923573,960.2838850437779,441.46887024176306
1731139313.828116,508.99366630517346,838.4616214843229,896.7724636166522,466.4172948225927
1731139313.8320162,485.8744420299072,830.3667758018676,849.2457945410636,494.41386313658813
1731139313.8359168,497.5446208344063,820.9339907755789,848.9607177658743,531.0087294570329
1731139313.83948,541.5921210306908,813.4302652838687,893.5188561349039,574.2836434400654
1731139313.8396156,592.0004187818674,809.6957215395812,950.3112924148525,616.6449464491624
1731139313.8398173,622.7605899709488,809.4906809231928,982.8770301750985,651.3029784381838
1731139313.8437176,630.8568273318385,811.0085287514113,978.883944802297,678.0284342510164
1731139313.847618,639.3333043011155,812.0565226017429,957.5208155681495,703.4469615437308
1731139313.8515184,677.4813188543806,811.1605493090791,951.1409699543719,735.5511626490261
1731139313.8552003,754.1524445857108,808.0752309559538,976.8844904046925,776.769249477673
1731139313.8554187,846.3795125032788,803.6213994831767,1021.6377105811058,821.1780518192649
1731139313.858378,913.6282036109315,799.1173017468867,1052.1703402203614,858.2837993736114
1731139313.8585613,927.4040032158605,795.7621826127944,1041.5388507048592,880.647220206757
1731139313.8593192,893.1439981624399,794.217720630203,990.0321335148942,889.521431529617
1731139313.8632195,846.8685205689001,794.4636668394462,924.1894250970385,894.1069346262552
1731139313.86712,828.8415154159455,795.895306124694,875.7642909259099,904.9759648110332
1731139313.8707848,854.7563900200844,797.5959649326026,858.4774142237654,926.8053598784315
1731139313.8710206,906.91111234423,798.7009158459268,861.1025565253987,956.074573684562
1731139313.8749208,951.6800239572763,798.7295604266708,861.01694602074,985.3191464241228
1731139313.877276,968.32922126735,797.7338961279005,845.375684473333,1010.1266317716814
1731139313.8788214,965.2440026254836,796.166391184191,821.6520828515366,1032.7949337751938
1731139313.8827217,970.4092942694917,794.5276708030028,809.3515923614266,1059.434789247526
1731139313.8863697,1004.6647843761477,793.0196812597377,821.1411495823089,1093.0015390157469
1731139313.8866222,1060.8107684546721,791.4566495174221,850.3785324325213,1128.484899346944
1731139313.8905225,1106.8228524916533,789.5147560411447,876.0005351562211,1154.9587336428049
1731139313.8933156,1111.1485612269532,787.1427428996907,880.4993264503078,1163.4774248646077
1731139313.894423,1069.252174262851,784.8162000948518,865.3950419942761,1154.6224613184263
1731139313.896174,1009.0901570949674,783.4204197288834,850.6721863124692,1139.3132450443036
1731139313.8983233,970.4442133958898,783.812696394365,858.1654313629905,1131.69043693419
1731139313.901954,974.7088632829401,786.3327395820174,892.4595866051543,1139.3128909896059
1731139313.9022238,1009.7374121113503,790.5417310271897,935.2499296171476,1158.261473312832
1731139313.906124,1041.9553568698045,795.3024675183075,958.3534964063429,1176.9565140685006
1731139313.9100246,1045.419490690432,799.1251501220139,945.4274641063444,1185.5635359599623
1731139313.9139247,1023.5522362843571,800.6249089822078,905.1631486801472,1183.4264510602616
1731139313.915072,1005.4919353311732,798.9598262825644,865.1661583242693,1178.6733005142894
1731139313.9175386,1020.1969111548353,794.1483092076485,850.8560272332538,1180.5975221164904
1731139313.9178257,1070.036854264002,787.1571854612765,865.6262501903886,1191.3230007334862
1731139313.9217255,1126.201958691044,779.6657970575804,887.827528170853,1203.7622125775565
1731139313.9256265,1150.3523326373509,773.5222855868129,887.312761727934,1207.579106788984
1731139313.9280696,1125.2458455822398,770.0855634170657,849.1742118416577,1198.1597849986713
1731139313.9295266,1069.4220723836695,769.7499627592246,786.559744184929,1181.02716644875
1731139313.9331234,1023.6883039778287,771.8671090894638,732.5636679453689,1167.8546876807873
1731139313.933427,1019.8821576343357,775.0578558333092,717.0355219879609,1167.2018460784761
1731139313.93397,1056.7447202141004,777.7210436326959,745.6550237628073,1177.5701411413297
1731139313.9373274,1102.0919591180827,778.5269275621005,796.9205128891858,1188.6199085213536
1731139313.941228,1119.3617939061469,776.7910460888861,838.9809048291218,1189.7493960778977
1731139313.9451282,1097.0669231180063,772.7061409637495,853.010022210993,1179.113721564346
1731139313.9487078,1057.4668316727054,767.3822652930629,844.9510807562099,1165.6150005811269
1731139313.9490287,1037.6647401554876,762.5924477102069,836.9156818489876,1161.9878003817748
1731139313.952868,1058.668021208957,760.1904092548764,845.9554038676205,1174.362841925687
1731139313.952929,1107.6402243446344,761.3761861493107,868.1561392070676,1196.7009471535753
1731139313.9568295,1147.7750557084587,766.1663709256292,881.5269097483654,1214.7235377863863
1731139313.9607298,1147.731803135677,773.3785154820159,865.3441628856909,1216.4038713883504
1731139313.9628236,1106.700988743195,781.147606522889,819.4483172159158,1200.8240326603784
1731139313.9642923,1054.8362721947935,787.6668788979341,766.5555740641129,1178.5050948721341
1731139313.9646304,1028.9556977136385,791.7418470376174,734.8147023428496,1163.1218451141895
1731139313.968531,1043.5515862050204,792.936395268953,734.9704876213036,1161.3075531341456
1731139313.971766,1080.759671030315,791.3999680259393,751.8610133843073,1168.5752553211673
1731139313.9724312,1107.1060600153858,787.6397719378147,758.3488472684386,1174.2518706072146
1731139313.9763317,1102.6550681103045,782.4264046556483,740.4736406276987,1170.9958237776564
1731139313.979877,1077.961303576592,776.8030716036802,712.0943246316201,1160.9172435599694
1731139313.980232,1064.467254566031,772.0212001501129,705.2099644122766,1153.3506925661318
1731139313.9841323,1086.2592268212688,769.274662039663,742.5768209504721,1156.3502702321712
1731139313.9880328,1136.9579081684478,769.2921445578286,815.0916419275442,1169.178030848999
1731139313.990664,1181.7204740749596,772.0003149624657,883.7959026889362,1182.1947179660194
1731139313.991933,1183.796940793483,776.462709278413,906.7099626508635,1184.3985519479645
1731139313.9954617,1134.6072887910468,781.1494719324419,870.0673165256578,1172.4840877022216
1731139313.9958336,1062.7845875868281,784.4271156669683,799.1904542028675,1153.938868093291
1731139313.9975777,1014.1686306951291,785.084566092422,740.1253166131971,1141.4733443466343
1731139313.999734,1018.0340038476282,782.7382157390477,726.3054734654944,1143.1083886258841
1731139314.0036345,1065.997869231748,778.0138860968437,756.0219428812186,1155.8195848720322
1731139314.0075347,1119.9746839590935,772.4360208037139,797.1960471229191,1167.8473753280693
1731139314.009562,1142.351288544071,767.9896484714756,813.9381888296627,1167.8543831966258
1731139314.0110464,1124.0112687246371,766.4185822384819,792.8037735887362,1153.6169732620192
1731139314.0114353,1088.09913889051,768.4825909331,748.6052335751749,1133.3118105305111
1731139314.0153356,1067.512034074512,773.5135677281227,707.5597020629962,1118.4212295328596
1731139314.019236,1075.5483319156774,779.5534608053413,684.0040828095225,1114.04121765817
1731139314.0231364,1094.3908672365114,784.0937745976534,670.7835304189356,1114.4671882914695
1731139314.0266309,1090.9397941840514,785.1030161864835,650.3450793293231,1107.6388690651931
1731139314.027037,1046.5181202266378,781.8477315949046,615.3038005786343,1084.8099242047392
1731139314.02846,975.1986275632678,775.1233774888213,579.3493894121093,1047.543604863132
1731139314.0309372,914.7533293189432,766.8453362621411,568.1214260924958,1006.3256382140778
1731139314.0323317,896.9369208249992,759.2773580048205,597.2512922375753,971.9591512380881
1731139314.0348375,921.2252285744752,754.2845836282577,656.1547338103251,946.8225774097842
1731139314.038738,953.7564911637953,752.8668598710074,711.8762803038744,923.1448779960436
1731139314.0422156,952.858997334876,755.0152696290019,731.0256119454007,889.6141366485418
1731139314.0426383,900.8535314834177,759.8206723884445,703.0687910576441,840.7311383677919
1731139314.0465388,816.629144258666,765.7818958796669,646.9307083535273,781.1013548650225
1731139314.047358,739.1137718785149,771.2959051571634,595.9003867709565,721.1794258455013
1731139314.0504394,695.4086715971823,775.2463482065845,572.6250368759584,668.2175811755753
1731139314.0543396,679.6681829759711,777.4698810081798,573.2948533322435,620.2404060973006
1731139314.0578,659.7734571650105,778.8294015998061,572.5722629888912,568.3279128704655
1731139314.0582402,605.9771843083792,780.7801084196004,544.7278264577856,505.4338885655086
1731139314.0621405,517.7454044190554,784.6166293895061,484.41667544828925,434.299227088813
1731139314.066041,426.58098673096464,790.8197480750989,411.501229675377,367.52584935125793
1731139314.066256,372.2590461004868,798.884055239458,356.97385776113475,319.2304093192438
1731139314.0670855,371.5541191220643,807.7012935354251,341.3067111960751,294.7093041643906
1731139314.0699413,404.66149468376517,816.2064493347518,361.6563874095124,286.4276901328683
1731139314.0733848,430.29690089756815,823.8320297788188,396.8347440300875,279.75947188039777
1731139314.0738418,417.49849133603465,830.485757345379,425.0049921975917,264.1324321904516
1731139314.0777423,368.9354069777265,836.149321118332,439.5361954608012,240.84294718235276
1731139314.0816426,317.52409417401,840.5024089283777,450.59742589821667,221.38537349076933
1731139314.085154,299.55331606683865,842.9586225639081,472.0373331387576,217.67370157372886
1731139314.0855432,326.0576810492156,843.151160921594,505.3131767104976,231.98847495552081
1731139314.0889697,375.09234589361495,841.4925857268901,534.813183821951,254.67073465064493
1731139314.0894434,410.39153421927574,839.3011460131329,539.5154802397294,271.35690360217484
1731139314.093344,410.69888762489273,838.2754473576763,511.94594083738,273.9287845347145
1731139314.0972445,385.92855264691576,839.6011520146598,468.36180386282956,266.4724763268199
1731139314.1011448,367.5560114936897,843.2841145109134,440.3001296769547,261.663932793433
1731139314.1018398,381.81056813790576,848.1628213519363,452.6102810351209,270.7103380232271
1731139314.104052,428.01476943742887,852.5693142476784,504.7490781532585,295.00067717830825
1731139314.104554,479.7152901316446,855.1697575379975,570.5422477414996,325.9542702356475
1731139314.1050453,507.1791345085343,855.4547818809606,617.5111286842306,352.699446114361
1731139314.1089456,502.1803970107851,853.6702517205036,631.3725391285077,370.86454320989765
1731139314.112846,484.28880905354447,850.3885758906151,627.005375897063,385.11118787501664
1731139314.1167464,483.45594149801644,846.1057879741934,637.5909119654922,403.5266806358372
1731139314.1201386,513.6663007452805,841.1281757427763,690.3476748982814,428.98926744610355
1731139314.1206467,560.1542615557149,835.7463831326719,786.9751587061361,455.2626619920514
1731139314.12295,591.5556575639622,830.5009016302101,902.4084651854878,471.6087050989906
1731139314.1245472,587.3705868637478,826.3108969884006,1001.2344265543759,472.37347897695395
1731139314.1284475,557.684598065076,824.320700296531,1058.8199727148158,463.4194717217695
1731139314.132348,537.7198056495088,825.4445315841816,1072.778404480714,459.40649216594034
1731139314.1357234,560.3049982369355,829.7446305828286,1059.3046164253915,473.24714289006204
1731139314.1362484,628.053704109517,835.9507259841546,1039.9286088730246,505.7059058232361
1731139314.1365938,708.2813628606277,841.5216741450081,1029.1074705901913,543.5699885235681
1731139314.1401489,755.9298994781507,843.4997961114324,1029.7804069633248,568.4651187370174
1731139314.141848,747.1350648016877,839.9613023781417,1036.9052195621466,570.0878043646204
1731139314.1440492,697.0242153792614,831.3409164586313,1044.0148142885114,553.9355382480799
1731139314.1479497,647.5246237288475,820.7255159369263,1047.7185602114264,537.5714732873969
1731139314.1513078,634.7927771874189,812.6611710546595,1048.3034278845598,538.1034456702992
1731139314.15185,662.1236307311119,810.9333082291306,1047.8009505628174,560.2101953916651
1731139314.1557505,699.6513369473092,816.5509453182779,1047.905000191559,593.5442989012354
1731139314.1596508,710.4550041842472,827.1740428106183,1049.127177141879,621.1005575229096
1731139314.160746,681.4547742748099,838.3654282511345,1051.1019194360424,631.8371644991539
1731139314.163551,633.9561474263737,845.887600152285,1053.249343892744,627.9193943281848
1731139314.1668923,605.6223712596735,847.6257391196125,1055.202864962369,621.5431334751925
1731139314.1674516,619.0724165891999,844.0528882565928,1056.8993778676893,624.5666823615716
1731139314.171348,663.0537191240219,837.1935877331076,1058.4838658238405,639.5137565047423
1731139314.171352,701.570862946792,829.0237991979938,1060.1589320472694,658.8324111701983
1731139314.1752524,703.3132113218452,820.4922705926417,1062.0437152663253,672.2651791651831
1731139314.179153,667.1662493183047,811.7490168934783,1064.1078125079378,675.6897214968001
1731139314.179644,622.9760347812503,803.2005849640119,1066.2293613011966,674.038975315173
1731139314.182477,607.1121568658907,796.3756395390408,1068.32793292429,676.2417154606765
1731139314.1830533,632.9654552361576,793.7133539920825,1070.4394370194775,686.9029790165814
1731139314.1869538,680.5317966937885,797.1882772236081,1072.6570955320935,702.0262001383192
1731139314.190854,713.5197003705676,806.6139833504507,1075.0146882634594,712.4688230751665
1731139314.1947546,709.887061760855,818.8758420979601,1077.4534513619574,712.1864726003432
1731139314.1980617,680.7191561800527,828.8964875524575,1079.906815111892,704.2346357684902
1731139314.198542,661.806027418412,832.0578689969915,1082.3896640755784,699.3178132276929
1731139314.198655,684.4725876273423,826.768807042005,1084.9773389791008,707.8481846156143
1731139314.2025554,749.179145463876,815.5919667208541,1087.7047809564217,731.8920243787704
1731139314.206102,823.4091179136162,804.0921649862929,1090.5200856146498,763.5873609332546
1731139314.2064557,865.9541834241361,797.9263831425927,1093.3546863193128,791.4144742892711
1731139314.2103562,858.4823601242546,799.8088027183043,1096.2179374208533,809.2979823400841
1731139314.2136464,819.3221391020077,808.1140777834553,1099.1887760824116,821.1333724493753
1731139314.2142563,788.5651063578593,817.9191308120601,1102.3099317877536,836.979843847448
1731139314.21744,796.5373452018157,823.8343878986844,1105.5209766804828,863.9813939886185
1731139314.2181573,840.9469519802246,822.9547298480911,1108.7245665534401,899.5476473708632
1731139314.222057,890.8636775560994,816.2773412687139,1111.9142597802552,932.6935172270651
1731139314.225958,913.8815108023683,807.907871362669,1115.2091814438106,952.8407595728295
1731139314.2292309,904.009997687495,802.6471911545378,1118.7425348745678,959.0864093826576
1731139314.2298582,887.3068232717227,803.3612145065307,1122.5116904759386,962.1552803486045
1731139314.2337587,900.4564811395445,809.5091612677381,1126.3339485744805,976.85209010202
1731139314.236338,959.6367904240091,817.4893056592551,1129.95096712112,1010.477213799272
1731139314.237659,1045.0888983220489,822.5175035501483,1133.22438768761,1056.2047430664472
1731139314.240856,1114.2414383349237,821.0395378039541,1136.335790795617,1096.8460140892685
1731139314.2415595,1133.2357554445018,812.4635400281903,1139.8665313068386,1116.4391005597463
1731139314.2448156,1101.9129177042087,799.3485117148113,1144.5568789918827,1111.0332408070294
1731139314.2454598,1052.6876306400259,785.9717368495192,1150.624731452918,1090.7240192443214
1731139314.2493603,1024.7874287486563,776.0818611701746,1156.970274947106,1071.8628983714168
1731139314.2532606,1034.913699559654,771.1363615555645,1161.1630406501304,1065.8661046440097
1731139314.255236,1067.645251642649,770.0460597037319,1161.0406458450852,1073.2012279866674
1731139314.2571611,1092.2505161507884,770.48224375332,1157.4852916131922,1086.407775861156
1731139314.2604,1090.8615114963163,770.7547366840081,1156.109569212989,1098.5175685134786
1731139314.2610614,1074.056426574078,770.9059491038539,1165.0308180133138,1109.218508738086
1731139314.264962,1070.949319375267,772.2926939974473,1188.2113854802992,1123.6925617498362
1731139314.2688622,1102.5095137112148,776.0849307081088,1218.204837236245,1145.7729177669019
1731139314.2727628,1160.9795091950161,781.9033276822746,1235.005166021143,1172.0507516619673
1731139314.2741342,1213.2105872928678,787.6429265908781,1215.240366452404,1192.6214642402513
1731139314.2756102,1225.765916990285,790.5737225654341,1148.186196267956,1198.2471508002754
1731139314.2759848,1191.387310953297,788.8660544610614,1047.4931663587554,1187.983728220679
1731139314.2766633,1135.0509748171457,782.4807060726495,947.5644383047426,1170.6854025263854
1731139314.2805636,1094.5114310702556,772.9604771285514,883.6625778246657,1158.791740607787
1731139314.284464,1091.1773126213263,762.4930673900951,868.460374105731,1159.2184117265338
1731139314.2883644,1115.0538353473994,753.0142466766525,883.179027483094,1168.6428155805888
1731139314.2915697,1135.7627811847187,745.8656576183779,892.0132748440518,1176.935578525202
1731139314.2922647,1129.976879181223,741.9478678954596,870.0961702366149,1175.8508014709432
1731139314.2930322,1101.9507995049553,741.9386836806368,822.9435116920832,1165.8087557240274
1731139314.2961652,1079.6150054651732,746.2302704024339,780.8183161244621,1155.196150136349
1731139314.3000655,1089.2485375538984,754.6049891986154,771.738466284558,1152.7730241506183
1731139314.303966,1130.0390995163734,765.9545336664049,795.3551266734805,1159.4782095880569
1731139314.307154,1170.5458637954407,778.334503890581,820.350863921503,1166.5078027501163
1731139314.3078663,1171.3315631193323,789.4098195360493,808.9235732864713,1161.506210286936
1731139314.3103642,1116.2746340493013,797.1088170093176,748.9089895036019,1138.1207702145682
1731139314.3117669,1027.2580490305895,800.2162428396471,666.7725650764675,1101.3596228075396
1731139314.3119302,949.7293959686712,798.6901613841802,609.7742617578166,1064.4487670892393
1731139314.3156674,919.8614019556841,793.6036189425621,610.7960923548555,1039.6076589517263
1731139314.3195677,938.9141219329751,786.7396640059573,663.6487850501844,1029.9501243343734
1731139314.3227386,974.7799118927801,779.9939241378864,728.2508359785614,1028.71393022412
1731139314.3234682,989.020916201539,774.821020982621,761.0280958794555,1026.046632241922
1731139314.3273685,967.4460538280259,771.9295508979769,746.1051053114548,1017.4872097549115
1731139314.3308282,929.7626372956513,771.2748271400803,703.2235541178368,1007.0566905591652
1731139314.331269,911.0436751953084,772.2293596823102,667.7801645335956,1002.5167079618168
1731139314.3351693,930.669606029871,773.7790837727175,660.5102459858199,1007.0342745511844
1731139314.3383234,974.4416956446386,774.7254521624517,671.4112121906251,1014.6309093578036
1731139314.3390698,1004.6592343519844,774.0106474570455,669.7682666636113,1013.7065746890099
1731139314.34297,990.0796216356149,771.2267493605355,630.8601346419227,996.110334407647
1731139314.3451183,931.4768272226039,767.1111216552056,557.3368895644144,964.3590466169617
1731139314.346871,862.0825144738916,763.6151051357303,478.6435406442805,930.8322662345095
1731139314.3497262,822.5113534857138,763.2506124365526,429.85622947014093,909.2072348388608
1731139314.350771,830.2693846299547,767.8921604622757,427.1539556536875,904.7766376693121
1731139314.3539078,868.0471283522221,777.6993634692946,458.75320303123914,911.3059377505566
1731139314.3546717,899.5488160509476,790.8807987018646,497.0863729000577,916.8147770123093
1731139314.3585718,899.3129336277782,804.5068041296272,521.1802097508785,913.3993246485367
1731139314.3624723,871.994349478115,815.8498702381507,530.8294244641414,902.9514457464469
1731139314.3663726,845.7320654254191,823.3729584794189,541.6699471699374,894.1198942031575
1731139314.3686242,845.8652185465357,826.8103784307127,566.317843073812,893.2574236050865
1731139314.3694923,871.5308611445911,826.5306866036389,598.4032957850852,897.2635061120735
1731139314.370273,895.1573343006283,822.9046390703915,614.1246378100492,894.7881577715295
1731139314.3741734,885.6179448699812,816.2731277984103,591.3852963361446,875.2816200597476
1731139314.378074,835.7636440785764,807.455697263557,531.2326095129217,838.5958610587169
1731139314.3798723,770.9437231547755,798.1627590540976,462.9186449672167,796.9803997100416
1731139314.3819742,730.6097937589336,790.7036712145897,426.0516465846466,767.2816934237943
1731139314.385077,737.5463143378109,787.0004994505177,441.9808490592512,759.1820160939659
1731139314.3858747,780.0106445520993,787.5769063800559,496.68908248290063,768.7717798571495
1731139314.3875222,821.8467603094148,791.3046161227585,549.9697064500044,782.6234474167745
1731139314.389775,832.5452077536822,796.1404709235288,565.4097172118785,789.03477693108
1731139314.3936756,812.3148680341484,800.3277957588354,538.4994256835455,787.1736413094102
1731139314.397576,790.8633275252859,803.196711272248,500.41584078796166,786.4890996279254
1731139314.4006617,800.2623887803024,805.055725983842,493.5537660906427,796.8007622971878
1731139314.4014764,844.3043390631528,806.4184590740442,537.4862219244421,817.4110620336397
1731139314.405377,890.6383067699835,807.3282261215334,612.3741189374302,834.7741968025755
1731139314.4064202,893.8882634142965,807.3990099440597,673.5008273443932,831.4866185347777
1731139314.4092772,832.3197936840457,806.5081242021528,685.7881939072433,799.9976216953451
1731139314.4131775,728.5320928174274,805.4373618917291,650.8921386616616,750.1371045130521
1731139314.4146264,636.4750508816232,805.7304857620765,605.2836809714174,704.004191256041
1731139314.4162464,603.6935333756821,808.6819789252897,591.1344445181875,681.5506104759357
1731139314.417078,637.6782088462941,814.1791657562885,623.7434852174422,687.5239594168029
1731139314.4209783,702.3003014081869,820.3906567507765,681.6219167504723,709.4325981444782
1731139314.4248788,746.7162901072157,824.7317012348614,726.292461166403,727.6744498656135
1731139314.4253182,743.7382173615129,825.5297383080982,734.3073952905419,729.7484871705431
1731139314.4287791,707.7472520890428,823.1660830217478,714.4300762541768,717.7908149581227
1731139314.431831,679.0825433169625,819.7631317731095,696.1952307839377,704.4192598554818
1731139314.4326797,688.675893009066,817.5696438454444,700.7600612439467,701.1763148474629
1731139314.43658,731.9593658138557,817.2468789086727,720.0954822777422,709.2488531944825
1731139314.4404805,772.8145687139192,817.4096348808438,723.3115237327114,719.5785097698144
1731139314.4442165,773.6595500562394,815.8386013760933,685.4150381708528,721.4450248340431
1731139314.4443808,726.7819443333474,811.4515290979033,613.9880388628915,711.8302013691895
1731139314.4474156,661.4740243362689,805.4659117138789,550.0413562773506,697.7281618629946
1731139314.4482813,621.4451233512765,800.7712646554996,540.2743227148147,689.828132239953
1731139314.4493804,630.9902732484582,799.9234062989784,601.828723424685,693.2570220911697
1731139314.4521816,677.1096736887928,803.2681387401944,707.5484970143948,703.3359959036833
1731139314.456082,721.4542097990378,808.6150228049548,803.9115430032338,709.8732738846617
1731139314.4599824,731.7200611986902,812.6881126998127,848.0824103584863,706.2229189079522
1731139314.463,706.6870953455685,813.2435542990546,835.7946994768973,695.2988289080331
1731139314.4631145,674.8470790005691,810.310936502396,799.6425447599141,687.2887481629207
1731139314.4638827,668.5360195493643,805.7681371935936,780.9642874052729,690.8284130868902
1731139314.4677832,695.5733673979042,801.7366361275417,798.5225772225605,705.0356643454611
1731139314.4716835,732.2102804429271,799.078346175308,837.9278403072954,719.3333206418102
1731139314.475584,743.3506455126332,797.0503245965127,867.6991783828892,721.679764465783
1731139314.4785848,713.2720782724062,794.220003474839,866.5400812535643,708.783031648737
1731139314.4794846,661.1467135332858,789.8432532832356,839.0598148904678,689.901694715184
1731139314.4820125,627.8958232078191,784.6823059151526,808.6669676663561,680.6904828593704
1731139314.4833848,644.3281088504868,780.7350327939937,795.998065499726,691.4520852020388
1731139314.4841344,705.9999305306903,780.1134388329588,802.428985438547,718.797292704868
1731139314.4872854,775.1626398972705,783.8144136250095,812.3645558919392,747.3193010781736
1731139314.4911857,808.6136270607584,791.111421920746,811.0363063749999,760.2617581435086
1731139314.4941697,789.6564584616702,799.8640229785731,801.176745776742,751.2646771168526
1731139314.4950862,739.2734752392292,807.504275165537,803.1823994842316,728.4860770975905
1731139314.4989865,698.3683921075982,812.1218367807609,837.746359994142,708.273028730238
1731139314.5009103,695.8892673830435,813.0884788970718,905.2380550289316,703.4395972218152
1731139314.502887,728.3093418515783,810.9924488022199,979.6711744501232,714.9797132375089
1731139314.5067873,766.0009908630132,807.0794526025146,1023.9532907048663,732.9506405336699
1731139314.509754,779.9335071128638,802.6463096327104,1016.0829464591492,745.0042911396234
1731139314.5106878,765.9988668889804,798.7401375615218,966.5350008709128,745.4630254603536
1731139314.514588,747.0682696705153,796.1630892686346,912.8416913965757,738.1702327010964
1731139314.5184886,751.8875829012475,795.4833005232834,894.2132013045208,731.8939835794909
1731139314.5188885,789.2045273877001,796.8166783632954,924.2631767201749,732.9681168022082
1731139314.5198083,839.1847535158382,799.5558044883319,981.8519934897171,741.2921768238823
1731139314.5223887,869.4028447789698,802.5090967615583,1026.9429705774041,752.0486783385871
1731139314.5253386,861.9362937201283,804.569355649171,1029.7977913084965,760.3863478013762
1731139314.5262897,828.6693227956351,805.3576159717277,991.8102863653136,764.6004220076029
1731139314.5301898,801.6848293039762,805.244680385638,942.6158013949866,765.9292339020748
1731139314.5340905,806.4814958998421,804.851689521454,916.2548413510074,766.471091878645
1731139314.5379906,840.3290997723414,804.5879175464761,925.2640078272497,767.5360990542018
1731139314.5387063,874.1209525661258,804.5381678384703,952.9799187764705,769.3274299174271
1731139314.5409234,876.6896907315555,804.6020558160724,969.7061202376658,771.4618607659004
1731139314.541891,841.7029027676359,804.6646926327256,959.1373867437677,773.5488222967036
1731139314.5457914,794.6487618019399,804.6775204008588,933.0403959522814,775.4402835584124
1731139314.549692,773.4479376815636,804.6510937426737,921.7268994119776,777.1854497868105
1731139314.5535922,797.8861723428306,804.6148731277583,947.8777093080432,778.8876795828792
1731139314.5536425,852.5924161588646,804.5880749524034,1005.4491899868344,780.609033539553
1731139314.5565078,897.7458650392587,804.5735247447968,1061.7549194487578,782.355020709446
1731139314.5574927,899.485457203151,804.565250353747,1081.9071160521703,784.1033740688447
1731139314.5576043,856.050977692637,804.5572403341577,1056.0406893994318,785.8337794802944
1731139314.5613933,798.9228932205276,804.547231915357,1006.8880519551176,787.5394412734764
1731139314.5652936,768.1048413433693,804.5359961457881,971.154495129271,789.2236146181068
1731139314.569194,781.2619911908055,804.5251344094718,969.8594225269358,790.8918432003414
1731139314.5720923,821.1832725140254,804.5156118925869,992.1824536111334,792.547202171714
1731139314.5730944,851.1868856168333,804.5075240623341,1006.2234794036933,794.1898070203251
1731139314.5765023,845.6179985168754,804.5005389686037,987.5119201236474,795.8184637938075
1731139314.576995,810.6053931829764,804.4943537515604,941.0477069662211,797.432205881944
1731139314.5808952,778.3798514493094,804.4888723296862,898.007598432817,799.0308144503424
1731139314.5847957,780.060423031398,804.4841526053693,889.6793558325764,800.6145692075423
1731139314.587677,819.3201810410904,804.4802875752323,920.5973403262986,802.1838266869288
1731139314.5883963,868.5255127187944,804.4773313831757,963.7041456755635,803.73881030376
1731139314.588696,890.507682718204,804.4752891781625,981.8405110759461,805.2796582869843
1731139314.5925963,868.1602612743484,804.4741396868279,957.6731330195537,806.806566925036
1731139314.5954003,817.7222477991492,804.4738597740571,907.1423584236587,808.3198290508244
1731139314.5964968,775.0802253008824,804.4744407482433,865.5269877444167,809.8196643423648
1731139314.600397,766.6108627118,804.475897884543,858.2461797982406,811.3059361929518
1731139314.6032617,788.703936064182,804.4782695970877,880.9961626477896,812.7780766762311
1731139314.6042976,812.7369337807618,804.4815937177295,905.4002908647493,814.2355996928094
1731139314.6081982,811.0082411282652,804.485856701684,904.5351965582403,815.6792062883239
1731139314.6120985,781.6120601016103,804.4909470176905,876.147482475771,817.1116383834399
1731139314.6142983,751.0563351142207,804.4966842296225,843.8941069017719,818.5367007400049
1731139314.615999,752.0030323345263,804.5029833209348,835.9411110947245,819.9554480904393
1731139314.6188464,794.4768448058445,804.5100967074137,859.3982381022425,821.3613257757573
1731139314.6198993,854.7731341718536,804.5186861127347,892.3550831580899,822.7399421967376
1731139314.6231508,892.0324435004813,804.5293940317204,900.3881136688295,824.0799473318676
1731139314.6237998,879.6610372840464,804.5418733701113,864.114248989603,825.3939342560631
1731139314.6277,826.2577037195713,804.5539664518602,795.4764101447707,826.7322750553279
1731139314.6316006,768.9213348406134,804.5624238918639,729.8602173757392,828.1604092258161
1731139314.6331964,744.1972589244804,804.5661578553069,700.6604124987894,829.6841330324646
1731139314.634431,760.1709518397998,804.5706525525605,716.523958931222,831.1625620221256
1731139314.635501,792.2890207355942,804.5886249410416,758.5678482841258,832.3190770189399
1731139314.6394014,806.0066462831729,804.6309065227701,798.3959986376444,832.9647404036712
1731139314.6433015,787.2442909338299,804.6875387307514,821.3235135388603,833.3925476306903
1731139314.6472025,755.1140546018346,804.712687671794,835.8441176610366,834.599995833934
1731139314.6500156,745.9845302061581,804.6376246711646,862.2423636434884,837.8009364848472
1731139314.6511023,781.8311116445387,804.4216750984424,910.4884452178061,843.0312459634928
1731139314.6520944,849.2884383738079,804.1047307367099,966.362448448389,847.7891571187939
1731139314.6550033,907.5326377685404,803.7979006215786,998.2421234241428,847.789106383023
1731139314.6579049,919.5456262653845,803.6033257490465,980.3411260519098,840.8517327089686
1731139314.6589034,881.687957326978,803.53858145308,914.4982261619399,831.0354113636525
1731139314.662804,827.1704602822036,803.5380874275874,832.7642133205856,827.6814749107585
1731139314.6656,799.8722638084611,803.5185667882118,777.268287197435,837.9108299727795
1731139314.6667042,819.2342985360269,803.4401867113116,771.4554518521804,858.3794131920413
1731139314.6706047,864.7255312599752,803.3177685095161,804.1216765781562,874.5732843543993
1731139314.6709924,892.9075924959533,803.1899898678129,838.6505079262895,870.1912474483428
1731139314.674505,873.6860551054694,803.0835043052117,840.9371843194061,840.2022385747723
1731139314.6784055,816.4228040987506,802.999822558069,805.0746491358124,797.0416826038551
1731139314.6811848,764.3598471710599,802.9258105288454,757.3058995905815,764.0429099428652
1731139314.6823058,761.2060208723401,802.8503521092088,735.2859346024628,760.094743135341
1731139314.6862063,816.2731010206284,802.7715466538226,758.7415184007441,786.6799831515696
1731139314.6898904,895.9605795924359,802.6927986762945,814.2967728811557,826.9898334879939
1731139314.6901066,948.5121550814592,802.6164979081248,866.1166949316394,857.76998792588
1731139314.692659,942.6191071569099,802.5425293503115,883.677284001337,865.0377829628105
1731139314.6940072,889.7294669241608,802.470753645821,864.4829542178999,852.2117610420348
1731139314.6967697,833.202824632745,802.4022798642096,833.7980703467442,835.3328504180167
1731139314.6979074,813.8036806439181,802.3376162020743,822.185823371442,829.907588807172
1731139314.701808,839.2693980488541,802.274970349768,839.7378242427778,839.7816983541982
1731139314.7057085,881.4991762794073,802.2120317504382,868.4421895576018,856.0928707786059
1731139314.7087884,902.1652733990725,802.1496333874668,878.8583267634817,866.0511808613917
1731139314.7096088,884.8840241982275,802.0922612215707,856.6947846045097,863.797069239155
1731139314.712354,847.6620361841394,802.0430724325083,816.3067508429875,854.6224907657763
1731139314.713509,826.2339551932581,801.997284423701,789.0553468280175,849.7383047709825
1731139314.7174096,842.9398004174693,801.940926040247,795.9818933631548,856.4871961348581
1731139314.72131,887.2912893741576,801.8581513844724,828.170051374414,872.2463249710984
1731139314.7252104,924.2518741475332,801.741975057632,852.3667487179276,886.8218647476218
1731139314.7274127,923.1630388938988,801.5987138112196,838.3439054060276,890.9972927329457
1731139314.7276864,883.264216434209,801.4422879454153,785.701366577676,883.9625599170319
1731139314.727939,834.6970812620217,801.2847033518234,727.3788764488481,873.5267817968736
1731139314.7291107,814.1575440559247,801.1310318882643,705.8820863665073,869.1529406983927
1731139314.7330112,835.2357657191601,800.9806346049222,740.764689419324,873.814004472901
1731139314.7369115,877.8422837864107,800.8309464657868,813.4287911490018,881.567967457169
1731139314.740812,905.3909996193423,800.6802061064776,881.3758179012922,882.899882742777
1731139314.7435234,895.4903393696696,800.528094408668,910.1444421057274,873.3182485037368
1731139314.7447124,858.6344225641325,800.3750973182811,897.1406025386653,857.8665493910177
1731139314.7465844,829.1715344070368,800.2217256366716,868.9043665459714,847.5086465911407
1731139314.7486129,835.7701141131712,800.0681631849736,855.6198817901258,850.110622843458
1731139314.7525132,875.8519508912468,799.9143197077458,865.0626868034293,863.3996226703675
1731139314.7564137,915.6407251406519,799.7600249518705,877.5539297015966,875.9139892527766
1731139314.7591078,916.6299742331006,799.6051622579313,865.020377066898,875.570910326012
1731139314.760314,867.3970805526052,799.4496927257192,816.996333219601,859.2331711991139
1731139314.762167,794.8275342170277,799.2936172741299,751.329493897339,835.6759727771007
1731139314.7642145,745.1656783848758,799.1369357328335,701.0789871373254,819.5024751776798
1731139314.7654824,749.6417685900293,798.9796302336304,689.3419933854755,820.7043720685828
1731139314.7681148,801.8741153871131,798.8216694355266,713.2846695045004,837.9469851738503
1731139314.772015,864.6348401954498,798.6630190791457,749.9494162243006,860.5735944532765
1731139314.7746923,899.8005342015969,798.5036486927718,777.541032188642,877.3189286852304
1731139314.7759156,896.8637921720773,798.3435324937308,793.1525715632332,884.4985077997916
1731139314.7798162,877.2702089553719,798.1826472698679,811.8169109863052,887.1934128748255
1731139314.7837164,872.2689196559959,798.0209702900751,848.5084727551831,892.9553044614864
1731139314.7843804,893.8772384641253,797.8584784733573,899.6985024715801,903.7980174876354
1731139314.787617,923.838588498817,797.6951485215208,941.4956894362483,913.558262701366
1731139314.790277,929.9034448898711,797.5309573630138,946.9794845562672,913.0481531884571
1731139314.7915173,895.5035259627929,797.3658826616211,908.38889705661,898.7004861221172
1731139314.7954178,837.3577727605439,797.1999034932977,845.0096633469839,877.2484367037359
1731139314.796921,795.348423933042,797.0330010656462,789.5425383000178,862.0566035455946
1731139314.7993183,802.0164593525469,796.8651586964068,764.5996525134423,863.5423423867048
1731139314.8032186,856.2125987456751,796.6963600105381,769.6040528257654,881.1060549399333
1731139314.8032784,922.5829846702861,796.5265854717682,787.5389648983896,903.0302601869433
1731139314.8058617,957.9021390689882,796.3558100223132,801.648948619855,914.639554282686
1731139314.8071191,943.5763314041611,796.1840067616672,805.7581470438445,908.5663866863954
1731139314.8110194,898.5451542084323,796.0111593922777,802.8611917024724,889.3632720969172
1731139314.81492,862.4710230598182,795.837277023073,798.4254236623746,869.1639975268721
1731139314.8188202,862.920247293038,795.6623929675511,795.6954641362854,858.0436188464588
1731139314.8214464,893.0440869032816,795.4865280642966,794.9755691050622,856.6905389800243
1731139314.8221765,917.7716332932644,795.3096247873377,795.1297136940035,856.9587691241508
1731139314.8227208,903.5437323973064,795.1315091933695,795.1169748588686,849.544200111144
1731139314.8266213,847.5750752251486,794.9519729642969,794.5890249012252,832.4522071211607
1731139314.8305216,782.8014128117208,794.7710156056578,793.7132108840315,813.430406635109
1731139314.8316753,753.9605960210589,794.5891071834067,792.7739830984997,804.4124405798509
1731139314.834422,783.299624754036,794.4071169155112,791.9283093859399,812.3448162027433
1731139314.837031,852.816363353073,794.2255681802592,791.1801723239331,833.5701867940116
1731139314.8383224,917.0118530335749,794.0434094190156,790.4651924272912,856.0835828897259
1731139314.8410745,936.1503287376809,793.8574455321739,789.7297187243256,867.8094867960671
1731139314.8422227,904.1009820202663,793.6641326624277,788.9581237069763,864.482804732962
1731139314.8461232,849.5825557222364,793.4642628800932,788.1607773122194,851.3091179081374
1731139314.8500235,811.06075891242,793.2675636632074,787.3526308133916,837.7049723529432
1731139314.8526156,806.305033705537,793.0904173326707,786.5411490522354,829.8399932259848
1731139314.853924,821.0343459525003,792.9409026832362,785.7258147913287,827.0575983538586
1731139314.8578243,824.7210303688903,792.7961280480396,784.9029356906583,824.6128041059204
1731139314.8599725,799.1576020417009,792.5947098058396,784.0697308112838,819.7312033170558
1731139314.8617249,755.3244626027106,792.2758178351853,783.2255173516583,815.3420429411664
1731139314.8656251,724.4950154031869,791.8710205964068,782.3708317739624,818.0811410796586
1731139314.866429,731.4376487959238,791.5892093779462,781.506152178296,832.2377228571609
1731139314.8682,772.6180024000597,791.7735144712369,780.6313159745107,854.86079188645
1731139314.8695257,817.9714056595117,792.6585599561832,779.7458681150221,876.3159288063716
1731139314.873426,834.8822395281576,794.0730611136456,778.849934287684,886.1117267844178
1731139314.8773265,814.2825617187756,795.412805459361,777.9447926035982,879.6177464836853
1731139314.8788705,776.9963135787252,796.0227140762128,777.03219606444,860.752901850005
1731139314.8812268,755.0921894305261,795.6851561400318,776.112110621514,839.0100147348401
1731139314.8837848,764.0808488440548,794.7658962778397,775.1802047544061,823.3928376476674
1731139314.8851273,789.5728094841653,793.9110154780038,774.2283858365032,817.6556712307222
1731139314.8890276,799.9025516977883,793.5943738674777,773.2515612325242,819.6294698172735
1731139314.892928,774.3067261351575,793.8773150020721,772.2589957643369,824.146353776703
1731139314.8968284,722.8741455202911,794.4948684657256,771.2798426258341,826.8317824513628
1731139314.8977685,680.9475122405886,795.1167724899345,770.3470950010603,826.1932983616744
1731139314.8993697,681.731187695627,795.5578389224895,769.4546799765529,823.2850329265494
1731139314.9007287,729.1349210231705,795.8222828881308,768.5144473526998,820.0095417700795
1731139314.9011831,793.1821019918748,796.0173760178593,767.3754402686639,817.6174256069323
1731139314.9046292,832.2290751399773,796.2423680681328,765.9600584946897,816.253212130533
1731139314.9085298,824.4914951545846,796.531510827041,764.4742652131075,815.3848749521052
1731139314.91243,783.7245867506196,796.8627993566647,763.4845783954352,814.4516922519886
1731139314.914954,746.6564278273795,797.1978025515334,763.5735080755238,813.2184767217834
1731139314.9163306,742.6072214851172,797.5136540608041,764.5160370258188,811.7542448620641
1731139314.9166665,770.0878971302545,797.8104066589716,764.5417495702384,810.2378314342017
1731139314.9202309,799.3579796246781,798.1000525319782,760.8775137497861,808.7998237243096
1731139314.9241314,798.6338564577086,798.3926717038412,752.5071373337288,807.4733824194316
1731139314.9280317,762.2007551903661,798.6904272428394,744.1590768706068,806.2206329299397
1731139314.930539,716.9829588500471,798.9901245634837,747.6062408967464,804.9823667823774
1731139314.9319322,701.6588565175413,799.2885334731584,775.6997140421287,803.720390561577
1731139314.9355645,734.9741685107745,799.5849965566855,830.0601216346805,802.4364180565864
1731139314.9358325,799.1048563795699,799.8803884533423,892.4110396003392,801.1598858588906
1731139314.9359372,852.1054422812961,800.1751450773905,930.9142678172776,799.9158239861434
1731139314.939733,860.053023769696,800.4689055808151,920.6344898608452,798.7021450366642
1731139314.9436333,823.3863255442782,800.7615863826529,862.6946199383194,797.4975581955664
1731139314.9461231,776.2867377033965,801.0539424211023,785.7444961116844,796.2886876448044
1731139314.9475338,759.4191269367559,801.3466928771736,727.4842278436071,795.0841085637783
1731139314.951434,787.7252988582816,801.6394585642545,710.1161238804723,793.9001736473446
1731139314.9544623,838.997712830633,801.9311536343889,728.1846185087118,792.7384916344993
1731139314.955335,872.3340292126369,802.2215268560849,757.193420372475,791.5841648391635
1731139314.959235,861.6186411383555,802.5117964027954,775.1638336229908,790.4260326196834
1731139314.9617078,817.1457598655985,802.8032236975653,779.696812381227,789.2714420008739
1731139314.9631355,778.0265885902674,803.0951415152516,787.33217894319,788.1357213093526
1731139314.9670358,781.398043447572,803.3850648168833,816.4725835949533,787.0203183936615
1731139314.9706914,832.8996279852406,803.6714257583553,868.4182029342537,785.9091019241288
1731139314.9709363,901.7223872346385,803.9563669714917,922.6549064448064,784.7890720055259
1731139314.9733603,943.8848639393292,804.245335810287,951.044806782251,783.6695740851762
1731139314.9748366,935.1167845901991,804.5427241599093,939.9498851076631,782.5743014061323
1731139314.9772923,887.5772393149314,804.8462204161056,902.1540567339257,781.5127607399227
1731139314.978737,838.0354322398108,805.1444795700445,867.9868700840691,780.4627376571377
1731139314.9826374,818.0413916871746,805.422316357482,861.8064359064335,779.3844952879167
1731139314.986538,830.5214948696364,805.6742036827739,882.553784214755,778.2565139621904
1731139314.9904382,851.1581570082693,805.91947459804,904.7114023609198,777.1051493099335
1731139314.9922583,852.1436611330264,806.2039477679753,899.7832525058981,776.0054532475963
1731139314.992877,827.5833114311279,806.5724897900402,861.1756488270886,775.0414072311437
1731139314.9943388,798.9396736690584,807.0160988196508,811.5895821438739,774.2272459490407
1731139314.998239,796.0196313381722,807.4313799564353,785.7187576392474,773.4267340531959
1731139315.0021396,829.8105481071893,807.6510393988525,801.5896199896257,772.360182926292
1731139315.0054457,880.5922292244792,807.5738839320887,844.2294110552626,770.7908086785815
1731139315.00604,912.1236611621855,807.3361169764154,876.1626772268,768.8509371394296
1731139315.0084617,900.7191982542616,807.378644773882,867.3007282893997,767.2421595621123
1731139315.0099404,855.0582468621938,808.2720163727573,820.0998988452569,766.9422362563428
1731139315.0111566,809.7240565095059,810.3120993803637,768.8293880948981,768.3251997008427
1731139315.013841,797.1579099846774,813.1229743179614,752.7246942994353,770.2169442327411
1731139315.0177412,821.0206365160409,815.6154407591292,784.6398656609491,769.8855044253304
1731139315.0216415,853.3832246766252,816.4910549090481,841.0668833441588,764.6571702096116
1731139315.0240464,858.7226730459512,815.0875594738767,881.9502598148086,754.6003497410956
1731139315.025542,825.223568337335,812.0025980801112,883.8592796356163,744.3206194612771
1731139315.0294423,777.1392301277991,808.9406111060781,858.7386067035617,741.7313118694225
1731139315.0300546,756.9763081490785,807.705187253978,842.4670402794925,753.4618938113609
1731139315.0333428,791.0453506877925,808.9202728946302,862.8866597748112,779.4298949292822
1731139315.0372434,866.1357377428728,811.3950208413219,914.359398656121,810.7232307975775
1731139315.039631,936.7970125848411,812.7104271951615,960.499667833067,833.4210125193088
1731139315.0401995,958.3613189968802,810.7629125430187,963.0640789973025,836.8035307466885
1731139315.0411437,920.0699364463737,805.2527139078322,913.0459405658945,820.596920957665
1731139315.0450442,852.3391136289788,798.0504812383232,838.2609922180643,795.8035980950623
1731139315.0489445,802.6619027526795,792.1166732301627,781.4312557599591,777.9545717702987
1731139315.0489526,799.4417441235979,789.6724641271595,767.2274106212724,777.2774337511612
1731139315.052845,832.2916715580902,790.8710683065829,785.4295012966955,792.8032628245151
1731139315.0552156,863.736491888897,793.8749293821406,803.3416074874692,814.5777413147902
1731139315.0567453,861.9523279920129,796.2523145427302,796.0022270475087,831.9620716190136
1731139315.0606458,827.5895340847994,796.6906516057691,768.2927344818321,841.389173764919
1731139315.064546,793.0390325317762,795.8382511379866,750.5344624948585,847.6104421416975
1731139315.0678506,795.1352763367305,795.7366400916475,771.7798469424132,857.8894247175075
1731139315.0684466,843.7895198147393,798.297272323759,833.5262992638279,874.3484347321388
1731139315.0708,912.1306285719666,803.9016267130916,905.7372058557906,891.0600127421721
1731139315.0723467,956.1753923210554,811.0574194417724,948.1175346413664,898.3985571349377
1731139315.0749536,948.2594429199506,817.2811467155485,938.8664347154908,891.0346093645408
1731139315.0762477,897.6246150741341,820.559278921887,887.9697974568644,872.8689132861224
1731139315.0801475,842.1670112169484,820.416103558026,826.285548449096,854.736415354377
1731139315.0840485,818.5501390814902,817.956157847872,782.1414260626708,846.7330545480728
1731139315.0863848,834.8758807740933,814.9692930043459,765.3603184489135,851.4316747681603
1731139315.0867486,867.3808651133368,812.7781851702443,768.3588001108384,863.2748033381173
1731139315.0879486,882.7487147870592,811.5934682451293,777.8351924486476,873.9361582141852
1731139315.091849,866.9253385070302,810.7114312572373,784.8418804584797,878.4650779046326
1731139315.0957494,836.5387806286392,809.2810235803637,787.3442185143356,877.2561567185436
1731139315.09965,823.7918020911774,807.0136392927245,787.3717939028553,873.6117674480392
1731139315.1019697,847.7416916751156,804.3355273079513,787.3750503800397,870.3861862232939
1731139315.1035502,896.1306889875424,801.9577526764796,788.4354952270681,868.5305706907113
1731139315.1056466,933.2360939364677,800.2852031382537,790.3644937266016,867.5922039651052
1731139315.1074507,927.7549431605734,799.1678387475833,792.543496680585,866.8005661727967
1731139315.1097076,878.1255976474603,798.1724485031353,794.5551578585668,865.7308747335044
1731139315.111351,814.5569618724575,797.1011567616974,796.3293200598949,864.3726603078492
1731139315.1152515,775.9124526476103,796.2785968194207,797.9889680110914,862.9001709839239
1731139315.117554,780.0604587309595,796.3381222900596,799.6633773963434,861.4582060628993
1731139315.1191518,811.5710671980902,797.6769777236732,801.4038832586208,860.0884426840826
1731139315.1230524,836.3446519611789,800.0431007795631,803.196377097965,858.7621970330371
1731139315.1245446,830.6351028573399,802.6087476853799,805.0075683614645,857.4384679208686
1731139315.1269526,800.2342031191945,804.4706494827874,806.8168519053983,856.0965812801721
1731139315.1308532,774.0099592008314,805.1562247640118,808.6220763587099,854.7375206365382
1731139315.133139,777.5561897818395,804.7292585905977,810.4304900556989,853.3709668313812
1731139315.1347537,809.4553556913685,803.4652679141155,812.2489731270401,852.0042931951388
1731139315.138654,840.5729145034047,801.4666743346639,814.0800660167772,850.6392773310297
1731139315.1425543,837.5527026056292,798.640120154937,815.9229709090174,849.274184295512
1731139315.1434426,791.2758209721588,795.098573438919,817.7760648570876,847.9068570724233
1731139315.1444616,726.5120076315686,791.5951341504947,819.6384923262299,846.5363092130158
1731139315.1464548,684.2034909599481,789.4707128825818,821.5103668880463,845.1626785377715
1731139315.1487231,690.2657905335957,789.9581614714804,823.3922489941054,843.7865047406754
1731139315.150355,735.9554922604088,793.2543882768566,825.2846388791829,842.4081666782885
1731139315.1542556,785.5357261627703,798.0631221539263,827.1877928893983,841.0277391706474
1731139315.158156,804.8236731644756,802.0466012476471,829.1017936844064,839.6451207586472
1731139315.1620564,787.3877534960246,802.9862902705116,831.0266856299506,838.2602019588209
1731139315.1623406,757.3807180008945,799.9390086465786,832.9625531938608,836.8729503121939
1731139315.1643078,747.3031525619676,793.6839077960907,834.9095251524587,835.4834060096292
1731139315.1659567,769.4932530672006,786.259299667968,836.8677438577198,834.091630336544
1731139315.1698573,805.081208670229,779.9747367934042,838.8373394698348,832.6976457700233
1731139315.1737576,819.6024479093543,776.5185506915496,840.8184247977347,831.301398647242
1731139315.177658,792.4271901941463,776.557818413021,842.8111047825017,829.9027809542879
1731139315.1792157,735.664758471537,779.8108144997328,844.8154855587007,828.5017390153322
1731139315.1798923,686.616853714879,785.3245970405914,846.8316701710909,827.0984315900595
1731139315.181239,679.350943866707,791.7546994983348,848.8597389634596,825.6932854822138
1731139315.1815584,718.0903808057164,797.6558245754694,850.8997300542567,824.2867396114625
1731139315.185459,773.9274914179967,801.8789433917086,852.9516500945584,822.8786372657268
1731139315.1893592,807.7011430289697,804.0248881070506,855.0155380512318,821.4676807868092
1731139315.1932597,800.753000521532,804.6858091918735,857.0915574254416,820.0518218910277
1731139315.195477,768.8166779571114,805.1793517351948,859.180019528191,818.6302608315716
1731139315.19716,747.8753564662135,806.7581967447184,861.2812126072758,817.2062837360985
1731139315.200137,763.5673490971839,809.6909282226867,863.395028175148,815.7879289157066
1731139315.2010603,809.1709663026329,812.8280057532247,865.5206590747891,814.3826427678382
1731139315.2049608,850.3182494690077,814.0622329862226,867.6569034326926,812.9857479462136
1731139315.2088614,852.856310370496,811.5423112344711,869.8034362817509,811.5713620972932
1731139315.2110617,811.354277689121,804.9528217436733,871.9624838623812,810.1024742622278
1731139315.2127616,755.0804566740308,796.0276705289799,874.1390008393815,808.571728902384
1731139315.2139697,726.4130019408782,787.871020556921,876.3371069459671,807.0567787486755
1731139315.2166622,748.8249401275827,783.400882936404,878.553001179427,805.7364924439364
1731139315.219035,809.7990511532191,783.826661337119,880.7699815797389,804.8153731097243
1731139315.2205625,871.7498583080782,788.0949355328931,882.9656035005032,804.3855689104591
1731139315.224463,901.4324418648832,793.627889634878,885.136672558455,804.3494403036849
1731139315.2266464,893.8408606921312,797.83318900042,887.3293982363921,804.4875646802634
1731139315.2283633,871.84924109847,799.3845821505445,889.637718787384,804.6073494000028
1731139315.2322638,863.2113551235075,798.5150925447842,892.1300071204655,804.6370232992851
1731139315.236164,875.1080611332259,796.3363921876139,894.7156884876424,804.60764445894
1731139315.2379327,887.9762407509485,793.8836285319152,897.0659228129076,804.5733373134627
1731139315.2400646,873.7829278343509,791.6453350959199,898.7752654471658,804.552836956406
1731139315.242231,823.0992181966918,789.7715659350006,899.8486334388863,804.5311736521193
1731139315.243965,757.6124250512095,788.5015751514326,901.2361789888538,804.4947905367255
1731139315.2478654,716.5631728342725,788.2154064591838,904.698916759454,804.4494109044681
1731139315.2487235,727.2716598029003,788.999331266703,911.3029360682999,804.4043859446415
1731139315.2517655,783.4952305436971,790.2311465788845,918.8819960245735,804.353187750608
1731139315.2556665,849.4871083790192,790.8013373900983,920.6965725253799,804.2809257823325
1731139315.2568307,886.9270394082142,790.0196898083043,908.5426071295063,804.1887813012277
1731139315.2578156,883.2604593370198,788.5059882539705,880.822203460946,804.0986954311185
1731139315.2595663,858.7603855398497,788.1589421855724,849.1811523549675,804.0260551790539
1731139315.2634673,846.9743087748026,790.9332486725689,833.750685218157,803.9522486449239
1731139315.2673674,865.0232219787304,797.1723592968725,846.1255005422311,803.8351070805472
1731139315.271268,898.5683130527542,804.785661289264,874.5834709878111,803.6539983763263
1731139315.2734,914.1609004837512,810.0956521433724,888.2322742421647,803.4461917928087
1731139315.2751684,888.9451835478782,809.9933530466358,860.1874740230239,803.2949860157557
1731139315.2757287,832.9688736785248,804.0214467562834,791.3659170462494,803.2676684664943
1731139315.2790687,784.9145419559912,794.9510381045814,714.2393638051878,803.3364289427452
1731139315.2829692,783.567913105628,787.3966859333265,671.7342482783272,803.3360988124765
1731139315.2834778,837.3292854605804,785.3168720589289,686.7887695256247,803.0233547375216
1731139315.2868695,916.191314418922,789.9453359370094,746.1237435831952,802.2739898737935
1731139315.2889848,972.9671107631955,799.3412941493726,810.8889461928399,801.3392675494747
1731139315.29077,977.3298622061643,809.6545039588652,845.6596200181713,800.9165518788382
1731139315.2946267,936.153443351238,817.1729280047407,842.8491882242839,801.760496527153
1731139315.2946703,884.8167738667169,819.9193414394111,823.7264265206163,803.8645612501434
1731139315.2985709,857.4487816386735,818.0685533701557,816.5920766631464,805.7916233798084
1731139315.3024712,860.6485959241073,813.2932597042117,831.3553323280785,805.0389900486095
1731139315.3045695,871.686805140637,807.7048851391771,852.1860200854411,799.8355416578657
1731139315.3063717,861.6467034611426,803.0459189549412,853.9976736188094,791.5104382256488
1731139315.310272,823.332463995883,800.3821550177369,827.6944500408847,785.4598733563254
1731139315.3135247,779.9885841295452,800.1413199905534,791.2647304213548,789.0264040485521
1731139315.3141725,767.0047326665158,802.2311327738074,775.9430721797437,806.6831360268911
1731139315.3180728,801.503552625876,806.1195147807613,798.6204026220124,835.5096300615323
1731139315.3182318,865.2541155543549,810.9398859367141,844.503468705087,864.7771675838347
1731139315.320154,915.9072330403793,815.7046145896471,876.2130934237397,881.1724282111198
1731139315.321973,918.5157515874962,819.5821657376085,863.2027325140238,876.9602798297092
1731139315.3258736,872.4704251776524,822.0841219740696,807.4590966159766,855.4825026327941
1731139315.329774,812.1820207827334,823.0527347951788,743.5284597805291,829.5841234738514
1731139315.3324227,780.6399695900153,822.5082671798722,711.8146169969762,813.5042686304297
1731139315.3336744,796.6211602852815,820.5444310710097,726.5103541748157,813.8131839493609
1731139315.335739,841.3372673218703,817.4114702285248,764.5139662631024,825.9695854588985
1731139315.337575,874.6868772263518,813.7243084118508,784.7498744153067,838.9177800891673
1731139315.3414752,867.6830096090664,810.5538191370722,762.3587497727517,843.9743308532811
1731139315.3453758,825.0554099672063,809.1786781736549,709.9424127385297,841.0071497227678
1731139315.349276,780.4096397583144,810.5097870404315,668.587984077594,837.2505127215437
1731139315.3513207,768.6062458605063,814.4802032755343,675.9442560342592,840.1427356932238
1731139315.3513231,798.0781045564569,819.7997432057462,736.940215068769,850.3856425305838
1731139315.352986,845.2159897790286,824.308019619123,820.0649487282233,861.0813505224124
1731139315.3531766,874.5779649398171,825.8234181813839,881.1992549934444,863.6243900146212
1731139315.357077,867.7105797396501,823.0956929424209,895.2734004906794,855.3220442060986
1731139315.3609774,836.8461644599192,816.4022245086646,870.9852042980494,842.2255921559073
1731139315.3648777,812.7215796033261,807.5075210428597,838.709989797282,834.6373916687721
1731139315.3669078,817.3546241075753,799.013095373023,823.5926766911025,838.9135819605588
1731139315.3687782,844.9708890643367,793.3911689925111,826.6736679024445,852.347327776621
1731139315.3702188,867.2418748124987,792.1033513245399,828.6151628523639,865.3716649228916
1731139315.3726785,858.4520907983133,795.1356472375024,810.9637611366174,869.1531708513398
1731139315.376579,819.2531524096934,801.0938630904875,775.5510444110389,862.1279029593503
1731139315.380479,778.4938966916951,807.7856970241497,745.1072144292463,850.1608915409784
1731139315.3824923,770.7332852096705,813.041790176654,744.6670240507254,840.8711109174637
1731139315.38438,807.5150375602327,815.4498370674853,779.7143239389148,837.7811740511261
1731139315.38774,866.2317161792423,814.7243264197091,829.7264524674595,839.2289096677628
1731139315.3882802,906.3988931434263,811.6030990225477,862.9624652181328,841.5496660826764
1731139315.3891168,900.7282000738024,807.3819850792712,860.8217724233227,842.3959937092546
1731139315.3921807,855.9994631584634,803.3517531781754,832.2107866201404,841.5727221977037
1731139315.396081,806.7638062984595,800.3932964097036,806.303664090537,840.0048591215213
1731139315.398077,786.9813119946043,798.8331709599903,809.2893851324201,838.5447056977079
1731139315.3999815,802.7777771720982,798.4912303209605,843.3965766413572,837.488516974512
1731139315.4038818,828.6783509730059,798.798834103728,884.7303823214047,836.7109722393692
1731139315.4077823,830.4538917870325,798.9420735377713,901.7508373877012,835.9846923804107
1731139315.4080148,795.7420344372917,798.0708317755748,880.105623981498,835.1807939629618
1731139315.4116826,746.9074218933406,795.5920323735841,834.4960333700612,834.2933691663959
1731139315.4136617,724.823859278595,791.450556872656,798.1641544622038,833.3731097439282
1731139315.4155831,755.9674328382524,786.2331230274366,797.8107537404933,832.4633920008641
1731139315.4194834,829.168134063362,781.012403175717,833.0638117842789,831.5773686075216
1731139315.4224942,901.1568181920674,777.0193435940106,876.3017737993828,830.7070044109229
1731139315.423384,927.3191445607146,775.3198223650127,893.1468102969825,829.840198447901
1731139315.4269128,893.9991681869992,776.5887822445352,868.0996819076257,828.9706836034553
1731139315.4272842,827.3522010015238,780.9291447533225,815.8079099606286,828.0986353563529
1731139315.4292464,772.2208709328762,787.6699105229338,769.5482384372049,827.2269048245532
1731139315.4311848,758.0613041237843,795.2482411451731,756.1806981301348,826.3577236821181
1731139315.4350853,778.8077791998481,801.4422847027977,777.2703805732756,825.4916732354953
1731139315.4389856,801.9433553334228,804.1185615711962,810.8881370721884,824.6282779529695
1731139315.442886,798.3705120288589,802.2638020636324,831.7496274139457,823.7669339538369
1731139315.444831,768.0458119264243,796.690704082863,832.3928078030023,822.9073989915794
1731139315.4458108,740.1556201427843,789.8341558255858,827.4357948104637,822.0497657827342
1731139315.4467864,747.7225827160469,784.5878157767688,837.47189005179,821.1941941150353
1731139315.4506867,797.7449038769712,782.8176847918857,866.9162783595199,820.3406908044931
1731139315.4545872,861.9463137815873,784.481199927946,895.9419085475963,819.4891013360584
1731139315.4572482,896.6023667558206,787.9013842327402,894.9923401042006,818.6393350356786
1731139315.4584875,876.1477201166116,790.9539198073848,850.6148610151357,817.791682337392
1731139315.4604156,813.7130006977392,792.32139543065,780.4162453589556,816.9469018958691
1731139315.462388,751.8992259285558,792.00578547711,722.8782460593843,816.1057123655559
1731139315.4647088,730.8444889729614,790.904179135532,708.6954663290614,815.2676844333001
1731139315.4662883,758.7685988877831,789.9341619347039,736.711771263808,814.4303569075853
1731139315.4701889,808.0305539019736,789.422758112311,774.9784422928784,813.590146049956
1731139315.4740891,839.1103946218489,789.1325141847926,787.2013119236859,812.7460908454725
1731139315.476,832.6198346658563,788.7364914441412,763.4367425176227,811.9047458212582
1731139315.4779897,803.5030875003192,788.2465773133092,729.5212598519521,811.0806323499987
1731139315.48189,786.6072817325434,788.0478882887081,726.6650848507326,810.2857040784439
1731139315.4836068,806.2812247205266,788.5930802688844,777.2318175479833,809.5085694125759
1731139315.4857905,855.3722340338085,790.0835152639542,864.5192359237067,808.7000870523608
1731139315.4896908,900.7580146280147,792.4007413554389,943.3121432979129,807.7947250631084
1731139315.4915848,910.4562544112032,795.2702415714632,973.0572815383207,806.784067139371
1731139315.4920022,879.7076983522252,798.43389685821,947.2643659573679,805.804761914821
1731139315.4935913,834.6178078994186,801.6580432403811,896.1213075440002,805.1321515749528
1731139315.4974916,810.7057053929684,804.6238507133029,861.2587997498315,804.9635018668597
1731139315.501392,824.3807528037474,806.8922840331705,863.796194889118,805.026171484664
1731139315.5025048,860.9103190679957,808.054753187623,891.1417043304649,804.3460119995398
1731139315.5052924,888.4579775358757,807.9593341287,911.5792542152022,801.7188066102722
1731139315.5071695,885.9949925086137,806.7785151409752,902.6983733857516,797.112280517968
1731139315.5091927,861.40231075203,804.8087756997472,869.3204250222643,793.1342839738437
1731139315.5130937,844.3730840646512,802.1684929004125,836.7559582680888,794.5597510748605
1731139315.5169938,859.898286136819,798.7185658757302,826.6806635478229,804.7270615797165
1731139315.5208943,904.6153700005473,794.3785623905319,837.3469877837384,821.1231381185897
1731139315.5214028,946.3942309895249,789.6399327594913,845.4604211435536,835.0264724735875
1731139315.522754,948.6291477278289,785.8092946082431,828.0864639141126,837.2974066631532
1731139315.5247946,900.2047442600461,784.6261253767708,785.6389119920184,826.2121016819518
1731139315.5267563,826.8300543703637,787.3561773601115,745.7635947980557,810.3305292991257
1731139315.528695,773.8940947411473,793.9150878619391,743.6170560085259,803.1079616152401
1731139315.5325954,773.6649861601366,802.6437385997287,793.6119703864659,812.973395483244
1731139315.536496,822.2657348321188,810.952381380997,875.1983774058352,836.6925386536997
1731139315.538339,884.1773810081346,816.4700597062315,944.6806271929864,861.4572599068227
1731139315.5403008,920.1721462555158,818.0172496321271,964.907386019661,874.2169399291822
1731139315.5403962,916.1769217141248,815.8870906527175,930.7887864971689,870.9751235544368
1731139315.5442967,890.457508782736,811.4154925356123,871.6840795945861,858.8634471790291
1731139315.548197,874.6447324187549,806.250839484451,829.1642110338323,849.6891436666818
1731139315.5520976,885.4837651525348,801.7997747013367,826.9672658818829,850.479232331562
1731139315.5539231,911.0990437099478,799.0422873432113,855.301954344186,858.688267890808
1731139315.5559978,922.4261339637476,798.5609565041597,880.3537206579598,865.4967094951139
1731139315.5591989,898.6783335430777,800.5119483984168,870.866679347007,863.7177941064913
1731139315.5598984,844.2853712653304,804.4463718559203,821.4580669586339,853.2764757040413
1731139315.5615103,783.736802065534,809.1724052313641,755.7633927846533,840.079912252041
1731139315.563799,741.4755666757703,812.9521464224196,708.4105035875342,830.4455821792195
1731139315.5676992,726.0276596473648,814.1322089887535,700.6566582532071,826.7161374130724
1731139315.5695078,729.8681653222575,811.9532417933987,728.2364576402545,827.2081291521336
1731139315.5715995,740.0788905959853,807.0560202730776,769.2187006437202,828.9458492861522
1731139315.5755,747.9498500421175,801.3024142935137,803.4580723502106,829.999257000222
1731139315.5780969,751.4665506945493,796.9185993296578,826.6521286984138,830.008442532639
1731139315.5794003,752.5705081136507,795.3938697230527,847.7891510443193,829.4855257852212
1731139315.5833008,753.6318015510344,796.7492680960064,873.7963596252031,828.9884271779106
1731139315.5850923,755.7047355618494,799.6021433010699,896.6650639453115,828.7431963619292
1731139315.587201,758.6130992361306,802.0013069170725,896.2960754899626,828.6910192822945
1731139315.5911016,761.7598646152421,802.5562241946113,858.1854251496103,828.6870566767045
1731139315.595002,764.7395150885953,801.2007591407261,790.8291162963736,828.6398690691607
1731139315.5962644,767.4820181382494,799.1391156619859,726.0563248200488,828.5380462646654
1731139315.5969949,770.1052296610701,798.0149196265135,698.846432273864,828.4116698727814
1731139315.5989025,772.7341004185273,798.8332452818192,720.9994866544274,828.2898300822358
1731139315.600677,775.4185483479622,801.3327854219319,770.0913473048084,828.1829865163699
1731139315.6028028,778.145048254785,804.2169638097372,804.4330212274874,828.0870276161329
1731139315.6067033,780.8812612687472,806.0761199022194,794.055293473864,827.9941196427808
1731139315.6106036,783.6069776236463,806.3542098375918,743.9112122901479,827.8996950684848
1731139315.614504,786.3198341447033,805.6774785437586,690.577063492157,827.803414977518
1731139315.615893,789.0266040043401,805.3128317922583,674.4367310201158,827.7069400156068
1731139315.6162615,791.7337224863811,806.1490174234784,709.0657425995993,827.6117223733578
1731139315.6184044,794.4434244482775,807.942406274063,771.9251007944137,827.5181864685611
1731139315.622305,797.1547569880546,809.3818760089144,823.2428595770313,827.4260184804425
1731139315.6262052,799.8661008546284,808.9370567416361,837.1826433642148,827.334751605458
1731139315.6301055,802.5767354334563,805.8934538486634,819.9174864509199,827.2441127559186
1731139315.6310184,805.2868526175453,800.8567184746039,800.7882496219969,827.1540501142482
1731139315.6318464,807.9966601800295,795.4058835856349,805.3900096699264,827.0646063165585
1731139315.634006,810.705591010587,791.1830980648431,834.0266556158534,826.9758045453007
1731139315.634791,813.4124809773924,789.069226949972,863.4115373534712,826.8876113661352
1731139315.6379066,816.1170021516566,788.9594900370373,868.9538804774248,826.7999557949355
1731139315.6418068,818.8215214627824,790.1615548003671,847.2924669441229,826.7127606433653
1731139315.6457074,821.5312336938969,791.9955330227266,819.0244097876547,826.6259595797958
1731139315.647431,824.2502524431882,794.1169666621904,809.3157465037833,826.5394974137881
1731139315.6496077,826.9741192353323,796.4108732155906,823.7542506777269,826.4533230157749
1731139315.6535082,829.6849097214483,798.7035759901727,841.3352568421219,826.3673835192727
1731139315.653689,832.3594691271679,800.6623000193259,831.8728451898667,826.2816227213492
1731139315.6574085,834.9961820692441,802.0162046453406,783.8461262215396,826.1959823116669
1731139315.661309,837.6459276755008,802.8748508833041,718.9111796098307,826.1104035741894
1731139315.6630156,840.4077722823276,803.7806363257444,679.514612098693,826.0248282535675
1731139315.6652093,843.3488899467052,805.3475279678418,697.9317470859419,825.9391985456738
1731139315.6657724,846.3646031166778,807.7223363322039,770.6090858938198,825.853456741909
1731139315.6691098,849.1025354391217,810.3105789237082,858.1859707414691,825.7675449716453
1731139315.672587,851.1460727016375,812.0385355173288,911.8472027961328,825.6814051738888
1731139315.67301,852.5340832051621,812.0058812113183,906.478771022074,825.5949792131506
1731139315.6769106,854.30642151918,810.0679683365373,856.2164500982477,825.5082090132461
1731139315.6786,858.3132830757332,806.9378650562945,801.7432945199154,825.4210366399793
1731139315.6808107,865.5793630532095,803.7665080056028,779.9572220570863,825.3334043275233
1731139315.6847117,873.6540122495786,801.5319143541303,799.0014665057678,825.2452544758455
1731139315.6886115,875.3629208251473,800.649567849552,836.2787398075722,825.156529655899
1731139315.6914847,862.3539368130444,800.9795990718459,858.9505698658899,825.0671726594306
1731139315.6925125,833.7768999711536,802.092117309991,849.8436049233516,824.9771266139006
1731139315.6941848,803.1182146561337,803.5261668621295,818.9436626652008,824.8863351312434
1731139315.6964126,792.7330410694208,804.8961405200437,792.9607329161272,824.7947423812537
1731139315.700313,815.6409776428732,805.893690101803,792.6419244369895,824.702292948508
1731139315.7005267,860.3117679574366,806.30591653708,816.321402212694,824.6089314564224
1731139315.7042134,895.5898990185547,806.0862599174263,842.3522673181069,824.5146022549376
1731139315.708114,894.5650119655094,805.401351051036,847.6845198762949,824.4192497670791
1731139315.7097695,857.2608725314261,804.5684707273473,827.1375748275458,824.3228199212919
