timestamps,eeg_1,eeg_2,eeg_3,eeg_4
1731014451.4023633,795.4649699984788,811.0510813379558,808.4443719870795,794.1435620896368
1731014451.4095345,801.986339428818,812.7271094605617,805.5507868733188,796.4283488291876
1731014451.410409,807.44541925318,814.3049184854758,803.4544647618665,799.5347141041659
1731014451.4142954,810.5894708951374,815.6322911538933,802.7572487996608,803.304002946548
1731014451.4181817,810.1240621189518,816.5348486629784,803.657779956412,806.363694418778
1731014451.422068,805.2439051765737,816.9320746660449,805.7894429022407,806.8303445012793
1731014451.4244864,796.2270598257869,816.9457235732993,808.2196301325579,803.4442772597193
1731014451.4259546,784.6648740092282,816.8904309365878,809.6974108855875,796.3361522548297
1731014451.4283333,773.1006687422507,817.1129193852726,809.1133727766854,786.9329785083141
1731014451.4298408,764.198168215288,817.760516867414,805.9936688726406,777.1618050416683
1731014451.4337273,759.8082004183794,818.6291144133119,800.78432130276,768.5769356017254
1731014451.437341,760.319170888521,819.2138439509105,794.7483124643411,761.970448440372
1731014451.4376135,764.525225610062,818.9706674067678,789.4861051699158,757.5489122488834
1731014451.4400277,770.0589536638702,817.6579768243283,786.3036062232538,755.3208573372825
1731014451.4415,774.2629518830038,815.5533122711788,785.7462196865447,755.2825401965971
1731014451.4453864,775.203409744494,813.3908675922509,787.5157600256309,757.2832255991593
1731014451.447132,772.4176683139227,812.0231858705249,790.7598213654398,760.7978686062647
1731014451.4492729,767.0648842146711,811.9827520495819,794.5303064217054,764.9466808604391
1731014451.453159,761.4330560726693,813.1951963940738,798.1568071040759,768.8895130533763
1731014451.455569,758.0646213458986,815.0191179225968,801.367543300305,772.3474447997698
1731014451.4570456,758.8818879029207,816.5965650876119,804.1501714362297,775.7865209636252
1731014451.460932,764.5963953299348,817.3094869861044,806.4986498979072,779.9878087351333
1731014451.4648182,774.5219283586398,817.0751627290337,808.254316260749,785.2340675729107
1731014451.4659307,786.8013820356056,816.3216355273738,809.1623699459922,790.7409331340824
1731014451.4687047,798.9882797103896,815.6862864259093,809.0798536950797,794.8591975429903
1731014451.4711103,808.8314747394337,815.6352379126777,808.143035331595,796.0128403699728
1731014451.472319,815.0052536099662,816.214402682667,806.7484690057437,793.7664058667178
1731014451.4725912,817.487499995743,817.0366349148627,805.3727416328079,789.2887322924479
1731014451.4764774,817.3881739264541,817.4806841811827,804.3828250004536,784.8781000291099
1731014451.4803638,816.2684652991774,817.0006139503905,803.963804695973,782.8284006113066
1731014451.4842503,815.26903085985,815.4215480678396,804.1637265857996,784.321481542704
1731014451.4847298,814.513041601809,813.0992035502661,804.9605292272892,788.9768110899979
1731014451.4866517,813.1308780403095,810.8458788941963,806.2718826172352,795.2413952469058
1731014451.4881363,809.9025771901502,809.6044920121553,807.9180017272452,801.2831135383467
1731014451.492023,804.1484672905376,809.9866006618291,809.6098471576479,805.8098739369187
1731014451.4959097,796.3557612600131,811.9090712907505,811.0071671272498,808.3982995393409
1731014451.4997957,788.1850293259741,814.5605374045882,811.8077624443944,809.3032219397983
1731014451.502193,781.8406565842192,816.7604995811969,811.7906703389468,809.0323652279259
1731014451.5035286,779.1206881962478,817.5298595771637,810.7953401228559,808.0246624369655
1731014451.503682,780.6253219454907,816.5451033459678,808.7117358037314,806.59263581691
1731014451.5072968,785.5248464156418,814.2175942174606,805.5641509475032,805.0453711664084
1731014451.5075686,791.9997982510323,811.380465754909,801.6645881407762,803.7781030669026
1731014451.5114548,798.1131140817181,808.8036228791891,797.6967924451252,803.1837282781122
1731014451.5153413,802.6495229210917,806.832059995905,794.5983768111046,803.4421596040315
1731014451.5177343,805.4871230183245,805.3294193565002,793.2448201467588,804.3890091744946
1731014451.5192275,807.3319858012605,803.9109738087833,794.0894184092796,805.6102376927681
1731014451.5223274,809.0055364514672,802.2958862298572,796.9572474528889,806.700719691216
1731014451.523114,810.7336431420783,800.5636845405531,801.1045476199014,807.4661721610778
1731014451.5270004,811.8909582875817,799.1622359823674,805.505159520078,807.8961257211705
1731014451.530887,811.3774781626116,798.6493834659522,809.2080190011164,807.9459120210156
1731014451.5332758,808.3998092978652,799.3062173755976,811.5912672524951,807.346933318616
1731014451.534773,803.1604844730928,800.862263562884,812.4252130557035,805.6597207028886
1731014451.5386596,797.0112818409428,802.543396241461,811.7858189531312,802.5920211897948
1731014451.541126,791.9608696920963,803.471329803869,809.939104824481,798.3671706045294
1731014451.5422745,789.811834696766,803.1987176842283,807.2915330703222,793.833413263009
1731014451.5425458,791.3966611155727,802.0270819804706,804.4026696741653,790.1542980333547
1731014451.5464325,796.2943348083877,800.856992816973,801.9706097732201,788.2323681606201
1731014451.5488172,803.1206218571187,800.6262591641635,800.6990750306772,788.2538480207404
1731014451.5503187,810.1754712461636,801.6934745159765,801.0433256107699,789.684792439396
1731014451.5542047,816.0749509602318,803.5857630720261,802.9491557926227,791.7116433797208
1731014451.5580914,820.070950215426,805.2853225653062,805.75707581912,793.7664346469494
1731014451.5599248,822.0047473051528,805.8537982623873,808.3857955088774,795.7141976769068
1731014451.561978,822.0789119382164,804.96932786695,809.7571780292005,797.581105416196
1731014451.5643585,820.7009137398971,803.0408518629372,809.272523261814,799.12265583245
1731014451.565864,818.5083101569734,800.8829545837814,807.096810162428,799.6991329905616
1731014451.5697503,816.4452571719623,799.2290862719412,804.0889788726977,798.6624655212947
1731014451.573637,815.6292107589435,798.4202333818182,801.3903482620577,795.9683572196711
1731014451.5772524,816.8756975312897,798.419083088395,799.8655442617519,792.4541947883503
1731014451.5775232,820.0882306632188,799.041274537097,799.6912525306093,789.4550877699819
1731014451.5787237,823.9984366993974,800.1681850381417,800.3388601629208,787.998979536413
1731014451.5798998,826.6521006579412,801.780934618479,800.989610917692,788.217939714622
1731014451.5814097,826.5350787560508,803.837197990531,801.1491785699593,789.4560227298606
1731014451.5852962,823.6630104523125,806.1397235201837,801.0656534083324,790.9674928137405
1731014451.5891824,819.8210667546413,808.3289841081507,801.6407001528739,792.6051853953273
1731014451.5930688,817.6475165302812,810.0124638092021,803.8405710531861,794.9310053222736
1731014451.595441,819.0841227323691,810.9333812737402,807.9671474864089,798.6909810585672
1731014451.5969553,824.2240159616472,811.0652060008558,813.2880240809537,804.1231419502732
1731014451.5975225,831.3389055872592,810.5887969540321,818.3219508297282,810.6637565261008
1731014451.6008415,838.0215429220239,809.7944616622453,821.6406103946154,817.2434434016246
1731014451.604728,842.5866775570365,808.9841227092675,822.6749110071731,822.879920476272
1731014451.6086144,844.7530809642805,808.4177742274954,821.9849136279611,827.0955024044918
1731014451.6109824,845.2566857416148,808.2956170434746,820.8132294510314,829.9210849220156
1731014451.6122303,844.891085516108,808.7425698959551,820.2414898607675,831.6288179316862
1731014451.612501,843.8488983017913,809.778547002459,820.5380083986938,832.5060721049177
1731014451.616321,841.8747913329182,811.2881278684183,821.1228859247872,832.8332830132011
1731014451.6163871,838.9884517742147,813.0135371901894,821.1167519585103,832.963268781899
1731014451.6202736,836.0372087711239,814.5821531174391,820.0340589228492,833.2988699806455
1731014451.6241598,834.4837641234724,815.5686017999546,818.1215639903929,834.1014581955976
1731014451.6265235,835.4718634069302,815.5966493550947,816.1394531918997,835.2640585601395
1731014451.6280465,838.8189893955063,814.4872838360621,814.788855789386,836.2429296672949
1731014451.6319327,842.7031349140572,812.4241270619036,814.2102092033714,836.2232461910435
1731014451.6351202,844.3760241416668,810.0420112554408,813.8883313720288,834.4324027518645
1731014451.635819,841.573811209268,808.313006635151,813.0076876061459,830.4510865323415
1731014451.6397054,833.8510712306611,808.1776403203543,811.0211108981842,824.4211975651586
1731014451.642065,823.087682403445,810.0428659327823,808.0854726688572,817.1141620536803
1731014451.643592,812.8517783165508,813.4289582726876,805.1027417210386,809.8282171917054
1731014451.6472082,806.8782161022509,817.0433241074587,803.3139195817979,804.0683385472817
1731014451.647478,807.3593169099684,819.3351544952482,803.6296397170223,801.0286180129118
1731014451.6513646,813.866351546996,819.2635040241656,806.0467319927462,801.060413909769
1731014451.653919,823.4708267006655,816.8274133771922,809.5017647213614,803.4336984421061
1731014451.655251,832.0816892305685,813.0243280036277,812.3091548888299,806.611053304586
1731014451.6576064,836.3792188993696,809.2657775398626,813.0012082600457,808.9479189478623
1731014451.6591372,835.3515214304645,806.6328481207348,811.1236797547659,809.4301012815297
1731014451.6630237,830.6058001752949,805.4394208095005,807.5304891075007,808.0244118558572
1731014451.6669102,825.3080750541842,805.3300650490557,803.9958030025854,805.4977562609065
1731014451.6707964,822.4035453369443,805.7586150035593,802.3531806188507,802.9206650261735
1731014451.6727178,823.1589796158772,806.4541293572213,803.6290713768775,801.213473680253
1731014451.673148,826.7887263591259,807.5425675827587,807.608037791834,800.9332132017139
1731014451.6746829,831.1963794438519,809.2838207358834,812.994871003865,802.2363217188046
1731014451.6785693,834.2143331075033,811.6746320622874,818.0185662118004,804.8574353664919
1731014451.682186,834.5767128824759,814.2500636081542,821.1471275049757,808.0841309727847
1731014451.6824555,832.2218000647803,816.2488223864935,821.6117666613069,810.8827469614004
1731014451.686342,828.0225653404318,817.0300265317965,819.5936790315004,812.2955563163067
1731014451.6886892,823.2988026498781,816.4456597632791,816.0801707812293,811.9685902254741
1731014451.6902285,819.3773268950563,814.9073405840944,812.4828384144689,810.4395787910136
1731014451.6915166,817.2530109312739,813.1025086308312,810.1439164407128,808.8943419289897
1731014451.6941147,817.321238711599,811.5555357051318,809.8763007913461,808.4831760938229
1731014451.6980011,819.2411540261634,810.3281403072019,811.6894462153859,809.6564696838708
1731014451.7018876,822.0670538797251,809.0500931428886,814.8130585570508,811.9865146522262
1731014451.7042303,824.6807792462099,807.2448425431343,818.0245340784153,814.5587286552293
1731014451.7057738,826.3184100359905,804.7236551092408,820.1501091994046,816.5692617970594
1731014451.7096603,826.8447784528009,801.7911759762958,820.5192180326957,817.6492069841682
1731014451.7103157,826.5726386389267,799.1427631897933,819.1679003087011,817.740490449575
1731014451.7135468,825.7757021625766,797.5332928409632,816.710155857446,816.7812095128392
1731014451.717164,824.3117238552614,797.4223834384474,813.9611603115003,814.6114989607228
1731014451.717433,821.6989849924486,798.7846029318127,811.5151273184952,811.2448161408516
1731014451.719772,817.6096044519919,801.1529609301255,809.4947929041127,807.2260848900404
1731014451.7213194,812.3708267712266,803.83674994293,807.5969963125206,803.6387775252678
1731014451.725206,807.0273238312577,806.1946079391379,805.4049194663169,801.6051673099917
1731014451.729092,802.8574398734888,807.855416385465,802.790083428906,801.6000907227909
1731014451.7291143,800.6712185188924,808.8204975832585,800.1567715204452,803.1212725113614
1731014451.7329786,800.3879556732118,809.4164902720944,798.3410323786856,805.0063282519866
1731014451.7353132,801.1701625735161,810.1042955530623,798.166371809079,806.1748040193494
1731014451.736865,801.9789040720575,811.2054607065692,799.8944129443828,806.2527811961894
1731014451.7407513,802.1448095298368,812.671417685063,802.9379321595142,805.668758398533
1731014451.7446375,801.602186656125,814.0390740665276,806.0930539431085,805.2398569552287
1731014451.7479131,800.7206374445615,814.6397220297915,808.2064814009021,805.6054266814402
1731014451.748524,799.9411322080599,813.9764986124426,808.8326797065226,806.861854302618
1731014451.7508545,799.4934327273132,812.0556131064702,808.3805490380214,808.5068929911823
1731014451.7521417,799.3395678091345,809.455106474628,807.6576982013552,809.6076702726839
1731014451.7524104,799.298986293277,807.0656748286243,807.25649570739,809.1200777957198
1731014451.7562969,799.2111802558813,805.6471268949082,807.2940074276883,806.3704705102273
1731014451.760183,799.0205253605116,805.4634278884704,807.5735678241267,801.6181108334723
1731014451.7640696,798.7619876857755,806.2022483853655,807.868503828016,796.3394777791788
1731014451.7663958,798.4980820632741,807.1963333348048,808.0750108325012,792.7596211395097
1731014451.766712,798.2675281949281,807.7837882238712,808.2050477429582,792.5852967773828
1731014451.767956,798.0726197666112,807.593863085206,808.3122365566137,795.7445291035717
1731014451.7718422,797.8955600213187,806.6343656946235,808.4343976875227,800.327653276771
1731014451.7757287,797.719589905753,805.1939183372806,808.5788592509047,803.9927278244469
1731014451.7796152,797.5387819897707,803.6547928245483,808.7352391024966,805.5664843502744
1731014451.7819371,797.3558402137035,802.3129637412515,808.8920188773563,805.4119177885536
1731014451.7835014,797.1758788427444,801.2669282546614,809.0443822395172,804.5916951429335
1731014451.7855103,797.0024815586432,800.411426733099,809.1933975436499,803.9220987784953
1731014451.7871196,796.8367415706924,799.5491424967774,809.3419897980028,803.6414299447265
1731014451.7873878,796.6775640243657,798.5798218748375,809.4920491142785,803.6029716207637
1731014451.7912743,796.5226946815474,797.6530882177674,809.6438342843549,803.5901622804074
1731014451.7951603,796.370559440321,797.1511963074926,809.7967355004373,803.4929957412586
1731014451.7974784,796.2216277553441,797.4626626548254,809.9501446905234,803.3163817308587
1731014451.799047,796.0776416335372,798.6767450816441,810.1038282820139,803.1116498797071
1731014451.8029337,795.9393988266593,800.4324645918689,810.2578531570631,802.9180107564861
1731014451.8043094,795.805820877781,802.0754407182615,810.4123668130512,802.7449365703242
1731014451.8068197,795.6755011404774,803.043713122196,810.5674522654189,802.5831596861902
1731014451.810706,795.548634586162,803.2045346960579,810.7231058602802,802.4211062083133
1731014451.8130198,795.4267365580866,802.881079589758,810.8792819137484,802.2533996469756
1731014451.8145926,795.3105536596963,802.5480191620985,811.0359381601661,802.0806434882959
1731014451.8184788,795.1989304309561,802.4433704122551,811.1930528086334,801.9055913465361
1731014451.8220975,795.0900602267781,802.4087723810082,811.3506181635894,801.7301575320208
1731014451.8223653,794.9835330927108,802.07194895245,811.508627889357,801.5546568001042
1731014451.8231082,794.8808262902974,801.1965989711092,811.6670703480696,801.3784773255808
1731014451.8262515,794.7839510210306,799.8989710350376,811.825930937801,801.2009492511016
1731014451.8285613,794.6938894934985,798.5707938680013,811.9851990510851,801.0217546345067
1731014451.830138,794.6099932979749,797.6171485422764,812.144871649534,800.8408841626789
1731014451.8340244,794.5299307689891,797.2651627475075,812.3049461039756,800.6584261332555
1731014451.837911,794.4497647772358,797.5950954833102,812.4654020914452,800.4744152236977
1731014451.841797,794.3654507574051,798.6992150114714,812.626186278589,800.2888014843029
1731014451.841907,794.2772512743761,800.7308985714603,812.787225767303,800.1014904130918
1731014451.8441026,794.1948033427061,803.7148778087437,812.948488110347,799.9123885758464
1731014451.8456836,794.1359010132156,807.2567195184929,813.1100617956204,799.721423135206
1731014451.84957,794.1136722467782,810.4607387644719,813.2721671977466,799.5285379890789
1731014451.8534565,794.1175419562492,812.2570140127247,813.4349899821649,799.3336822904787
1731014451.8570757,794.1049577550325,812.0127551659934,813.5983437402746,799.1368028905453
1731014451.8573427,794.019873798054,810.0266618045493,813.7614255588446,798.9378432265729
1731014451.859644,793.836989986001,807.5203023432919,813.9231421773833,798.7367457290087
1731014451.860706,793.6113570612516,806.0595978248926,814.0832864700371,798.5334542937321
1731014451.8612292,793.5090543706009,806.7297824799197,814.2439726810778,798.3279152589745
1731014451.8651154,793.8075910101028,809.5607495927942,814.4095586317337,798.1200770769167
1731014451.869002,794.8663249015624,813.5372877031525,814.5830727509467,797.9098895209582
1731014451.8728883,797.0625774469597,817.1580121493234,814.7594321722238,797.6973031449107
1731014451.8751853,800.6801341338902,819.1876952160264,814.9202192509237,797.4822693955949
1731014451.8767743,805.7539775889419,819.1760090540372,815.0371092543714,797.2647414618345
1731014451.879505,811.9277270868898,817.5018662474165,815.082542768945,797.044675447115
1731014451.880661,818.4280107713006,814.9977850349441,815.0259707923207,796.8220307656195
1731014451.8845477,824.2386811523511,812.4282141141325,814.7907616945873,796.5967683958353
1731014451.8884337,828.4475535775688,810.1330357542929,814.1938716157019,796.3688468376524
1731014451.8907266,830.6055321162534,808.0120028283567,812.9502181584661,796.1382186504509
1731014451.8920534,830.893426442223,805.8105250365486,810.8070341369141,795.9048333774163
1731014451.8923202,829.9912817519817,803.4905523413121,807.7660734425101,795.6686510851473
1731014451.8962066,828.7274860650667,801.425173262913,804.2464543397776,795.4296609493177
1731014451.8983035,827.7159602938091,800.2695796832827,801.0353383203693,795.1878846081738
1731014451.9000928,827.1753235066899,800.5745666177702,798.9864108719041,794.943339248753
1731014451.9039793,826.9865525310985,802.3923617188425,798.5937054964576,794.6959607092535
1731014451.906268,826.8960400909419,805.1505246071794,799.6826947857139,794.4455453732589
1731014451.9078658,826.7109063820743,807.9045243732595,801.4317263447476,794.1918202770684
1731014451.911752,826.382199741154,809.8260357551281,802.7578716525725,793.9347096174536
1731014451.9156384,825.9703969379514,810.6199470520497,802.871576454184,793.6746707918511
1731014451.9171023,825.5596574332823,810.6104486132834,801.6784096603872,793.4127037254815
1731014451.919525,825.1945381552758,810.4625939528308,799.785284947535,793.1495865388949
1731014451.9218092,824.8705136598904,810.7445224970222,798.1146334137741,792.8844223634309
1731014451.9234111,824.561435535102,811.6173956876403,797.3776054046133,792.6136959378318
1731014451.9270313,824.2481892449212,812.8212753553178,797.7318054339742,792.3328874236615
1731014451.9272976,823.927239933478,813.9113522960555,798.8023677589355,792.0416889826813
1731014451.931184,823.6029757163737,814.5504135602048,799.9942372827674,791.7500178318369
1731014451.9350705,823.2792206543943,814.6695708558741,800.8538811305907,791.4771345240475
1731014451.9359012,822.957974888841,814.4351059487486,801.2566387795678,791.2359815408488
1731014451.9373505,822.6414757540633,814.0943619397789,801.3564056519629,791.0058402371463
1731014451.9389567,822.3314658034825,813.8266278945562,801.3978615526823,790.7173644140986
1731014451.9428432,822.0264270769625,813.6833627942887,801.5463382895559,790.2875682587572
1731014451.9467294,821.7219766091495,813.6204367524236,801.8292733015887,789.7183369642164
1731014451.950616,821.4154102847565,813.5687329163059,802.181696277948,789.193872367281
1731014451.9528918,821.108961071528,813.4865905996193,802.5268184060728,789.0404073448144
1731014451.9545023,820.8071539127577,813.3713291339001,802.8280411309719,789.4953188378113
1731014451.9547,820.5111411946922,813.2418596403043,803.0926295726903,790.4734918698583
1731014451.9583886,820.2171764315204,813.1168494122891,803.3462465365251,791.596556671774
1731014451.9620092,819.92136513849,813.0040044478375,803.6078784930801,792.4796487069108
1731014451.962275,819.6246701757298,812.9012360343735,803.8812117959104,792.9913091697274
1731014451.9661613,819.3315497130947,812.802707419351,804.1602030588377,793.2682889713901
1731014451.9684331,819.0437772163561,812.7037846907447,804.438054488015,793.5358342874597
1731014451.9700477,818.7575491970352,812.6030511487306,804.7117961009127,793.9285351810357
1731014451.9734988,818.4681232511307,812.5019443013497,804.9818228979642,794.4405310452007
1731014451.9739342,818.1764455116397,812.4029691505498,805.2496973927815,794.9903148078453
1731014451.9778204,817.8890360514731,812.3076191621423,805.5167727771392,795.5077801464602
1731014451.9817069,817.6103024741797,812.2154271489868,805.7838331651627,795.9736011110381
1731014451.9839747,817.3358893417939,812.1248786067133,806.0509931783866,796.4059551564345
1731014451.9855933,817.0550934601238,812.0352077023285,806.3176797336503,796.8296498827443
1731014451.9894795,816.760727319383,811.9471416463816,806.5830291934712,797.2578858468637
1731014451.9922976,816.4575400240469,811.8618341219837,806.8466296065473,797.6915475387158
1731014451.993366,816.1622243103717,811.7793619460139,807.1089179909927,798.1254668131552
1731014451.9969869,815.8941574083871,811.6986745251426,807.3707181537592,798.553307037463
1731014451.9972525,815.6596042367315,811.6190466143937,807.6323334318789,798.9704643345357
1731014451.999516,815.4356515145357,811.5411406094051,807.8932119790153,799.376300033328
1731014452.0011387,815.1684066624705,811.466245407815,808.1526364445498,799.7743350187884
1731014452.0050251,814.8037555018506,811.394610696759,808.4106671225851,800.1689890273627
1731014452.0089116,814.3485129048807,811.3250172724356,808.6681495428733,800.5613432794281
1731014452.0110965,813.91596527189,811.2561820386298,808.9256610677036,800.9484362370965
1731014452.0127978,813.6860231649298,811.1882704662992,809.1826511353015,801.3269800842762
1731014452.015057,813.7606036211671,811.1227175751521,809.4379554633158,801.6971744146555
1731014452.0166843,814.0099013000615,811.060761692676,809.6912490508314,802.0621597058603
1731014452.0205708,814.0772275359973,811.0025343108676,809.9437669220586,802.4239718610917
1731014452.024457,813.6157105977321,810.9473485691909,810.1973277023208,802.7810673404052
1731014452.0283434,812.59226989434,810.8939824422423,810.4525113068323,803.1304081551621
1731014452.0298953,811.3553643620619,810.8402927685339,810.7076543732786,803.4714168636327
1731014452.0305986,810.3636784001322,810.7837818011153,810.9595031060227,803.8068900417932
1731014452.0319648,809.8435494149848,810.7247287689105,811.2052706432451,804.1397841438845
1731014452.03223,809.7024983639221,810.6695649494231,811.4454649148589,804.4697615532507
1731014452.036116,809.7047481006164,810.628894312587,811.6862403992159,804.7934564537292
1731014452.0400026,809.6725046935569,810.6081462714135,811.9384044235741,805.1078787027348
1731014452.043889,809.5549646768529,810.5980913271922,812.2098647500885,805.4131000375121
1731014452.04614,809.3847140695506,810.5767815379538,812.4930618428815,805.7120721705573
1731014452.0477753,809.2088615621966,810.5249698367489,812.7579835197397,806.0090349819535
1731014452.048694,809.051006880392,810.4411859668334,812.9656676610432,806.3081988618775
1731014452.0516615,808.9097922347975,810.3409581945092,813.1056597006107,806.6114454850874
1731014452.0555482,808.7739420954314,810.2423158113534,813.2345700669202,806.9135697911701
1731014452.0594344,808.6349468690072,810.153651413336,813.4721425060703,807.1990081826931
1731014452.0616813,808.4907938142964,810.0731859579608,813.9244357671155,807.4486542287466
1731014452.0633209,808.343513825848,809.9954085565454,814.5588909134555,807.6594887559457
1731014452.0669427,808.1956014249017,809.9164874421716,815.1202898976763,807.8638015362851
1731014452.067207,808.0481868432959,809.8356475578536,815.1898264385834,808.1241120078652
1731014452.0674927,807.9011031961694,809.7538854121924,814.4136861812776,808.4911511701281
1731014452.0710936,807.7537262036976,809.6723202245017,812.7941562857137,808.94292197143
1731014452.07498,807.6056212842633,809.5914117856183,810.8423904321112,809.347258807475
1731014452.0772226,807.456703529196,809.511037223279,809.4314007625325,809.4820764347129
1731014452.0788665,807.3070883542574,809.4308882279909,809.3658759188329,809.1090780653115
1731014452.0827527,807.1569025430551,809.3507575843375,810.893091580461,808.0626602947037
1731014452.0862916,807.0061963878388,809.2705990199496,813.4628462403887,806.3186209569873
1731014452.0866392,806.8549542441626,809.1904522108489,815.9233484581264,804.0377056625258
1731014452.0905256,806.7031408035864,809.110356690486,817.0776575164024,801.5900293724479
1731014452.092764,806.55073370791,809.030314791872,816.2923128277444,799.5308291874642
1731014452.0944118,806.3977297249598,808.9502988327223,813.8050803837017,798.4601272320352
1731014452.0982983,806.2441355982102,808.8702728401504,810.5572579883203,798.7441717553362
1731014452.1019206,806.0899582943761,808.7902069608881,807.6644592572475,800.2233667784371
1731014452.1021848,805.9352018490457,808.7100797318088,805.8553328841529,802.1584366972202
1731014452.1050904,805.7798698442696,808.6298737231384,805.2123784218578,803.593534261521
1731014452.106071,805.6239685466247,808.5495710720207,805.3269581605983,804.0042033404874
1731014452.1083052,805.4675060687206,808.4691517877719,805.6818710198114,803.7733109653342
1731014452.1099577,805.3104865481185,808.3885943397455,805.9524499131577,804.0385412935822
1731014452.113844,805.1529040751838,808.3078768730313,806.067356573823,805.8974141103319
1731014452.11773,804.9947458839877,808.2269779042061,806.098221236276,809.5298225759996
1731014452.1216166,804.8360120514382,808.1458762885004,806.1299610414704,813.9704512509229
1731014452.1238463,804.6767442142173,808.0645508516313,806.199040774103,817.7790859402515
1731014452.1238892,804.5170330979016,807.9829802101921,806.2979590118309,820.06760009663
1731014452.1255033,804.3569657991233,807.9011430957164,806.4048911448325,820.9706254496651
1731014452.1293893,804.1965097205264,807.81901905411,806.505459258563,821.1174029605525
1731014452.1332755,804.0354180111267,807.7365888427787,806.5974620379815,820.6215932949234
1731014452.1368985,803.8733225714516,807.6538335778358,806.6853077151998,818.6592921679064
1731014452.1371622,803.7101282723274,807.5707323246401,806.7734939486054,814.2405385515901
1731014452.139388,803.5465350357317,807.4872596644893,806.8637501934097,807.6193836332136
1731014452.1410484,803.3840990114356,807.4033867901638,806.9555392878846,800.9923634745555
1731014452.142688,803.2241343190694,807.319089234095,807.0476894102131,797.5471520463659
1731014452.144935,803.0655194284566,807.2343588033116,807.1394922161561,799.3177934122654
1731014452.1488214,802.9031611248051,807.1492079714311,807.2308852805219,805.4890839827821
1731014452.1527076,802.7302739876418,807.063650366392,807.3221266173276,812.6473281533414
1731014452.1549294,802.5463852562609,806.9776540421742,807.4134538095769,816.9946081619969
1731014452.156594,802.3675221671833,806.8910993932731,807.5049494550245,816.9253735283863
1731014452.1604805,802.2282020768174,806.8038090849883,807.5965802916535,813.9915861787429
1731014452.1614869,802.1661789529481,806.7157020688353,807.688288391939,811.5131734782522
1731014452.1643667,802.1974540203129,806.6270124864052,807.780049092512,811.9286302510808
1731014452.1682532,802.3047567635382,806.5383415480936,807.8718765957262,814.929624797455
1731014452.1704707,802.4510355698545,806.4502460576533,807.9637970365281,817.7508260724879
1731014452.1718764,802.6023076434326,806.3623490372793,808.0558164067172,817.2967860480719
1731014452.1721396,802.7398202559406,806.2726373306008,808.1479065739351,812.452567903542
1731014452.176026,802.8595927185795,806.1782335363584,808.2400268886813,804.9234061593785
1731014452.1799123,802.967224872521,806.0785319630588,808.3321826980223,798.137532851696
1731014452.1802857,803.0714775958903,805.9794483617585,808.4244845396963,795.1091271561326
1731014452.1837988,803.1774002643688,805.8946137691289,808.5171289927083,796.7101996264414
1731014452.186012,803.2827851044417,805.8393149296958,808.6102300776197,801.3188640047429
1731014452.187685,803.3815329405501,805.81922067026,808.703549424029,805.8396768514324
1731014452.1915717,803.4708901509088,805.82370505945,808.7963821346023,807.3560402899958
1731014452.1954577,803.5547096397038,805.831573988521,808.8879693715562,804.5219524798098
1731014452.1990843,803.639153223158,805.824832661312,808.97853589034,798.1012026945485
1731014452.1993442,803.725803266486,805.7985483483518,809.070273286498,790.5106076164524
1731014452.201553,803.8094672749728,805.7601323577318,809.1667678284921,784.6291575256512
1731014452.2032306,803.8820987961476,805.7211068360817,809.2696412299464,782.434640228311
1731014452.206854,803.9387411023995,805.6887126704676,809.3735895172144,784.138905996137
1731014452.2071168,803.9823363614445,805.6626906052801,809.4649036646279,788.2801957678123
1731014452.2110033,804.0267527955577,805.6379668011422,809.5302311592822,792.6984735436924
1731014452.2148898,804.0944361195549,805.6099620616486,809.5763960518717,795.7593609197371
1731014452.217095,804.2013004228156,805.577963465687,809.6470401695407,797.0403141221269
1731014452.217883,804.329886973613,805.5442942926971,809.807386700836,797.1324461272063
1731014452.218776,804.4135013572778,805.5110389515053,810.0760940319034,796.9034314372369
1731014452.2226624,804.366215111842,805.4780410664623,810.3303252722739,796.8868027539219
1731014452.226549,804.1678327923402,805.4438911055672,810.278038198451,797.1590207644588
1731014452.2304351,803.9513248710427,805.4080746097471,809.6009075096897,797.5606080270513
1731014452.232636,803.9918748457588,805.3714731750557,808.238986016498,797.9379055249418
1731014452.2343216,804.5268458668014,805.3348814125013,806.5910123907179,798.2395740227042
1731014452.2366822,805.4629794635429,805.2977810720963,805.3910685403177,798.491579880298
1731014452.238208,806.1789075033957,805.2590498672769,805.2850737801176,798.7373077742046
1731014452.241832,805.6721569692688,805.2185396149493,806.4129440448705,799.0006651824547
1731014452.2420945,803.1323311716033,805.1772908110964,808.3151921972872,799.2823053224055
1731014452.2459807,798.6955254302236,805.1360766770204,810.2291069027319,799.5725045553037
1731014452.2481773,793.8657805049437,805.0943073683997,811.5457388650142,799.8631713525973
1731014452.2498672,791.1355858938069,805.050862110059,812.0922642596742,800.1519846838044
1731014452.2537534,792.7864062733856,805.0057546710366,812.0597088279665,800.4405657113724
1731014452.255481,799.4772546469102,804.9602844024225,811.6868612844548,800.731227927697
1731014452.25764,809.5761967279404,804.9152504682305,811.001791249114,801.0251470840626
1731014452.2615263,819.8694102671187,804.8694570011077,809.8558503307588,801.322284842316
1731014452.2637186,827.3361027987336,804.8206514501243,808.2164599894701,801.6221138219898
1731014452.2654126,830.7563135298695,804.768225642421,806.440631902196,801.9242340701433
1731014452.269299,830.9667582250943,804.7148232699421,805.2410644055656,802.2285579433201
1731014452.2731855,829.7690168287183,804.6648512319475,805.297905984756,802.5351944926897
1731014452.2742796,828.6102929909242,804.6206139112257,806.7697139563442,802.8442772944184
1731014452.27681,828.0215776168975,804.5787267002685,809.0718536638664,803.1558750022253
1731014452.2770717,827.8539099909156,804.52974684115,811.1200974764492,803.4699914712193
1731014452.27926,827.7739913853081,804.4631808526977,811.9069094586703,803.7866020652901
1731014452.2809582,827.5823821231141,804.3775986680889,811.0389004165345,804.1056829988888
1731014452.2848446,827.263376761201,804.2902457066115,808.8965268761315,804.4272248750239
1731014452.2887309,826.8905805143439,804.2349691711447,806.3516365762183,804.7512409271013
1731014452.292617,826.5301753196903,804.2396383337554,804.2809378099679,805.0777736296163
1731014452.2930784,826.203867328543,804.2903234875779,803.2155040270841,805.4068841697521
1731014452.2948012,825.9007138875344,804.310989450727,803.3054442552291,805.7386046006178
1731014452.2965038,825.6025946938488,804.1920095856326,804.504073818268,806.0728640716839
1731014452.30039,825.2996402805561,803.8716235811361,806.7215017475196,806.409460503201
1731014452.3042765,824.9917062718457,803.42447919803,809.7860382782593,806.7481816937961
1731014452.3081627,824.6829294371049,803.0835570484676,813.2905084302417,807.0891007151207
1731014452.3103428,824.3767119420916,803.1539723090383,816.5596055269689,807.4328484530754
1731014452.3117878,824.0740236995356,803.8585403758397,818.8867949730252,807.7804365088506
1731014452.3118773,823.7741916227549,805.2207342002797,819.9122902261328,808.1322907642929
1731014452.3120492,823.4762645889309,807.0737588943672,819.8177397416388,808.4868530100945
1731014452.3159356,823.1797729646191,809.1845567426009,819.1470325123366,808.8402104191189
1731014452.319822,822.8847534343271,811.3803811651221,818.4216184047269,809.1886551087608
1731014452.3237083,822.5914427505181,813.5604274746249,817.8865851164888,809.5343399249097
1731014452.325884,822.3000206718134,815.5837081561012,817.5262842397566,809.8899157701355
1731014452.3275948,822.0105343752339,817.1554632891244,817.2241503765033,810.2740575416482
1731014452.330676,821.7229472144272,817.8625395623341,816.8935180164113,810.6922939492225
1731014452.3314812,821.4372094530456,817.3918502919915,816.5148639815017,811.1115075310372
1731014452.3353674,821.153294406754,815.7958847724024,816.1097638557302,811.4567578200041
1731014452.339254,820.8711997600911,813.5946185507972,815.7039859979077,811.6645981733027
1731014452.3414254,820.590937626684,811.5994670651259,815.3089983105708,811.7901359057746
1731014452.3431404,820.3125283572236,810.5426004271648,814.9229514477108,812.0829268124515
1731014452.3467658,820.0359937193425,810.7363905337321,814.5394214053415,812.8782850383786
1731014452.3470266,819.7613370992683,811.9616680645429,814.1540253699785,814.2117706297055
1731014452.349475,819.4885129229845,813.6175743788726,813.7659898911965,815.3335007462931
1731014452.350913,819.2174171203345,814.9984133107107,813.3765696850927,814.6445063515038
1731014452.3547995,818.9479457828037,815.5217650964968,812.9871007855437,810.5508230811907
1731014452.3569667,818.6801308166358,814.8284722089317,812.5981129998748,802.9377965026719
1731014452.3586855,818.4142581283843,812.8035649291639,812.2094522349767,793.9874924374319
1731014452.3625722,818.1507722873266,809.6067437411633,811.8207604184971,787.2664988951226
1731014452.366459,817.8898218428869,805.7247825038532,811.4318092159152,785.5351391880201
1731014452.3682735,817.6306289551998,801.9545952643264,811.0425624166775,788.915904699593
1731014452.3703449,817.3713661548984,799.2139367448444,810.6530828619999,794.7449066835358
1731014452.372508,817.1103904466464,798.1930556968967,810.2634309260131,799.1746490202931
1731014452.374231,816.8488354267613,799.0174830991801,809.8736228751782,799.4801196219541
1731014452.3781178,816.5925760289912,801.147992619714,809.4836406281485,795.6449893314069
1731014452.3817437,816.3498198357589,803.625896663451,809.0934566778174,790.279684634817
1731014452.382004,816.1218475132248,805.5475165335796,808.7030492357601,786.9540543536459
1731014452.3858905,815.8907292812681,806.4851131721874,808.3124043065112,788.0076363695705
1731014452.3870726,815.61618365176,806.5970981469438,807.9215136552183,793.2111627328575
1731014452.3880494,815.2531076139315,806.3815474655241,807.5303761645465,800.0716521535862
1731014452.3897767,814.7824371167616,806.2727680098719,807.139000555943,805.481101760969
1731014452.3936632,814.2272649349254,806.3769985687766,806.7473993860215,807.5592920737539
1731014452.3975496,813.6360910519921,806.5175591812911,806.3555670439375,806.5152934376626
1731014452.401436,813.0496973850794,806.5112871695213,805.963452372876,804.1201579114951
1731014452.403591,812.4824765580505,806.4222522960064,805.570960386855,802.3424126827339
1731014452.4053223,811.9286773910377,806.5708001797055,805.1780207044565,802.1570259428312
1731014452.4058714,811.3795043435678,807.2828153331793,804.7847121804174,803.2427103482358
1731014452.4092088,810.833013007358,808.5750980754646,804.3913368341434,804.5561351229461
1731014452.413095,810.2916883147797,810.0232762354993,803.9982679392231,805.1990763856161
1731014452.416721,809.7557817902388,810.9219152215934,803.6054933249102,804.944659543479
1731014452.4169817,809.221832618796,810.6423338174119,803.2121135163694,804.1804436257494
1731014452.419132,808.6871659139204,808.9760400853459,802.8164645253844,803.4790557016179
1731014452.420868,808.1540199593289,806.2830305862087,802.4175156811177,803.1899742646274
1731014452.4246702,807.6285671165077,803.3864277585691,802.0172024603019,803.3081062535184
1731014452.424754,807.1163505181006,801.267837491435,801.6215451358729,803.6082323685946
1731014452.4286406,806.6182222396689,800.6738773562514,801.2373217594977,803.8642292608351
1731014452.4325273,806.1282987541567,801.7662055327021,800.8632510921626,803.9825529211042
1731014452.4346733,805.6337273168633,803.9635582976086,800.4812707798008,803.9996214795696
1731014452.4364133,805.1185893868798,806.1075671230371,800.0608720226173,804.0004567345109
1731014452.4402995,804.5757809911512,806.9736406017023,799.5879893825952,804.0433437609923
1731014452.443469,804.0244997800618,805.9420738289217,799.1104987926319,804.1357654213142
1731014452.4441862,803.5205379412902,803.460742845704,798.7607579280696,804.2540433177568
1731014452.4480724,803.1448684689133,800.9462236262369,798.7059436495684,804.373788984612
1731014452.4502146,802.9701574956638,800.0624568959695,799.0306604003842,804.4859171280243
1731014452.4516993,803.024476676719,801.7438689170907,799.645687891419,804.594436331488
1731014452.451959,803.2771867873965,805.58578842086,800.3257110427851,804.7066975021203
1731014452.4558454,803.6563310815648,810.0583017561788,800.8589785453013,804.8268838923932
1731014452.4597316,804.0838091151087,813.4492622152018,801.1760428748429,804.9554996155915
1731014452.462268,804.5048416186551,814.8806600253279,801.3542980952603,805.0914601502699
1731014452.463618,804.8978344584814,814.6553759157133,801.5217143779421,805.2334003886454
1731014452.4657562,805.2671034544418,813.7528342770327,801.7590231275567,805.3799560442542
1731014452.4675045,805.6289692197355,813.0218102540323,802.069411008726,805.5302430740746
1731014452.4713907,805.9992434906733,812.7554254562764,802.4103342686986,805.6845684206544
1731014452.4752772,806.3852835674063,812.8071568174182,802.740246043131,805.8442362386995
1731014452.4791636,806.7840932322229,812.9215184304816,803.0432033241942,806.0101881763547
1731014452.4810667,807.1869139360576,812.9520799045339,803.3262663951259,806.1818961172653
1731014452.4812975,807.587123447378,812.8895697743425,803.6046342516717,806.3579126006301
1731014452.48305,807.985011605645,812.7890776566414,803.8892056567482,806.5375279754796
1731014452.4866772,808.385473582031,812.6988167526167,804.1820638477038,806.7215128122675
1731014452.4869363,808.7917966267695,812.633887652701,804.4786479300936,806.9109508856247
1731014452.4908228,809.2026526932478,812.5857191973605,804.7731154579014,807.1055958661761
1731014452.494709,809.6151087998459,812.5409261136049,805.063001472019,807.3039635044485
1731014452.4968388,810.0288914954582,812.4924251239617,805.3501255940548,807.5052806971772
1731014452.4985957,810.4458006733437,812.4402758288933,805.6376540192356,807.7108607568676
1731014452.4998653,810.8651133118907,812.3875789778889,805.9266350889534,807.9227747557916
1731014452.502482,811.2823314399193,812.336812964415,806.2155536032484,808.1408622504423
1731014452.5063682,811.6955724668866,812.2886476804135,806.5028288658157,808.3615321763695
1731014452.5102546,812.1134096357871,812.2425642966507,806.788849535724,808.5804289083827
1731014452.51238,812.5519794192335,812.1978639649028,807.0751325801112,808.7971629321358
1731014452.514141,813.0163743861643,812.1542133737302,807.3620951052327,809.0179054267128
1731014452.5180273,813.4777827100905,812.1116503573777,807.6485889276735,809.2527562885609
1731014452.518664,813.8698438270352,812.0703540158876,807.9337082648723,809.5080233237609
1731014452.521655,814.119598792421,812.0304574115298,808.2181768119002,809.7770054380513
1731014452.5219138,814.1959870073973,811.9919956577914,808.5032539553303,810.0360900691286
1731014452.5258002,814.1321402690619,811.9549443709903,808.7886664959856,810.2543303812303
1731014452.5279214,813.9990547493924,811.9192722888527,809.0726477485213,810.419269609222
1731014452.5296865,813.8585648343317,811.8849665047298,809.3544859912649,810.5667243474549
1731014452.533573,813.737501891959,811.8520305478055,809.6364533951298,810.7857649495937
1731014452.5374594,813.6333291347901,811.8204740907962,809.9221795895326,811.1711637095814
1731014452.5374627,813.5332468220109,811.7903085248483,810.2124031905436,811.7266588620582
1731014452.5413456,813.4282751738053,811.7615486173435,810.5022471021549,812.2694504298754
1731014452.5434628,813.3167449571088,811.7342101758442,810.783457599301,812.4102567189764
1731014452.545232,813.2011731291349,811.7082951645182,811.0513470488202,811.6515520310384
1731014452.5491185,813.0842860832029,811.6837706728047,811.3123332883346,809.5707436841062
1731014452.5530047,812.9671738924642,811.6605681468855,811.5856755539851,805.9927240393037
1731014452.5562618,812.8495178898999,811.6386334900161,811.893565137725,801.0646666828532
1731014452.556633,812.7305685566349,811.6180230667121,812.2397991933403,795.2230534662788
1731014452.5568912,812.6098353368903,811.5989661350767,812.5895802580837,789.1176816255511
1731014452.559004,812.4872217646908,811.5817576027673,812.8736485285075,783.5525806838878
1731014452.5607777,812.3628377974132,811.5664116232924,813.0334690239099,779.4198454040246
1731014452.564664,812.2367906911618,811.5522624585724,813.0928671042278,777.5344319358182
1731014452.5685503,812.1090973368745,811.5380231157181,813.203085204969,778.3299420362711
1731014452.5724368,811.9797035914532,811.5228239501412,813.6016559678837,781.5411744157484
1731014452.5745454,811.8485375313544,811.5080215256698,814.4765802416341,786.1319863479941
1731014452.5750606,811.7155440242203,811.4981703077693,815.8117147076542,790.6527582558165
1731014452.576323,811.5806896809759,811.4986352092727,817.3362793568358,793.906042732799
1731014452.5802095,811.4439519944196,811.5088630420621,818.6510338893482,795.4868672329052
1731014452.584096,811.3053084792848,811.5153461451647,819.4724508250051,795.7974619256178
1731014452.5879822,811.1647326105206,811.4941312488143,819.822950488685,795.5785010012044
1731014452.5900867,811.0221952334367,811.4319889801861,820.005549837939,795.395639653873
1731014452.591611,810.8776674565847,811.3605329579925,820.3497131895986,795.4417244630012
1731014452.5918686,810.7311223862366,811.371818189645,820.8974825227617,795.6470108226525
1731014452.5938594,810.5825352909897,811.571098645598,821.2692044951692,795.8783545029788
1731014452.595755,810.4318830004746,811.9589283353395,820.8394320631085,796.0604589296422
1731014452.599641,810.2791433621908,812.3221750485654,819.1369002512728,796.1905504776186
1731014452.6035278,810.1242950741481,812.2652685254691,816.2135088074541,796.2989512611487
1731014452.605628,809.9673177947639,811.4233953444129,812.728038660393,796.4113169750061
1731014452.6074142,809.8081923140976,809.7196036511506,809.663417873224,796.5352778335522
1731014452.6113005,809.6469006551027,807.4580826976131,807.8303226342963,796.66594576482
1731014452.6126585,809.483426092281,805.1795715727893,807.4567921959359,796.7960994486605
1731014452.6151867,809.3177531342299,803.403290836551,808.1249173732649,796.9220191814427
1731014452.6190734,809.1498675126021,802.4484998286722,809.0930578165036,797.0438070909714
1731014452.6211696,808.9797561905907,802.4233276388032,809.7632672610216,797.1631373065917
1731014452.6229596,808.8074073818404,803.3093550809518,809.9503175274065,797.2813075459615
1731014452.6265888,808.6328105668202,805.0086243211765,809.8101652420673,797.3986380569224
1731014452.626846,808.4559565033065,807.2990633706494,809.588650642431,797.5148254021058
1731014452.6307323,808.2768372397647,809.7734471447378,809.4340979062,797.6294851107964
1731014452.631457,808.0954461437851,811.8839214003928,809.36591615547,797.7424351857886
1731014452.6346188,807.911777944619,813.1301490152491,809.3378238200222,797.8536898757235
1731014452.636711,807.725828762251,813.2911118318349,809.3048245072092,797.9633334822296
1731014452.6385052,807.5375960770149,812.5369649116428,809.250786895227,798.0714255254774
1731014452.6423914,807.3470786193325,811.3299790213365,809.1821316164143,798.1779846942379
1731014452.646278,807.1542762481566,810.1736363637764,809.1109835388149,798.2830185425134
1731014452.6501644,806.9591899931457,809.3723095006723,809.0443518837036,798.3865436889184
1731014452.650256,806.761822428153,808.94161041589,808.9826712471923,798.4885651337671
1731014452.6522522,806.5621782824624,808.6912150132864,808.9232808340245,798.5890303123682
1731014452.6540506,806.3602647247421,808.3907875297327,808.8638533144034,798.6878186377136
1731014452.657937,806.1560904792982,807.9065224474484,808.8036598976754,798.7848338223932
1731014452.6615665,805.9496635152308,807.2546585441924,808.7431150122293,798.8801933291121
1731014452.6618235,805.7409887778623,806.5866110100945,808.6828660526511,798.974359964269
1731014452.6657095,805.5300693177011,806.137956633949,808.6232563482365,799.0679441211062
1731014452.6677935,805.3169136821843,806.1487089905878,808.5642841073037,799.1610280920195
1731014452.6690547,805.1015471301249,806.7515686436865,808.5058002116139,799.2523628440213
1731014452.6695962,804.8840154328384,807.8608560507462,808.4476851242164,799.3394370673876
1731014452.673483,804.6643658955179,809.1418660425405,808.3899063290062,799.4204753635149
1731014452.6773689,804.4426029608902,810.1280804354382,808.3324885375031,799.4980193737183
1731014452.681255,804.2186492051076,810.4585657800992,808.275464929827,799.5809852135338
1731014452.6833348,803.992375565237,810.0960173249301,808.2188505375098,799.6801844936181
1731014452.6851418,803.763748678779,809.3633910034339,808.162641661635,799.7951479412092
1731014452.6878536,803.5330364829407,808.7480044959227,808.1068270423434,799.8998647075907
1731014452.689028,803.3008504566817,808.5930922737346,808.0513977402761,799.9467173299585
1731014452.6929145,803.0677463723486,808.8898898334428,807.9963510375431,799.9069912177588
1731014452.6965444,802.8333782522454,809.3146792848449,807.9416892490083,799.8374705933834
1731014452.6968007,802.5958426667471,809.4734653071126,807.887415204185,799.910555400327
1731014452.698876,802.3524189251076,809.1660511631013,807.8335257891044,800.3146204307972
1731014452.7006872,802.1024805036716,808.4798561428761,807.7800068405808,800.9939294291253
1731014452.7045736,801.8512246201174,807.6668508681021,807.7268361081881,801.382874444645
1731014452.7066524,801.6098806315715,806.9241893125399,807.6740001877914,800.4811104382434
1731014452.70846,801.3874143141751,806.2584225054385,807.6215200293749,797.5134016654808
1731014452.7123463,801.1744787474031,805.5278168121926,807.5694600824693,792.8335862503945
1731014452.7144177,800.9325720150571,804.6077958738738,807.517886411051,788.1845783572641
1731014452.7162328,800.6108083208842,803.5341739460256,807.4667669158345,785.8071685667692
1731014452.7201192,800.2017473377254,802.5114998482261,807.41588173551,786.9964992298827
1731014452.7240057,799.8044580122886,801.7895625681102,807.3648874779901,791.2388485816329
1731014452.7254512,799.6172550722164,801.5100197723549,807.3136460101093,796.5030874738596
1731014452.727892,799.8176324944284,801.6340177817091,807.2626909944938,800.3699572151614
1731014452.7299588,800.416536750881,801.9878885775026,807.2133372226987,801.2310183701809
1731014452.7315223,801.2369734040689,802.3767468013579,807.1668014549065,798.9114269246338
1731014452.7317784,802.0448654892851,802.681377044691,807.1223060430018,794.5192252292916
1731014452.7356646,802.7030543655986,802.8852117154399,807.0755866031903,789.7639483068399
1731014452.7395513,803.2200986375211,803.0371056782138,807.0205518477336,786.1833858725776
1731014452.7434375,803.6871134972,803.1936879106502,806.9559956180755,784.6340080046668
1731014452.7442498,804.1849865732898,803.3825226023641,806.8947102719937,785.1687900808638
1731014452.7455,804.7368147694212,803.599071994485,806.8661831009991,787.2189029352763
1731014452.7473238,805.3192967289749,803.8244411934388,806.9042714225349,789.9126064739944
1731014452.7512102,805.8995903221098,804.0435944304994,807.024746684679,792.3965500571192
1731014452.755097,806.4607784920105,804.2525502694729,807.2127550429184,794.0964883667415
1731014452.758983,807.0041084524341,804.4553522682514,807.4336527156759,794.8949179089752
1731014452.7610414,807.5384988906043,804.6576690641309,807.6564136201047,795.1920178708745
1731014452.7628694,808.0714011238289,804.8625925933196,807.8682765284888,795.7902364183985
1731014452.7630486,808.6060024146678,805.0700337621736,808.0723018281568,797.564894844532
1731014452.7665002,809.1420041297464,805.2782696861732,808.2758034192697,800.9885177619932
1731014452.7667558,809.6769168224076,805.4857326938893,808.4817425146472,805.7232432148468
1731014452.770642,810.2077040545944,805.6919344953282,808.6885673192061,810.5652477456031
1731014452.7745285,810.7329808267968,805.8973355413492,808.8950273070338,813.9032149884503
1731014452.776583,811.2541453190792,806.1026103949271,809.1029539210173,814.5483624331762
1731014452.778415,811.7738767627362,806.308023590121,809.3149082275407,812.4884113984972
1731014452.7818477,812.2933054421705,806.5133796552055,809.5298570420932,809.0633627029745
1731014452.7823012,812.8110572183455,806.7184004156816,809.7421038568153,806.3681885615873
1731014452.7861876,813.3252906262913,806.9229994198795,809.9453700365781,806.189021594974
1731014452.790074,813.8361448063825,807.1271848387574,810.1393678762228,809.1151150491668
1731014452.7921245,814.3455172346394,807.330880781343,810.3340913800673,814.364455724356
1731014452.7939603,814.8545501576192,807.5340636528751,810.547229787472,820.3718459112947
1731014452.7978468,815.3621577993111,807.7370857227754,810.7919818059569,825.6807244920786
1731014452.8006463,815.8665450270009,807.9405897838944,811.0584578019615,829.5389973576193
1731014452.801478,816.3677909549601,808.1447320358308,811.3026660408389,831.9067909118974
1731014452.8017333,816.8682018184567,808.3483484900634,811.4640327382181,833.0557906511879
1731014452.8056197,817.3698958825619,808.5492371259322,811.5195284702348,833.181960667919
1731014452.8076656,817.872343430903,808.7460836016108,811.5453068720116,832.3090596200454
1731014452.809506,818.3724611542905,808.9409411970443,811.720719148131,830.4263280633552
1731014452.8133924,818.8670564241787,809.1397758861713,812.2204541083346,827.6171191898924
1731014452.8172786,819.3556129682205,809.3488914065903,813.0211732754301,824.0434424737149
1731014452.8194451,819.841958837078,809.5678635909824,813.7564098409322,819.88729556721
1731014452.821165,820.3339715546994,809.7839559991631,813.7891053119554,815.4261883505225
1731014452.823207,820.8396929726146,809.9754983230996,812.5593082006937,811.23934041729
1731014452.8250515,821.3588897823427,810.1280814728993,810.0436529988416,808.3007462681377
1731014452.8289378,821.874595949098,810.2565607129628,806.9958927389478,807.7052606705491
1731014452.8328242,822.3560645813308,810.4139963316022,804.6976846889868,810.0655544709897
1731014452.836456,822.7821673738493,810.6679005073205,804.2576868350418,814.9658863193353
1731014452.8367107,823.1760668755743,811.0427301004871,805.8594006560909,820.9219485354969
1731014452.838244,823.6188225511129,811.4581848656193,808.4845344537962,825.9697782863032
1731014452.8387482,824.2076808559747,811.7121308801511,810.3814864368163,828.5424384558365
1731014452.840597,824.9621816356945,811.5422746821222,810.0532477948672,828.082539126184
1731014452.8444834,825.7404588577739,810.7532928197871,807.159454168855,825.0584303813812
1731014452.8483698,826.2561399070686,809.3468964401715,802.754910849227,820.5028711448986
1731014452.852256,826.2353153379323,807.5793618256232,798.714279961378,815.48561891977
1731014452.8542895,825.6362018750085,805.906352215523,796.7138229378118,810.8436523749258
1731014452.8561423,824.7596477520567,804.833159689338,797.390877674666,807.1627992669174
1731014452.8570428,824.1096899346877,804.7312090965065,800.1328272239667,804.778694878753
1731014452.8600287,824.0375983963121,805.6907529926199,803.5204907974853,803.6525004995912
1731014452.8639152,824.4039835668228,807.4652408273421,806.0815132966578,803.24940413404
1731014452.8678017,824.5437020291288,809.5392324996432,806.9178902952389,802.6795844643827
1731014452.8698308,823.6330261480205,811.3161476537165,805.9465643909241,801.1689961182902
1731014452.8714335,821.2499114363916,812.3667774301655,803.7521253500536,798.5732458880167
1731014452.871688,817.7312977543021,812.6234018237413,801.2195057693773,795.4962375933568
1731014452.8755744,814.0433158070018,812.39831967647,799.1416852326741,792.8337964901684
1731014452.8758416,811.2310475126264,812.1875019797714,797.9432479221442,791.0529415583338
1731014452.8794608,809.8331076844946,812.359499851014,797.5970914574536,789.806813898487
1731014452.883347,809.6697159903182,812.9275120545158,797.753393998676,788.2723136784673
1731014452.8853722,810.1152423125072,813.5655007451522,798.0252742508163,786.0076370591771
1731014452.8872335,810.5916629041595,813.8612949847226,798.2908518081402,783.6387288454326
1731014452.89112,810.8783448399571,813.6194298770965,798.8340231179948,782.7335157166003
1731014452.8946404,811.0346974679796,812.9807316549555,800.2136911829683,784.8208592860502
1731014452.8950062,811.0883346764075,812.2638745783421,802.9102260112957,790.2044657912876
1731014452.8988926,810.8366012918563,811.6559253950733,806.9522917387782,797.4505554486809
1731014452.9009137,809.979049776515,811.0080477341938,811.7641300754086,803.9854726705313
1731014452.902779,808.4709062842741,809.9206312336344,816.3533641418592,807.4518019687762
1731014452.9064116,806.76194586222,808.0797484297395,819.7517374375204,806.9402682258046
1731014452.906665,805.662079086242,805.6041359903153,821.4584772325825,803.3331500943965
1731014452.9105518,805.8839172067699,803.1330771389415,821.6248579851899,798.6419744400022
1731014452.9134393,807.5851368873788,801.5525471519923,820.8713651893794,794.8822239220888
1731014452.9144382,810.2433715669481,801.5022085697541,819.8557490118632,793.2226924246513
1731014452.9164548,812.9472474673487,802.9655041410838,818.8710394302764,793.8070492533938
1731014452.9183245,814.890936807491,805.2174595057488,817.7390282437398,796.1143490506627
1731014452.9222107,815.7442857211702,807.1996451406885,816.0715790630575,799.4314636993075
1731014452.9260974,815.697906271561,808.1161096814162,813.7148381354459,803.1111711659
1731014452.9299836,815.2239738679968,807.8617026617285,811.0457280035835,806.596244364834
1731014452.9319963,814.7595832247597,806.9714583138264,808.8746631248914,809.3942351526699
1731014452.932238,814.5133545581742,806.1466733386534,807.9850453558181,811.147323839625
1731014452.93387,814.4638341893877,805.7771322653552,808.6178541193351,811.764511059861
1731014452.9377563,814.4817639965217,805.8277925461477,810.2743873696392,811.4749479048074
1731014452.9413896,814.4581703869752,806.0534818574989,811.9948266098206,810.7172151566455
1731014452.9416428,814.3613271347893,806.2496517640496,812.925776747919,809.922362829937
1731014452.9455292,814.2198853578853,806.3497930045775,812.780582328222,809.3339713270533
1731014452.9475377,814.0763224221147,806.3859376765191,811.8889421641888,808.9684492988465
1731014452.9494157,813.9540369251845,806.4116974121052,810.8533815627732,808.7060587775466
1731014452.9510367,813.8526494409115,806.4562157630539,810.1192715376684,808.4203100951823
1731014452.953302,813.7605773016097,806.5198321094672,809.7906949051675,808.0560052933558
1731014452.9571884,813.6678805677301,806.5902703312323,809.7782740355807,807.6295167179982
1731014452.9610748,813.5710621390498,806.6574975221829,810.067111105931,807.1848066331471
1731014452.963079,813.4714894034747,806.7187148963842,810.8011830180592,806.7533814987735
1731014452.9649613,813.3722544093272,806.7759849086158,812.0700618542777,806.3419489814746
1731014452.9688475,813.2759853184808,806.8321746309269,813.5857962453489,805.9414763130615
1731014452.9698358,813.1836736776254,806.8887097130312,814.5859019047776,805.5403227590986
1731014452.972734,813.0943979011989,806.9455098382881,814.1542988786288,805.1313687579535
1731014452.9763677,813.0062739114062,807.0019021234124,811.8195436780903,804.7132787952257
1731014452.9766202,812.9181940160331,807.0573841249417,808.0298660845592,804.2890919381584
1731014452.9786203,812.8307692970405,807.1118454460525,804.1286432623947,803.8634270372634
1731014452.980507,812.7454115804957,807.1654181665567,801.7618960402649,803.4390001558573
1731014452.9843931,812.6625723849813,807.2182611859047,802.0316049546667,803.0146906531405
1731014452.988279,812.5812472443754,807.2704509074849,804.8992481886397,802.5871175421729
1731014452.9886343,812.5003343682342,807.3219859324731,809.2071655488248,802.1543027787496
1731014452.9921658,812.4200752975138,807.3728378222401,813.3064521155972,801.7174786292435
1731014452.9941616,812.3416738756916,807.4229899413643,815.9064787895991,801.2791251708003
1731014452.9960525,812.265566230659,807.4724469040865,816.6373483712589,800.8397773011677
1731014452.9999385,812.1906352408183,807.5212254798445,816.0214263471589,800.3975031785226
1731014453.0038247,812.1155000096828,807.569343208706,814.9422202189924,799.9504992887347
1731014453.0074332,812.0403296614552,807.6168131424589,814.0109801020274,799.4993604656069
1731014453.0077114,811.9668909069973,807.6636445010037,813.2549531233357,799.0461543407428
1731014453.0097027,811.8966524319236,807.7098454574149,812.2848720534945,798.5916121830985
1731014453.0113454,811.8290150402552,807.7554250938991,810.7485247197196,798.1341303335182
1731014453.0115976,811.7614595341845,807.800393775254,808.699049286328,797.6718516817558
1731014453.015484,811.691340397641,807.8447626046959,806.6148657832097,797.2050650819224
1731014453.0193706,811.6178800919228,807.8885428210981,805.0945947959324,796.7357574390587
1731014453.0232568,811.5434140181482,807.9317455433775,804.4830054698391,796.2648956459618
1731014453.0252442,811.473355878953,807.9743818193933,804.6976780443521,795.7910339440393
1731014453.026232,811.4138112375243,808.0164627706247,805.3427817298774,795.3121710696885
1731014453.0271432,811.3662900770345,808.0579996829703,805.9836793992995,794.8285231894215
1731014453.0310297,811.3223253664828,808.0990040130223,806.3745965000682,794.3425355579034
1731014453.034916,811.2640000366441,808.1394873495876,806.512428485235,793.855835381564
1731014453.0388024,811.1734950381879,808.1794613756236,806.5368350137846,793.3667153418912
1731014453.0407856,811.0456130696024,808.2189378495532,806.5887389583415,792.8713186158775
1731014453.0426888,810.8917231760346,808.257928601299,806.7276835629584,792.3675882215873
1731014453.0450308,810.7308590857028,808.2964455309035,806.9340438955261,791.8581551654281
1731014453.0463233,810.5768018113464,808.3345006027135,807.1579529155538,791.3494829174884
1731014453.0465753,810.4325831340053,808.3721058366554,807.3634842021836,790.8475691724562
1731014453.0504615,810.2941159017498,808.409273302785,807.5430589260933,790.352193534039
1731014453.054348,810.156477104542,808.446015122524,807.7079275376086,789.8525394493333
1731014453.0563269,810.0173411369775,808.4823434704426,807.8725541447626,789.3289076019146
1731014453.0582342,809.8769010048451,808.5182705606752,808.0449835434505,788.7656951921653
1731014453.062121,809.7362830732155,808.5538086044662,808.225264560681,788.173540553462
1731014453.0638297,809.5962898368161,808.5889697507145,808.4087750773567,787.6033948189003
1731014453.0660071,809.4570643835543,808.6237660624106,808.5907423183888,787.1263957720554
1731014453.0698934,809.3183591133128,808.6582095997557,808.7691590975364,786.7705200589975
1731014453.0718682,809.1798957757628,808.6923126192821,808.9447661126125,786.449479601077
1731014453.0737798,809.0415396307351,808.7260877418803,809.1191603781459,785.9583143418781
1731014453.0776663,808.9032848289432,808.7595477927485,809.2938161190987,785.0940855345877
1731014453.0813012,808.7651677654742,808.7927050994127,809.4712836086721,783.8711275915872
1731014453.0815525,808.6272036469434,808.8255705382462,809.6557286279141,782.6899455297894
1731014453.0826285,808.4893727673272,808.8581533709335,809.8483292631171,782.2866814942726
1731014453.085439,808.3516368368003,808.8904631456139,810.0381605309125,783.4015305334686
1731014453.0874095,808.2139580268596,808.9225136271434,810.1979619383455,786.3119194482705
1731014453.0893252,808.0763070434382,808.9543257241637,810.2951789505728,790.5279142370202
1731014453.0932117,807.938661005067,808.9859238167303,810.3139411463907,794.9011940607381
1731014453.097098,807.8009980255025,809.0173220584221,810.2674335403718,798.1534705923472
1731014453.1009843,807.6632943444939,809.0485072564055,810.1875316680508,799.5474014158165
1731014453.1014273,807.5255260051575,809.0794386678824,810.1031749677705,799.3075284281148
1731014453.102951,807.3876732105588,809.1100874412098,810.027558580615,798.5347443728509
1731014453.1048708,807.2497225864556,809.1405109527424,809.9600330743863,798.6492233229486
1731014453.1087573,807.1116620391639,809.1709002752681,809.8947808659897,800.655863443912
1731014453.1126437,806.973467339565,809.2014961769601,809.8275178452922,804.6143201906444
1731014453.116279,806.8350898383959,809.2323215220174,809.7573322891676,809.5904235192783
1731014453.11653,806.6964647544382,809.2628760357301,809.685341052926,814.1307165529186
1731014453.1184924,806.557554977735,809.2921887975658,809.6128357411039,817.0333899985598
1731014453.120226,806.4184135560004,809.319631540318,809.5403739527163,818.0012424504354
1731014453.1204164,806.2791987347023,809.3463346348825,809.4678465004215,817.7765083926275
1731014453.1243026,806.1400568084559,809.3759927869781,809.3949227576768,817.62986293422
1731014453.128189,806.0008678177201,809.4132210157788,809.3213804747296,818.4958281111542
1731014453.1320755,805.8610418801841,809.4590361063306,809.2471799280113,820.3347972486813
1731014453.1340337,805.7197294033473,809.5067805836553,809.1723818744721,822.1938833359361
1731014453.1359618,805.5766886038538,809.5438413893534,809.0970496459337,822.9420130622847
1731014453.139025,805.4334211395274,809.5598622399228,809.0212056026135,822.1220344893751
1731014453.1398482,805.2932806018779,809.5544933323537,808.9448381539133,820.2445782022613
1731014453.1437347,805.1590334668754,809.5372513745353,808.8679261195812,818.2914256129285
1731014453.147621,805.0280382580007,809.5200730298229,808.790455329721,816.8596087016297
1731014453.149575,804.8888899488666,809.5097271491202,808.712421553376,815.6902588616795
1731014453.1512568,804.7263467885647,809.5057760606836,808.6338257777986,813.9934615300713
1731014453.1515074,804.5383504902885,809.5038146065989,808.5546691753069,811.2765194187737
1731014453.1553938,804.3563972181873,809.4999124794324,808.4749510013809,807.9298244438986
1731014453.1578238,804.2439598449541,809.4928526482732,808.3946688620792,805.031999733576
1731014453.15928,804.2457353672436,809.4836439695,808.3138196400221,803.5219675629546
1731014453.1631663,804.2950214778639,809.4738363432742,808.2324002429,803.4381738085492
1731014453.1651163,804.1545027007569,809.4642750920327,808.1504084819576,803.8610064793565
1731014453.167053,803.5090845272814,809.454897388647,808.0678444493776,803.5904670105692
1731014453.1709392,802.2413449187223,809.4452193979175,807.984711543517,801.9934676962517
1731014453.1748257,800.6816547917119,809.43487036483,807.9010149492348,799.3694006106698
1731014453.1766226,799.5062038212498,809.4237847564575,807.8167560107782,796.633737414931
1731014453.178712,799.2626421513303,809.4120739520815,807.731925015021,794.6727181742523
1731014453.1806576,799.9571604834767,809.3998330180723,807.6465007690342,793.9066587171469
1731014453.1825984,801.1219056148874,809.3870809445549,807.5604666956734,794.3164607937994
1731014453.1862347,802.2932308653909,809.3738188268541,807.4738420411549,795.7484428898357
1731014453.1864848,803.4547444524973,809.3600683649001,807.38670290112,798.1169412430095
1731014453.1903713,805.0719083580931,809.3458319524938,807.2991489832198,801.3078104988986
1731014453.1942575,807.7034436408984,809.3310553283085,807.2111924247788,804.9370362234548
1731014453.1954217,811.491327598109,809.3156752429841,807.1226268910125,808.2982013500549
1731014453.1961987,815.8962784293146,809.2997026887451,807.0330411032248,810.6759101431427
1731014453.198144,819.85637477733,809.2832219396638,806.9421487712991,811.8474961244382
1731014453.2020304,822.2609844660628,809.2662884343728,806.8503751642196,812.3555235803648
1731014453.2059166,822.4456184405371,809.2488519596704,806.7591884591293,813.2353953527561
1731014453.209803,820.4327537369624,809.2308139843665,806.6703568375556,815.2789864862067
1731014453.2117405,816.8308098081875,809.2121561973834,806.5837899676599,818.3126926668209
1731014453.2136896,812.5145646962768,809.192973011058,806.4952362743497,821.0448194911567
1731014453.2142203,808.303575996298,809.173354366071,806.3970273519725,821.6945032316704
1731014453.2175758,804.7900804072863,809.1532639796452,806.2849377818344,819.0707879984394
1731014453.2212126,802.3237105903856,809.1325792159807,806.1696336577204,813.4154913088261
1731014453.2214622,801.0616539887176,809.1112539013533,806.0831789170032,806.430759932536
1731014453.2253487,801.0037781172165,809.0893918942287,806.067737469234,800.4277007179736
1731014453.2272816,802.010565721173,809.0671206795771,806.1459123195597,797.1051795716065
1731014453.2292347,803.8507604176874,809.0444203829959,806.2955663507331,796.7047880811572
1731014453.2330189,806.2932215956968,809.0211413295597,806.4575700403714,798.0367697539521
1731014453.2331214,809.1859977867889,808.9972037961434,806.5752327153155,799.3170456088809
1731014453.237008,812.4444242456187,808.9727196140801,806.6303480772068,799.2695581103263
1731014453.240894,815.938771408656,808.9478605720939,806.645367378564,797.8271960576237
1731014453.242823,819.3736120859699,808.9226341129521,806.656627737974,796.0498980181734
1731014453.2447803,822.2843731439123,808.8968658410441,806.6868813505888,795.3660568256543
1731014453.248667,824.1965255372669,808.870424757424,806.7371226829766,796.6355546785778
1731014453.2518177,824.8595495451572,808.843400876336,806.795725103158,799.6123636823503
1731014453.2525532,824.3946087233148,808.8160008419093,806.851162414212,803.1189111671545
1731014453.2561903,823.2465061032992,808.7883015483574,806.8984986738366,805.793739880978
1731014453.2564397,821.9663685476106,808.7601878633909,806.9390230389922,806.9113209827124
1731014453.2583644,820.9637054152307,808.7315364782228,806.9769171288606,806.7341512907967
1731014453.260326,820.3729457540101,808.7023563037085,807.0159476946384,806.1833050363447
1731014453.2642124,820.0873305872149,808.6726682649053,807.057365577926,806.0917710965646
1731014453.2680988,819.9016940485948,808.6423408498258,807.0996859855901,806.5926004262111
1731014453.2706163,819.6552163127126,808.6112707712019,807.1404635280775,807.0713197677562
1731014453.2719853,819.2960506077513,808.5798408368029,807.1786448633135,806.671088100804
1731014453.2739058,818.8604486231814,808.5489795282274,807.2152851098709,804.9280104318375
1731014453.2758715,818.4117590210832,808.5192724067239,807.2519984302576,802.0568017332178
1731014453.279758,817.9910462110348,808.4896398939995,807.2890340113031,798.7299019660866
1731014453.2836444,817.6032091394375,808.4571414620216,807.325229872979,795.606027571854
1731014453.287531,817.2310562664006,808.4191418081707,807.3597117774947,793.0191088768133
1731014453.2894154,816.8561822235315,808.3770132242759,807.3930479745122,791.0329293035779
1731014453.2894473,816.4708123252063,808.3380902052845,807.4264014848036,789.7163296894497
1731014453.2911685,816.0774928067387,808.3121588490831,807.459916117937,789.3190961100913
1731014453.2914171,815.6824539681888,808.302123972499,807.4925567448239,790.1625957008966
1731014453.2953036,815.2898143827174,808.2947450098252,807.5236089745168,792.3465719419489
1731014453.2991898,814.9000162357304,808.2619017648874,807.5537526253391,795.5391345191053
1731014453.3030765,814.5115202016979,808.1794263397085,807.5841628589945,799.0274920233124
1731014453.3049884,814.1229511825655,808.0566821388385,807.6147823003823,801.9764591239323
1731014453.3069625,813.7338898168172,807.9533839994382,807.6441578789153,803.6978368347822
1731014453.3082142,813.3444895592183,807.957449470313,807.6713100807522,803.7915158579597
1731014453.310849,812.9550054002411,808.1219410684545,807.6974187480012,802.1846862099425
1731014453.3147354,812.5657284431838,808.400982124381,807.7250823431413,799.1793210703036
1731014453.3186216,812.1769728481657,808.647365385362,807.75558881262,795.5327481242148
1731014453.3205297,811.7888185571828,808.7003366367612,807.7868525136669,792.4424086520241
1731014453.322508,811.40095795044,808.5075689163306,807.8141513144515,791.269878651475
1731014453.326146,811.0130743156291,808.1691891752612,807.8335779827295,793.0045124275359
1731014453.3263946,810.6254277633315,807.8530919782619,807.8463631176329,797.7199132450437
1731014453.327013,810.2387925892423,807.6659940397769,807.8612731572397,804.3916371076409
1731014453.3302808,809.8535028353573,807.6035086590482,807.8916385322914,811.2801588610128
1731014453.3341672,809.468562432707,807.5980896932466,807.9449767506576,816.7189767530505
1731014453.336071,809.0821088691376,807.5890722643252,808.0094804039985,819.8459769710408
1731014453.3380537,808.6933878053923,807.5539966289406,808.0503658641894,820.8233721019479
1731014453.34194,808.3047412638465,807.4999939838799,808.0295748375609,820.4327244049686
1731014453.3458118,807.9213672292467,807.4421776657603,807.9452192838065,819.3677937024679
1731014453.3458264,807.547518609494,807.3895572777889,807.8605050857896,817.7492723229659
1731014453.3497128,807.180374676087,807.3428597268462,807.8837627698808,815.1937055148587
1731014453.3516123,806.8063942645173,807.2987880357329,808.0951186058893,811.3335169849825
1731014453.3535993,806.4072329572737,807.254372704945,808.4739542699003,806.3478661871593
1731014453.3574855,805.9787806248,807.2086395938115,808.9011874919488,801.0812466336208
1731014453.361124,805.5545969104752,807.1620808134783,809.2455117008483,796.6638757339366
1731014453.361372,805.2105256937255,807.1155114530966,809.4524900063778,793.9222494967939
1731014453.364611,805.0309316058426,807.0693765286479,809.5564946138354,792.9930122577546
1731014453.3652582,805.0527920562715,807.0236844189373,809.6258654165475,793.3654108754063
1731014453.3671536,805.2383810343846,806.978251112691,809.7082410146438,794.2596303978452
1731014453.369145,805.5048990365962,806.9329254005074,809.8150072808171,795.0507973618379
1731014453.3730311,805.7795033780998,806.8876652134122,809.9356432536099,795.4865147693256
1731014453.3769174,806.0301574513248,806.8425024400309,810.0570482122206,795.6391727766788
1731014453.3808038,806.2594629055446,806.797481984469,810.173289341387,795.7111218471526
1731014453.382695,806.4823383425395,806.7526278224715,810.2852569139884,795.8573500502612
1731014453.3834095,806.709370300128,806.7079414096993,810.3962345175651,796.1176102578847
1731014453.3846903,806.9425723010553,806.6634141456684,810.508493545186,796.447647195605
1731014453.3885765,807.1789863629547,806.6190375835474,810.622459779778,796.7850901917401
1731014453.392463,807.4153593067924,806.5748073056528,810.7375075640006,797.0946754848077
1731014453.396102,807.6503442577318,806.5307247346076,810.8529577448809,797.3760478276972
1731014453.3963494,807.8842580079144,806.4868003336646,810.9685397853403,797.6474420365746
1731014453.3982365,808.117937875013,806.4430546208446,811.0843348326318,797.9259906584125
1731014453.4002357,808.3519252941736,806.3995082114376,811.2005312307375,798.2175601679952
1731014453.4022083,808.5862998409107,806.3561575860607,811.3172521645857,798.5180240119884
1731014453.404122,808.8208964859206,806.3129521731734,811.4345220647989,798.8205775498247
1731014453.4080086,809.0555517259302,806.2698086230089,811.5523138034958,799.1218955851951
1731014453.4118948,809.2902081621918,806.2266918157568,811.670601270726,799.4230548942631
1731014453.4137778,809.5248927644449,806.1837337834459,811.7893813123015,799.7264248927713
1731014453.4157813,809.7596545763329,806.1412678826309,811.9086682640678,800.0327983132298
1731014453.4196675,809.9945244913538,806.0996158716628,812.0284793642184,800.3414534957225
1731014453.4210072,810.2295103758171,806.0586094706341,812.1488251616656,800.6519390378137
1731014453.423554,810.4646104427226,806.0171896685216,812.2697094559821,800.9647768615212
1731014453.4274404,810.6998244392831,805.9737694739081,812.3911364353927,801.2804137862687
1731014453.4293191,810.9351537408121,805.9278456747808,812.5131189488429,801.5983152204798
1731014453.43108,811.1705945859748,805.8821738336673,812.6356796512399,801.917646353652
1731014453.4313269,811.4061361430062,805.8430930099115,812.7588379729815,802.2384838359362
1731014453.435213,811.6417732368477,805.8160771753743,812.8825853575895,802.5616865281866
1731014453.4390996,811.8775304639149,805.7966589565522,813.0068693105599,802.8875791972544
1731014453.439806,812.1134740823022,805.763814029405,813.1316202352721,803.2154558263097
1731014453.442986,812.3496770385769,805.6887889156997,813.2568380352136,803.5447831397397
1731014453.4448605,812.5861264608296,805.5673378931681,813.3826916450532,803.8763683773421
1731014453.4468722,812.8226327877879,805.460520560515,813.5095041070275,804.2114451295178
1731014453.4507587,813.0588753341763,805.4990656815561,813.6374932866706,804.5494065956549
1731014453.4546452,813.2946990314302,805.806211621432,813.7663211202416,804.8872533357965
1731014453.4585314,813.5305639282197,806.3613231444493,813.8948526732381,805.2224358295655
1731014453.4586048,813.7676964686946,806.9221569736047,814.021753555554,805.5568743098789
1731014453.4604018,814.0073269906133,807.1216887133276,814.1471693328317,805.8977569859026
1731014453.4624178,814.2489097901491,806.7065754840982,814.274480933429,806.2526240474784
1731014453.4660578,814.488563701441,805.7327017762562,814.4096851735135,806.6208052773143
1731014453.4663043,814.7202928878697,804.5533930735983,814.55615092164,806.987563940874
1731014453.4701903,814.941901946694,803.6131842872088,814.7062404796096,807.3288286769694
1731014453.474077,815.1632359298231,803.2176790214364,814.8378207963145,807.6303310661658
1731014453.475943,815.4078576432712,803.4454700702964,814.9272320660855,807.9130142332887
1731014453.4774034,815.6970390411776,804.223089471886,814.9817214852682,808.2413094706487
1731014453.4779634,816.0159412490086,805.4455038639851,815.0701033425304,808.68834366414
1731014453.4818497,816.2877162236243,807.0163958020593,815.3049950848234,809.2595310178742
1731014453.485736,816.4042911732137,808.7931068528828,815.7390558007805,809.8269661945119
1731014453.4896226,816.3461360476092,810.5300923567447,816.2114406555658,810.1580714358562
1731014453.4914844,816.3406692906992,811.9171472865995,816.2839127675285,810.0793651353002
1731014453.4935088,816.8978839375934,812.711708819325,815.4147407898837,809.696863712559
1731014453.4962022,818.5626777350788,812.8681940963031,813.3421983831608,809.4835113824636
1731014453.4973953,821.4608965955874,812.5612968434474,810.4060815934072,810.0675641454881
1731014453.5010357,825.0044505315063,812.0835037799021,807.4893912597942,811.7608127633349
1731014453.5012815,828.0510320663,811.6908773090463,805.5238373590271,814.128597407512
1731014453.505168,829.4033896165735,811.4983194407853,804.8728117311048,815.9886271584936
1731014453.5070257,828.2905807176571,811.4755325669859,805.0559345803752,815.9854989473666
1731014453.5090544,824.6127793354603,811.5196793385375,805.0568743539848,813.4439750829262
1731014453.512941,818.9573982094988,811.5399162382739,804.0213051064866,808.9062654593209
1731014453.5150013,812.4623647973564,811.5018032292462,801.850056183921,803.9045497396011
1731014453.516827,806.5549268538355,811.421488262169,799.2680680274601,800.0625742945704
1731014453.5207136,802.5640262102678,811.3333209457325,797.3415025749567,798.1501673484283
1731014453.522567,801.2604523218055,811.2611149318695,796.8093935427339,797.7819480284461
1731014453.5245998,802.5006378194029,811.2086526891533,797.6905818749358,797.963628313664
1731014453.5284865,805.2344169230869,811.1667463506337,799.3772079205633,798.0217654207255
1731014453.5323727,808.0189735395093,811.125126813746,801.0634234093292,798.1512780384182
1731014453.5338,809.7930594827772,811.079474413132,802.172934751049,799.1351291388718
1731014453.5360136,810.3425921679546,811.0312334475011,802.5462016570553,801.4763357781553
1731014453.5362587,810.1261057769042,810.9836787063346,802.3854675751999,804.6759469375403
1731014453.5381083,809.7367760567043,810.9387574204243,802.1049303716919,807.2916206331756
1731014453.5401454,809.5107766195819,810.8965941348106,802.1958558701698,807.7999836637375
1731014453.544032,809.4818879362075,810.8565821876019,803.0923691392181,805.6487154913777
1731014453.547918,809.5386978295918,810.8182261536167,804.9828081217972,801.7191739594906
1731014453.5518043,809.5789140454945,810.7811709054553,807.6082718756777,797.8471112123418
1731014453.5525987,809.5687002462099,810.7450961414678,810.2085792400062,795.7306891861974
1731014453.5536497,809.5249863012508,810.7099696855653,811.7559121044376,795.9757926278513
1731014453.555691,809.4760078228984,810.6762334936755,811.4282581393894,797.8939804373567
1731014453.5595772,809.4372364812198,810.6443889472388,809.066013097311,800.1123065930789
1731014453.5634637,809.4089951347213,810.6143458033506,805.3186814132749,801.5075880345427
1731014453.56735,809.3848935075886,810.5854257127468,801.3782628661819,801.8240198083768
1731014453.5691912,809.3596470913305,810.5571517493652,798.4675867295837,801.632371224625
1731014453.5709913,809.3317464801072,810.5298657103037,797.3889819312436,801.7724950422686
1731014453.5712364,809.3022457555834,810.5043450952564,798.344277431853,802.7290349353077
1731014453.5713975,809.2726399151471,810.4808593541993,801.0141158782208,804.3443309499077
1731014453.5751228,809.2436770354061,810.4588156063237,804.7330254221991,805.972114701737
1731014453.5790093,809.2153144188431,810.4373402942678,808.6286530855016,806.8768968379006
1731014453.5828955,809.1871938705764,810.415980975256,811.7388268074368,806.5870186087051
1731014453.5847323,809.159043175264,810.3948207284631,813.2065020814964,805.0279235290818
1731014453.586782,809.130795035884,810.3743845769648,812.57898763937,802.4564833724077
1731014453.5901964,809.1025102591603,810.3559288095198,810.0739888149715,799.3306648806748
1731014453.5906684,809.0742647273596,810.3414470149451,806.5953091211695,796.2240791889247
1731014453.594555,809.0460912934751,810.3319737054331,803.3952220026315,793.7885898476587
1731014453.5984411,809.017981509008,810.3245628996946,801.5213827135233,792.6821870755895
1731014453.6002738,808.989912160066,810.3113921442396,801.3602598215052,793.3837239950043
1731014453.6023276,808.961866399817,810.2846597414666,802.5453267855154,795.9138605434242
1731014453.6059692,808.9338399265596,810.2460356665858,804.2613778299922,799.6132290655462
1731014453.6062138,808.9058367569626,810.21283091291,805.7260014214969,803.1953229592293
1731014453.6089952,808.8778616232466,810.2117698048269,806.5476880395184,805.1994057136859
1731014453.6101005,808.8499130536618,810.2588832752627,806.7867095432387,804.7086617445443
1731014453.6139867,808.8219797696797,810.3359485494107,806.7610709039495,801.9164840117359
1731014453.6158152,808.7940444150498,810.3802646128606,806.7816882770355,798.0817418654027
1731014453.617873,808.766097981287,810.2992877874595,806.9900795079677,794.7874238405927
1731014453.6217594,808.7381598113301,810.0084426672495,807.3549210419154,793.0082389123287
1731014453.625646,808.7102832476063,809.4791288832147,807.7684988661858,792.7101415223151
1731014453.627794,808.6825203641245,808.7805267833659,808.1454904950476,793.2044798193359
1731014453.629532,808.6548425855894,808.1000064183359,808.4637242920969,793.794241794375
1731014453.6313565,808.6270736258931,807.726877066098,808.7476301868746,794.1507277503283
1731014453.6334186,808.5989483085422,807.9857077665815,809.0307644679856,794.288257087003
1731014453.637305,808.5703787578992,809.1202105104527,809.3307527673123,794.3529248567113
1731014453.640947,808.5418163040987,811.1611590175849,809.6465307262563,794.4540038516067
1731014453.6411912,808.5143104411541,813.8437681813286,809.9685620016712,794.6159599444601
1731014453.6450777,808.4887784664571,816.6387656900556,810.2889110327503,794.8112968253429
1731014453.6465929,808.464504062085,818.9114606652345,810.6049813704147,795.0072971105121
1731014453.6468978,808.4380356769634,820.1493286847698,810.9181925126595,795.1894259033163
1731014453.6489642,808.4046506643472,820.1523261481918,811.2312503235805,795.3600458441725
1731014453.6528504,808.3637655624403,819.0961986929602,811.5461597331793,795.5273122665603
1731014453.6567369,808.3259860708001,817.4456631843252,811.8633593700716,795.6967826494177
1731014453.6606233,808.314719281015,815.7655317117791,812.1818807357573,795.8694342511876
1731014453.662439,808.3558549678776,814.5137735603511,812.5003625639401,796.0436742319298
1731014453.6645095,808.460155719681,813.8940375397908,812.818243169569,796.2178094051619
1731014453.6653917,808.6146649434777,813.8133361867461,813.1361149813189,796.3911700994294
1731014453.668396,808.7927857356274,813.9504461498843,813.4549071921901,796.5639536009022
1731014453.6722825,808.9725503188704,813.9003722901014,813.774768362194,796.7366161714967
1731014453.675925,809.1458535478333,813.3301655887374,814.0948532877472,796.9094522575941
1731014453.676169,809.3145140520913,812.0793475182124,814.4142223922161,797.0825169857818
1731014453.6779804,809.4820448537689,810.173922873396,814.7328781744823,797.2557413305375
1731014453.6800551,809.6498158233222,807.7775773444291,815.0519017479381,797.4290521462224
1731014453.6839416,809.8182021674618,805.1354484848131,815.3726105732371,797.6024157495357
1731014453.6841905,809.9880460984916,802.5466006021254,815.6954311572841,797.7758286967
1731014453.6878278,810.1596921264817,800.3485781627114,816.019125434399,797.9493134889462
1731014453.6917143,810.3316190660968,798.8646391730572,816.3407529277359,798.1229430512097
1731014453.6935215,810.501580930335,798.2913037981716,816.6569525452925,798.2968562912229
1731014453.6956007,810.6694382643021,798.5737283920631,816.9670508645659,798.4711930863637
1731014453.699487,810.8380068095769,799.3641864924844,817.2767390011011,798.6459236650084
1731014453.702989,811.0103305738836,800.1297282277532,817.5981504164478,798.8206860930379
1731014453.7033734,811.186108442778,800.378974921224,817.9418212589657,798.9948889239919
1731014453.70726,811.3610650489269,799.8880297743108,818.301978790361,799.1682871306468
1731014453.7090633,811.5299445915101,798.7963631073403,818.646941375347,799.3418220624085
1731014453.7109027,811.6907883570252,797.525374659002,818.9313735090452,799.517852317901
1731014453.711146,811.8481275373849,796.5810076348837,819.1358300015479,799.6986300019421
1731014453.7150326,812.013443256529,796.3556913826975,819.3120009733478,799.8829093007793
1731014453.718919,812.2001987955832,797.0151329913447,819.5883504512766,800.063140387709
1731014453.721788,812.4112581222005,798.4839128492911,820.0981756897409,800.2281052600713
1731014453.7228053,812.6241933545004,800.4952329307373,820.8422818990654,800.3743843374077
1731014453.7246046,812.791502370077,802.6698182519799,821.566518392132,800.5217034521293
1731014453.7266915,812.8724193251618,804.6087139606625,821.7655574133131,800.7150119545108
1731014453.7305782,812.8879778827397,805.9863525775578,820.8737250157028,800.992709971442
1731014453.7344644,812.9533672951044,806.6136234578431,818.5828399089584,801.3224336101187
1731014453.7383509,813.2300853074197,806.4409986326903,815.1126438141272,801.5550968254628
1731014453.740146,813.7878548770536,805.5105318889823,811.2447091072199,801.4894033633213
1731014453.7405868,814.4562720885255,803.9139160280014,808.0489120940105,801.1032400079733
1731014453.742237,814.8049032630979,801.8157465561135,806.4169706457544,800.8481771006741
1731014453.7458808,814.3405339803905,799.5362532676827,806.6457957752206,801.6972147832907
1731014453.7461236,812.8518866622171,797.6053251739562,808.2943965235974,804.6552880705879
1731014453.75001,810.674978227402,796.6814281022554,810.3847012695777,809.9130649278438
1731014453.7538962,808.6436649930807,797.3111006155295,811.83166170437,816.3628866458112
1731014453.7556872,807.6812202054672,799.634461375191,811.8839044616124,822.0135832422199
1731014453.7577827,808.2601227023175,803.2157488230978,810.378765841438,825.0188345452939
1731014453.7593856,810.092093295871,807.1281583231977,807.7287278874855,824.5758876340743
1731014453.7616692,812.2776815105042,810.2779058959594,804.6852625424256,821.2336966921557
1731014453.7655554,813.8272521140934,811.8154836935857,802.0102330441739,816.6029246112575
1731014453.7694418,814.2050536707911,811.4436884509474,800.2009255523476,812.6775403821379
1731014453.7712286,813.5461101559205,809.5029013925581,799.3699952648009,811.0419962128043
1731014453.7733283,812.4454733494807,806.8284160247445,799.3015383161076,812.2616798376422
1731014453.7772143,811.5206195623618,804.4565814275257,799.6247956244108,815.6990648214536
1731014453.7781844,811.0729995629946,803.2816904245102,800.0038241606336,819.8209865032765
1731014453.7808585,811.043289723828,803.7604343399167,800.2539733504813,822.8381621499979
1731014453.781101,811.1986243100603,805.7526706116538,800.3520881792525,823.3877691898261
1731014453.7849874,811.3431810941538,808.5669346912092,800.369560067683,821.0014600230608
1731014453.78677,811.406056167336,811.219225640285,800.3886051384821,816.232743543431
1731014453.7888737,811.4099992838903,812.8183630231603,800.4510072735645,810.4414681857094
1731014453.79276,811.4023889753084,812.9146715284278,800.552961272023,805.30886438796
1731014453.7966466,811.4111279040686,811.6535108572081,800.6685597483864,802.2213556603988
1731014453.7969832,811.4381643976538,809.671769525196,800.7753773740194,801.7383191551181
1731014453.8005328,811.4730255070943,807.805620713952,800.8660219920172,803.3898853672708
1731014453.8023112,811.5064276483552,806.7598208719811,800.9452376849057,805.9466775764548
1731014453.8044193,811.5353941325233,806.8806401018288,801.0211057634413,808.0636696319536
1731014453.8083055,811.5615173738273,808.0983574897602,801.0984802393567,808.9624041436073
1731014453.812192,811.5873580084607,810.0190348968848,801.177586040694,808.7617758236075
1731014453.815782,811.6142923988517,812.0952911871277,801.2561763026339,808.2663045525887
1731014453.8158364,811.6423273888901,813.8018018032085,801.3322071428206,808.3536740486063
1731014453.8160784,811.6708762959337,814.7651044299814,801.4050562031542,809.3465651323427
1731014453.8178525,811.6994631732463,814.8263101715594,801.4751545707278,810.7477536337573
1731014453.819965,811.7279561858373,814.0374174221245,801.5430774838867,811.4805202100752
1731014453.823851,811.7564527633458,812.6056196894135,801.6090818897751,810.4781647474783
1731014453.8277376,811.7850868365746,810.8074456337187,801.6732204677359,807.2934235083851
1731014453.831624,811.8139230272711,808.897521061569,801.7355135879292,802.4267863034416
1731014453.8333938,811.8429543251792,807.0369158534287,801.7958508893767,797.2400775045312
1731014453.834581,811.87214569709,805.2647311335434,801.853905771143,793.5053365996238
1731014453.8355105,811.901470189615,803.5310847314254,801.9094503411623,792.7573931623327
1731014453.8393967,811.930919246922,801.7921211977394,801.9628392305665,795.6686926289075
1731014453.8432832,811.9604954982367,800.1335341371333,802.0149353358734,801.6752933456836
1731014453.8471694,811.9902025168084,798.850969745353,802.0662036598737,809.0459593038464
1731014453.8489351,812.0200396759902,798.4059789646706,802.1157487791578,815.4558732355558
1731014453.8508143,812.0500024103385,799.2253196919377,802.1615115632245,818.8938944461293
1731014453.851056,812.0800846369974,801.412749996101,802.2020228930704,818.4985784568612
1731014453.8533795,812.110280593022,804.5371336339815,802.2386471388695,814.8639730361346
1731014453.8549423,812.1405852741218,807.6683119029975,802.276283744695,809.5985968553488
1731014453.8588283,812.1709939987401,809.7150192370883,802.3207773022349,804.3707069774874
1731014453.862715,812.2015018693803,809.9293779652904,802.373115033944,800.0387750871695
1731014453.8644764,812.2321035274467,808.3043638134574,802.4237685867224,796.4486905241102
1731014453.8666017,812.2627931888347,805.6159705658129,802.4536803553841,793.0257113524498
1731014453.8704877,812.2935647795272,803.0582584959102,802.4474105567099,789.6917043610624
1731014453.8721786,812.3244120308755,801.6674695049322,802.41503512577,787.3527650214081
1731014453.8743742,812.3553284990469,801.8610051976424,802.4052434812589,787.4922753890505
1731014453.8782606,812.3863075406186,803.3347531391055,802.48563937778,791.0924305962104
1731014453.880018,812.4173422864075,805.3276124632413,802.6829871625343,797.6717986983326
1731014453.8821468,812.4484256350931,807.0457168299656,802.9161556903667,805.2055398200765
1731014453.8857925,812.4795502660504,807.9887720189996,802.9900227013119,811.0753630261057
1731014453.8860333,812.510708658654,808.0470972684151,802.70677832336,813.4468313795477
1731014453.8899198,812.54189310207,807.4147544946654,802.0727654174952,812.1693540972997
1731014453.8909774,812.5730956839301,806.4477367032094,801.4736661554219,808.6556801690487
1731014453.893806,812.6043082614638,805.5493518437805,801.6465324490224,804.9168343810675
1731014453.8955593,812.6355224440613,805.0749279855114,803.3648859162731,802.450819887738
1731014453.8976924,812.6667296345576,805.2253799342592,806.9502988372353,801.6614685662258
1731014453.901579,812.6979211534745,805.9612494063512,811.9003359531187,802.0185386326092
1731014453.9054651,812.7290883835452,807.0250770226412,816.9244888169355,802.6660745550787
1731014453.9093516,812.7602227609569,808.1148428802773,820.4590768606289,802.9939007398661
1731014453.9097762,812.7913154334504,809.1179481478968,821.4142200900517,802.8572138004091
1731014453.9111006,812.8223566516103,810.2191857536516,819.7175382678921,802.4469898290583
1731014453.913238,812.8533354358328,811.7552373535023,816.3176013958907,802.024406898354
1731014453.9171245,812.8842403807286,813.8848805777235,812.64781437308,801.733172114669
1731014453.9207702,812.9150619489653,816.3205871828621,809.8951694570719,801.568675020975
1731014453.9210107,812.9457949089905,818.3599367205725,808.5212797254528,801.4519050460765
1731014453.9248972,812.9764375776784,819.2471010961747,808.2768579931542,801.3136024354066
1731014453.926642,813.0069847450309,818.6415522457255,808.5999454678038,801.1313055175325
1731014453.928575,813.0374162004443,816.8745101496805,809.0585492811426,800.9193207691698
1731014453.9287834,813.0676917209076,814.8115817697905,809.5445445959401,800.7015637312276
1731014453.93267,813.09776839491,813.4058601722866,810.1744750068743,800.4926622363108
1731014453.9365563,813.1276447436805,813.2214056983721,811.0789860529692,800.2941098135947
1731014453.9404426,813.1574030633519,814.2025537594485,812.2884446375639,800.0996334701548
1731014453.9421833,813.1871860844832,815.7871730436824,813.7645743210693,799.9022078924121
1731014453.944329,813.2170547381922,817.2532368046639,815.4638195915799,799.6985353986588
1731014453.947374,813.2467760058059,818.0827134721253,817.3083642941738,799.4898033143531
1731014453.9482155,813.2757562465144,818.1625457927211,819.0786162120586,799.2793438351599
1731014453.9521017,813.30340906208,817.76137440984,820.3689176329635,799.0693411551705
1731014453.955748,813.3299967252134,817.3366514897622,820.721121104161,798.859254726381
1731014453.9559882,813.3573420267927,817.2880506566692,819.8839666362594,798.6470112995181
1731014453.9577246,813.3881786770605,817.7738431740731,818.002750562575,798.4313563287619
1731014453.9598746,813.4232011138282,818.6631037316522,815.572661970412,798.2128358782714
1731014453.9637609,813.4568122356757,819.6270005592169,813.1762925811655,797.9927468605546
1731014453.9661725,813.4752900425713,820.302436196528,811.2037232971073,797.7717536962331
1731014453.9676473,813.4609912940864,820.4275346582614,809.7602755987311,797.549818300507
1731014453.9715335,813.4005573771155,819.8786818624878,808.7985052773587,797.3268502398328
1731014453.973266,813.2901061602264,818.6190728779295,808.3216807119159,797.1022747969932
1731014453.97542,813.13463332685,816.6389476160463,808.4618331862338,796.8736101309149
1731014453.9793065,812.9455135184942,813.9664120280808,809.3645777128816,796.636939522294
1731014453.9831927,812.7380601626317,810.7512179685272,810.9908336222863,796.3914847258231
1731014453.9849713,812.5271916385382,807.3386096761789,813.0174569193583,796.1452558922103
1731014453.9870791,812.322173304341,804.2370149165579,814.9347604409403,795.913898186711
1731014453.9888072,812.1246322852332,801.960760041205,816.2821242332259,795.7074486902417
1731014453.9907258,811.9311328157369,800.8324937884212,816.8622863942248,795.5113835148068
1731014453.9909656,811.7372842054086,800.8689478669132,816.7965885658273,795.280895396566
1731014453.9948518,811.5402244895828,801.8144210390427,816.3946771918133,794.9668030717278
1731014453.9987383,811.339107806147,803.2818934247758,815.9279296957524,794.5694718268913
1731014454.0026248,811.1347788636772,804.9003426338022,815.4477561205957,794.1826553609098
1731014454.00377,810.9291166182657,806.391450422629,814.7594604765586,793.9704404794301
1731014454.0043485,810.7238162030358,807.5732239103494,813.5732000456552,794.0484892133637
1731014454.006511,810.5190922700396,808.3392866631502,811.7510170346848,794.3189254853162
1731014454.0103974,810.3135750544366,808.6534018315953,809.5041802683011,794.3901562209817
1731014454.014284,810.10577862177,808.556602601256,807.4078911001693,793.7188554501142
1731014454.01817,809.8956842190331,808.1624579596117,806.1944128649304,791.9903670777638
1731014454.0198898,809.6846343139196,807.6329841715421,806.4144449183424,789.5519093852731
1731014454.0220566,809.473635709528,807.1516927131145,808.1436218094217,787.5763962875149
1731014454.0225687,809.2621166707405,806.9037569055727,810.8991409879777,787.7130620593899
1731014454.0257037,809.0486841943845,807.0437333662436,813.8238011289858,791.2874374867913
1731014454.025943,808.8329724210573,807.6253406889161,816.0529627726721,798.4653113452403
1731014454.0298293,808.6162725514448,808.5121926947962,817.083185582138,807.9214331491361
1731014454.0337155,808.4000758425044,809.3462957349567,816.9593781386561,817.306893151068
1731014454.0354311,808.184203263733,809.6514408614155,816.1893458400065,824.3155113044111
1731014454.0376022,807.9667202190901,809.0638579898745,815.4350211065499,827.7456797308503
1731014454.0413678,807.7457735059241,807.5708824098182,815.1482592495446,827.9386177445338
1731014454.0414884,807.5214566300076,805.5982851541781,815.3496348243006,826.3693742927538
1731014454.0453749,807.2961168755498,803.8647915861557,815.6649731570006,824.6938442373221
1731014454.049261,807.073217414966,803.0665093909454,815.5784632580123,823.8488548402146
1731014454.0509727,806.85542812789,803.559545425188,814.7318904855947,823.6920320853408
1731014454.0531476,806.6419237665716,805.2063294109115,813.0882666974006,823.2850651518851
1731014454.057034,806.4255976233678,807.4535704559042,810.8927871495821,821.561204522808
1731014454.0601666,806.1939153486065,809.5874857369764,808.5118262563623,817.9833285086297
1731014454.0606816,805.9380514385081,811.0317659874873,806.2915468522494,812.888009410641
1731014454.0609205,805.6682688959091,811.5445563417775,804.511349960327,807.3880525982038
1731014454.0648067,805.4215637029229,811.2280996169457,803.3915345461213,802.8724160977094
1731014454.066514,805.2433675533109,810.3647888319101,803.0691805574228,800.2977154373237
1731014454.0686932,805.1414511042065,809.193773897266,803.5230429598414,799.6118119611544
1731014454.0725796,805.0426598653286,807.7848046686278,804.526752781449,799.6891407447573
1731014454.0764658,804.8044291949775,806.107018478474,805.7207473936187,798.9506146963085
1731014454.0789654,804.3113972421856,804.247238793191,806.788356105802,796.4041248730485
1731014454.0803523,803.6197909420265,802.596948706545,807.601825429544,792.4501670945086
1731014454.082055,803.0425378507315,801.8117004963003,808.2032017017157,788.8157184242896
1731014454.0842388,803.0642405288903,802.4909131199688,808.62645031701,787.5171002268402
1731014454.088125,804.0712000951096,804.7445181812373,808.7263372097813,789.4746520781274
1731014454.0920117,806.0302220945965,807.9431556909325,808.1971433118059,793.7405828339022
1731014454.0956595,808.3382644121522,810.8737280062687,806.8054824627471,797.9307710578223
1731014454.095898,809.9998086040671,812.2724149129231,804.6614036981587,799.6074933122
1731014454.0975966,810.0864425422515,811.4507934611489,802.294551943656,797.6836858713632
1731014454.0977645,808.228760055322,808.651686558916,800.4460155132176,792.9319705193252
1731014454.099784,804.8418389646796,804.9300265871375,799.706999108572,787.3522091397882
1731014454.1036706,800.9427132869068,801.640439913793,800.2419280924136,782.9361880487797
1731014454.1075573,797.6758106689413,799.8318089355945,801.7473872121219,780.679389334761
1731014454.1114433,795.837364834534,799.8644013673045,803.6178830448728,780.3685682621967
1731014454.113138,795.663346942899,801.3937284307715,805.1819936001884,781.0641193808061
1731014454.1153295,796.9486267123098,803.6460456778489,805.9066774792775,781.7978151819755
1731014454.116563,799.3459231528426,805.7885123212135,805.5587714973117,782.0499158095977
1731014454.1192162,802.6013375150405,807.2198844295772,804.3326443483577,781.884731908217
1731014454.1231024,806.567441423351,807.7117965951477,802.8810344629404,781.8701180475432
1731014454.126989,811.0213784456257,807.4163931412089,802.1362633961857,782.9071640460415
1731014454.1286793,815.4692660313627,806.7755039269776,802.8982240052853,785.96173880053
1731014454.1306374,819.1348336249305,806.3503065608279,805.3637326901861,791.6500076619012
1731014454.130875,821.2002881657511,806.5976001324772,808.9019717409095,799.7748859081228
1731014454.1347616,821.1802654769388,807.6653412750799,812.2849199328907,809.093296997446
1731014454.135362,819.1959068336339,809.316298714831,814.2914392041083,817.585680531566
1731014454.138648,815.9601476066081,811.0497543579847,814.3366410571906,823.2266312829388
1731014454.1425345,812.4638290139319,812.3730216601426,812.7511824652078,824.8957434986685
1731014454.1442206,809.544247167153,813.0582088678628,810.56961319468,822.9065793908335
1731014454.1464207,807.5884296022525,813.2102253012079,808.9929280950226,818.8198959543696
1731014454.1503072,806.5236904895615,813.0998316656639,808.8422100390758,814.6302975448053
1731014454.1541607,806.0521382270302,812.8925235052347,810.2487968503734,811.7839706001835
1731014454.1541936,805.9350196299657,812.487077902733,812.6484775113639,810.558460602092
1731014454.15808,806.1289517754306,811.5917705044723,815.0203800805065,810.0902962972001
1731014454.159762,806.7095322317682,809.9772512932035,816.2796007875752,808.9586453376598
1731014454.1619663,807.6821292926991,807.7080480621464,815.7217986521845,805.9647257333211
1731014454.165615,808.8554315520275,805.1802074169311,813.3658724127373,800.7190167549581
1731014454.1658528,809.8935569915766,802.9507200086241,810.001326207293,793.8217662201067
1731014454.169739,810.5194139882984,801.4956223403443,806.836149678442,786.6489718159378
1731014454.1729596,810.7230045080483,801.0568099918645,804.8784259384919,780.8991182164057
1731014454.1736257,810.8176276912603,801.6339897808368,804.4129962195174,778.0750716277336
1731014454.1753032,811.2884604251283,803.0581111572956,804.933641753203,779.0271331713753
1731014454.177512,812.5179341798174,805.053801231276,805.5983470432269,783.6494554040436
1731014454.1813982,814.5552753179284,807.267089564457,805.8867891337952,790.8289529072368
1731014454.1852846,817.0724990323723,809.3109154934443,805.9708034502237,798.7388412777601
1731014454.1891708,819.5372894505322,810.8749185661595,806.5193928049893,805.4700247238534
1731014454.1908443,821.5047248496564,811.8599987227237,808.096004184362,809.7981771193864
1731014454.1917584,822.8567193982223,812.4246420341017,810.6183764673533,811.7095082541235
1731014454.1930573,823.8393202385262,812.8607141115049,813.2914078315707,812.3274630944793
1731014454.1969438,824.8580208151711,813.3477360307539,815.0511191851285,813.1754177417888
1731014454.2005932,826.1410439306867,813.759576081554,815.18089280886,815.1452961385121
1731014454.20083,827.4882387547541,813.6954553858621,813.6692820786994,817.8181485902296
1731014454.2047164,828.3071031125935,812.7550082377519,811.1113590304064,819.6413867453624
1731014454.206386,827.9732957846699,810.8818977086844,808.2974183466674,818.9270276698367
1731014454.208603,826.3190351093219,808.519462991973,805.8148303757109,815.0424420067824
1731014454.210557,823.9072071893734,806.4329668645593,803.9048620190329,808.9703143271222
1731014454.2124891,821.8277501146928,805.2846851451372,802.5786962019384,802.8147263558817
1731014454.2163756,821.05099778751,805.2306944167993,801.8124876815949,798.569357956783
1731014454.220262,821.7109768657551,805.8061319050838,801.6363615377333,796.9932133151918
1731014454.2219274,822.8202117505505,806.1813882162226,802.0715198836989,797.3454480926407
1731014454.2241485,822.6994466869985,805.6383994616981,803.014185571268,798.0832431488383
1731014454.2280347,819.9448325161281,803.9910338954917,804.199078673542,797.9357603932997
1731014454.2293558,814.3551797135003,801.7231538041644,805.2912692497963,796.5680880963603
1731014454.2319212,807.2023039202817,799.7863697567404,806.0410939526945,794.4612954481829
1731014454.235571,800.6160707256563,799.1708482539377,806.3890423926468,792.2799490219795
1731014454.2358074,796.4330716688182,800.4513865076527,806.4539929121082,790.3408347469285
1731014454.2374687,795.2285161703029,803.5035096608048,806.4281257921568,788.5969169042937
1731014454.239694,796.1443137194916,807.5115069785144,806.4600495772355,787.0383587928459
1731014454.2435803,797.60100629105,811.2814798008377,806.5976556820358,786.0504508058356
1731014454.2474666,798.3940891339155,813.7458445448426,806.8061018496343,786.3443748789969
1731014454.2481546,798.4313734273356,814.4368787185068,807.0248530713262,788.4838199286969
1731014454.251353,798.6329687490933,813.6825244359931,807.2152844125625,792.3967556431688
1731014454.25301,800.1000495730555,812.3928067278099,807.3738680748462,797.2826036359315
1731014454.2552395,803.1564298157592,811.531694814476,807.517631303389,802.0037249821077
1731014454.2591257,806.9409046147256,811.5755803514528,807.6636804928092,805.6666631938829
1731014454.2630122,809.8402628726682,812.290210871816,807.8187777759457,807.9651432316962
1731014454.2668986,810.4798901114756,812.9622345406359,807.9806913110497,809.0702796622205
1731014454.2669537,808.6224359935374,812.9182765927064,808.1442435919413,809.2312982681598
1731014454.268551,805.4000044354823,811.9698208820197,808.3056598801963,808.4825455535876
1731014454.2705488,802.7481015435491,810.4867260635184,808.4637337910157,806.7467272794743
1731014454.2707849,802.4054590761326,809.086428092708,808.6192686345704,804.25772602065
1731014454.2746713,805.067659414479,808.2120389569054,808.7739993242042,801.894922788721
1731014454.2785578,810.1218437101799,807.9217362387649,808.929317831279,801.0134066294885
1731014454.282444,816.0015481902615,807.9871994620943,809.0853124864482,802.7171725608363
1731014454.284093,820.8698294228068,808.1348717215839,809.2409221429616,806.9993520310144
1731014454.2857523,823.2591970449339,808.2119316318589,809.3951482875298,812.3855295240545
1731014454.2863305,822.4478088388315,808.2019037850122,809.5480573981098,816.457283124267
1731014454.2902167,818.556469322275,808.1536236378506,809.7004807215047,817.052395734172
1731014454.2941031,812.4501383380019,808.1123178836892,809.8528753475632,813.4482670343888
1731014454.2979896,805.5040598283574,808.0930231434143,810.0047914954207,806.8021284869434
1731014454.299634,799.2521364585705,808.0882803266709,810.1555267433403,799.580356820355
1731014454.301876,794.967052525004,808.0855811365633,810.305015766645,794.3351162691029
1731014454.3045511,793.3080241032143,808.078049013153,810.4538208674292,792.5492049766447
1731014454.3055267,794.2045446341592,808.0655200358674,810.6023818710704,794.1547235351231
1731014454.3057623,797.0457438999188,808.0508161863816,810.7506058619225,797.8710322387078
1731014454.3096488,801.0603379413043,808.0362788314848,810.8982101051306,802.0408436977046
1731014454.3135352,805.6427214357027,808.0225794207784,811.0450471825612,805.4466234068052
1731014454.3151753,810.4223077191995,808.0092518980745,811.1907491347889,807.7108472623584
1731014454.3174214,815.0707538198806,807.9956324143491,811.3343666484058,809.1776055180641
1731014454.321308,819.0519654419512,807.9813869256534,811.4752451589454,810.450530410826
1731014454.32335,821.5795025698352,807.9665319874689,811.6148925195237,811.9040734470144
1731014454.3251944,821.8986259091307,807.9512247172036,811.7574909101082,813.4563161633554
1731014454.3290806,819.753385660953,807.9355847773099,811.9068201106456,814.7107159972603
1731014454.3307166,815.7185204767054,807.9196413550327,812.0606614502877,815.3198557622521
1731014454.332967,811.1135577574623,807.9033670041028,812.2077784208352,815.2609057704653
1731014454.3368535,807.4664610815648,807.8867276836535,812.3331780027247,814.8095123289729
1731014454.3405046,805.7982592355346,807.8697084926625,812.4321658748662,814.2954165140997
1731014454.3407395,806.1493675285898,807.852312861583,812.5246210007057,813.898310236449
1731014454.3421488,807.6457600295727,807.8345508119706,812.6542727426854,813.6245342050379
1731014454.3446262,809.0724824904529,807.8164298394138,812.8614828732967,813.4011774960696
1731014454.346258,809.5970045228901,807.7979526622123,813.135500965737,813.1665602239826
1731014454.3485126,809.1896283406597,807.7791194383029,813.3755282519163,812.9022752726739
1731014454.3523989,808.4968915042091,807.7599306286332,813.3999794577917,812.6199762842172
1731014454.356285,808.2970886799895,807.7403883010021,813.0221612424745,812.3369328200826
1731014454.3601718,808.9421665823426,807.7204956006295,812.1617597539519,812.0620192793215
1731014454.3609476,810.1723028788713,807.7002552240554,810.9186429684431,811.7949391551846
1731014454.3617997,811.3989983812869,807.6796682183859,809.5419655432552,811.5316215904854
1731014454.364058,812.2107370325982,807.6587345517686,808.2959038793092,811.2688985767348
1731014454.3679445,812.7130888065888,807.6374562038316,807.3100066703124,811.0059503563567
1731014454.3718307,813.4620997710788,807.6158413194718,806.5318637370626,810.7434585436058
1731014454.3754826,815.0561841348873,807.5939048825936,805.8306227581178,810.4823031115099
1731014454.3757172,817.683019036278,807.5716605135457,805.1733860924647,810.2228774809663
1731014454.3773408,820.9195310009811,807.5491036638277,804.7177369517625,809.9650972367897
1731014454.3796036,823.8849554134218,807.5261992410096,804.714372170471,809.7087015360016
1731014454.3797464,825.6171494346065,807.5028974926489,805.270989690452,809.4534920016057
1731014454.38349,825.4432743283382,807.4791925218492,806.1676806518446,809.1993954977254
1731014454.3873763,823.1855486898157,807.4551949630387,806.9076465351884,808.9464120054658
1731014454.3912628,819.1870148336619,807.4311321298427,807.0189915308832,808.6945456903252
1731014454.392882,814.2307416442032,807.4071797487398,806.4159307905347,808.4437717876036
1731014454.3951492,809.4037921820166,807.3831481166301,805.5492315012062,808.1940395125765
1731014454.3985453,805.8831161172873,807.3582908266651,805.2015452735747,807.9452886024216
1731014454.3990357,804.6043134231393,807.3316921701395,806.0292134859606,807.6974614774183
1731014454.402922,805.8714704099722,807.3034852656159,808.1372409631955,807.4505061975688
1731014454.4068084,809.1142976921158,807.276378505352,810.9619480848111,807.2043739304119
1731014454.4084234,813.0443937580445,807.2561306738955,813.5370333614261,806.9590156076407
1731014454.4104605,816.2633993486028,807.2498307800673,814.976625500906,806.7143795473156
1731014454.4106946,817.9813908688565,807.2624145447572,814.8870860399835,806.4704096284286
1731014454.4145813,818.3034503800989,807.293519375246,813.4861976639484,806.2270441450311
1731014454.417344,817.894478819386,807.337076401168,811.4017136194931,805.9842175229163
1731014454.4184673,817.4022979619738,807.3843864320222,809.3064245334516,805.7418673186951
1731014454.4223535,817.1267770449722,807.4286444041336,807.613439479517,805.4999444267615
1731014454.4239647,817.0516992721798,807.467553005685,806.3818224054645,805.2584163393277
1731014454.4262402,817.0418745746182,807.5025349154463,805.4351609125068,805.0172494091668
1731014454.4301264,816.9976227128058,807.5361031402349,804.573620320489,804.7763678157463
1731014454.434013,816.8974971688086,807.5698919887268,803.731620584728,804.5356178703538
1731014454.4361427,816.7672814527947,807.6043089662198,802.9989877326663,804.2947966786667
1731014454.4378994,816.6369941393282,807.6390498517218,802.5260376218938,804.0537890017392
1731014454.439506,816.5197105391168,807.673538855907,802.4017141966706,803.8127570658215
1731014454.4417856,816.4130290981349,807.7071697299717,802.5914677628723,803.5721779159866
1731014454.445438,816.3093660340976,807.739605347017,802.9636908755867,803.3324724682732
1731014454.445672,816.2036158090151,807.7710257420086,803.3696219664988,803.0932259145037
1731014454.4495585,816.0948940242814,807.8019625756403,803.7152796996231,802.8525968736656
1731014454.4534447,815.9846480685989,807.8327705662972,803.9841553309122,802.608043521694
1731014454.4549415,815.8743870720061,807.8632967796648,804.2113566846451,802.3591163005857
1731014454.4550474,815.7646666772063,807.8931290434798,804.4399861872939,802.1111776278432
1731014454.4573312,815.6552478269591,807.9221063634443,804.691764843004,801.8764208302325
1731014454.4612176,815.5456615143315,807.9504695756606,804.9637938943032,801.6688157793765
1731014454.465104,815.4355954887767,807.9785137598827,805.2421863645628,801.4952329951852
1731014454.4689903,815.3249621584805,808.006225666407,805.5161203561677,801.350640205653
1731014454.4705887,815.2137850466773,808.0333536484035,805.7828448869349,801.2218055450528
1731014454.4728768,815.102076002405,808.0597673153507,806.044897437034,801.0950776924831
1731014454.4737403,814.9897856769039,808.0856192848504,806.3056791505993,800.9618813085252
1731014454.476763,814.8768225384388,808.1111297803903,806.5673001381213,800.8202920870441
1731014454.480416,814.7630997071943,808.1363116574037,806.830466199005,800.6735338038789
1731014454.4806497,814.6485694808159,808.1609895023641,807.0947815612265,800.52610125773
1731014454.484536,814.5332165430092,808.1850529483523,807.3590534000798,800.3795760548418
1731014454.48613,814.4169989790471,808.2085978560513,807.622079931419,800.2314785318192
1731014454.4884222,814.2997649198636,808.2317933152079,807.8836731724881,800.0781918370644
1731014454.4923086,814.1812281441929,808.2546759445555,808.1448297294385,799.9188672078681
1731014454.4925392,814.0611070331084,808.2771369138529,808.4066621196127,799.7563344837607
1731014454.4961953,813.939436490597,808.2990905228512,808.6692149174186,799.5945111031922
1731014454.5000813,813.8168287596629,808.3205882327645,808.9315413109894,799.4351489181787
1731014454.5016713,813.6942383411254,808.3417450431507,809.1929149110512,799.2762077831003
1731014454.5039678,813.5719167209444,808.3626010342704,809.4536727688171,799.1117664177103
1731014454.5078542,813.4480022456518,808.3831024858152,809.7147202963743,798.9335570502956
1731014454.511338,813.3183108741093,808.4032032532963,809.9764712343208,798.7362679905144
1731014454.5117404,813.179224963784,808.4229334508728,810.2386286938162,798.5268267377647
1731014454.515394,813.0335914407502,808.4423558970858,810.5009037980685,798.3299855077784
1731014454.515627,812.8950513856732,808.4614946168871,810.7633616034026,798.177357918846
1731014454.5172129,812.7824390118557,808.480334707019,811.0256720311921,798.076647756871
1731014454.5195134,812.6992574614254,808.4988676854441,811.2865060212702,797.9809926360774
1731014454.5233996,812.6083894563644,808.5171027252475,811.5448406997212,797.7942913402499
1731014454.527286,812.4328482357174,808.5350511722036,811.8026424690564,797.4333172206424
1731014454.5301368,812.117138987036,808.5527472247487,812.0655727179819,796.9222722579901
1731014454.5311725,811.7438728390907,808.570277779076,812.3387898049959,796.4547391736761
1731014454.5327542,811.6199920055175,808.5877158874945,812.6195371171411,796.3633517603264
1731014454.5350587,812.1995124498677,808.6049711228325,812.8933740382453,796.9952135237819
1731014454.5389452,813.8017652257222,808.6217644304096,813.141185261864,798.5569621565048
1731014454.5428317,816.2897249567493,808.637893221511,813.356965991784,801.0088473950793
1731014454.546718,818.9771245885647,808.6536231851484,813.5651498621323,804.0391329970585
1731014454.5482955,820.8948479751507,808.6697678452113,813.819316542113,807.0922821691199
1731014454.5489357,821.290371803821,808.6871421820297,814.1702228979619,809.4257814248623
1731014454.550372,820.0638427363663,808.705580539673,814.611939898203,810.2322231877814
1731014454.5506043,817.860201998448,808.723269108011,815.0394995443816,808.8951658104559
1731014454.5544908,815.7335628307789,808.737375299186,815.2594729952262,805.3534086313854
1731014454.558377,814.571233618849,808.7464527214839,815.0712267637451,800.3586463970589
1731014454.5622635,814.629787310397,808.7535805756684,814.3886064431167,795.3201264608824
1731014454.5638368,815.466846838698,808.7672241480539,813.3315071988927,791.6530042874922
1731014454.56615,816.2883643602057,808.7964013306042,812.2195298802316,790.0222096724333
1731014454.5677345,816.4595532354995,808.8402845210659,811.4532151797221,790.0964556248797
1731014454.5700362,815.8430858036967,808.8794398475536,811.3392901082605,790.9911832397578
1731014454.5739226,814.7803295874957,808.8808962551666,811.9533521119436,791.9322829837375
1731014454.577809,813.7905224470048,808.8239090455372,813.1074636413864,792.5950705882501
1731014454.579378,813.2321758724892,808.7350424394139,814.420818800002,793.0243198029673
1731014454.5816953,813.1450739591651,808.7008439896928,815.4335859661317,793.3869684178002
1731014454.5853498,813.3239923272561,808.8253665063679,815.7023859583361,793.795321235944
1731014454.5855818,813.5131330794353,809.1330886707613,814.8666554072289,794.2670897645538
1731014454.5865333,813.5644755945256,809.4731254779537,812.7252819272595,794.76793761655
1731014454.5894682,813.4749030519141,809.5153433633611,809.3549470425653,795.2624895390993
1731014454.5933545,813.3231807600094,808.8977279507812,805.2296571268369,795.7369711587951
1731014454.5949194,813.184817038314,807.483408306302,801.2274992081893,796.1954649916996
1731014454.5972407,813.0873292108225,805.5754662930536,798.420505630202,796.6471511954825
1731014454.6011274,813.0165292082162,803.9108335662473,797.6651175373837,797.097641112107
1731014454.6050136,812.946058597412,803.3625534518137,799.1737078908046,797.5474835917163
1731014454.605332,812.8595752198765,804.4740682469073,802.3237873868203,797.9946871981172
1731014454.6089,812.754969492449,807.0978224018818,805.8665463838701,798.4373924561675
1731014454.6104608,812.637835966644,810.389882516829,808.4692214608019,798.8749388215534
1731014454.6127863,812.5145703795615,813.2094341571212,809.313441349336,799.3075748899989
1731014454.6166728,812.3890694545727,814.710255284771,808.4242314596635,799.7357663999569
1731014454.6203277,812.2618919576353,814.7708024685544,806.561288655605,800.159763748628
1731014454.6205592,812.1307418699041,813.9974344071014,804.76278478861,800.5795515610047
1731014454.624131,811.9924343229426,813.3025463192905,803.8216958609646,800.9949944979592
1731014454.6244457,811.8455643101582,813.3295555881922,803.9789153654833,801.4059766344238
1731014454.626002,811.6915373888922,814.0876992496159,804.951509743347,801.8124504206866
1731014454.628332,811.5327417549872,815.0116894944271,806.204931868134,802.2144143812051
1731014454.6322184,811.3698257178604,815.378543873846,807.2643215242141,802.6118720623099
1731014454.6361046,811.2012133131141,814.7895517279202,807.8958057384626,803.0048089374322
1731014454.639991,811.0253051864897,813.4050647608441,808.1156684127789,803.3931969413479
1731014454.6415434,810.8425185076765,811.8034278737489,808.093967350841,803.777017469554
1731014454.6429298,810.6546312291704,810.5863102875884,808.0413330610487,804.1562828527057
1731014454.6438775,810.4624007953583,810.0021997087839,808.121606269209,804.5310310407087
1731014454.6477635,810.2645832553025,809.8233691174936,808.3885390580318,804.9012768664671
1731014454.6516502,810.0595676760273,809.5338700260329,808.7474133112345,805.2669387219057
1731014454.6553056,809.8474616255188,808.6933347888755,808.9711348850914,805.6278143203222
1731014454.655537,809.6300023368284,807.2495947523503,808.7985637439241,805.9837032624897
1731014454.6570847,809.4085483640029,805.6206397858045,808.0872234954527,806.3346909916703
1731014454.6594229,809.1827223862539,804.5071665548581,806.9270177858106,806.6813949778228
1731014454.6617286,808.9511098152152,804.5429088179964,805.6185624808437,807.0247656038129
1731014454.663309,808.7126407160196,805.9659307692514,804.5047447622752,807.3651409642221
1731014454.6671958,808.4668239030883,808.4724888374825,803.7594359664236,807.7009397392401
1731014454.671082,808.2133556301304,811.3189698563687,803.2852747273404,808.0284108044481
1731014454.6726265,807.9530580695831,813.6192655538988,802.8026310991577,808.3442010015699
1731014454.6749685,807.6898399245622,814.6983061804069,802.0714824046913,808.6507335865216
1731014454.6788547,807.4300032835794,814.3415215945887,801.0865918023509,808.9602670817279
1731014454.6805272,807.1761420226485,812.8312986598654,800.1043866463993,809.2898603313362
1731014454.6827412,806.9192352303545,810.7636590656832,799.4818086154895,809.6421201034655
1731014454.6866276,806.638254604928,808.7465260646043,799.4384709496667,809.979690199518
1731014454.6881676,806.313902924442,807.1405727224064,799.9005170217793,810.2186711740923
1731014454.6902833,805.9512570700404,805.9771511819906,800.5260752457577,810.2645927638832
1731014454.690514,805.5939049828493,805.082668979837,800.9005698096666,810.0753789823124
1731014454.6944003,805.3108460949347,804.3134127974613,800.7975635659384,809.6941061379267
1731014454.6982868,805.1504278579529,803.73753393355,800.3677513345502,809.2166458185495
1731014454.699326,805.0753587638391,803.6374745473307,800.1467303599717,808.7283543974861
1731014454.7021732,804.9076550913189,804.3248245851145,800.8468339395522,808.2676038573276
