timestamps,eeg_1,eeg_2,eeg_3,eeg_4
1731139312.3654351,856.9901045732354,795.3738352130814,856.209220799684,825.8076981231229
1731139312.3843331,877.3258949724424,794.9861120102181,871.3001634240487,834.4306615547351
1731139312.4032311,859.4099803668323,796.1130230035336,859.6139493167867,827.092514696023
1731139312.4083664,793.4704001484109,799.484647039757,813.0797436383835,798.8675946662186
1731139312.412267,707.2463380378233,804.5972813807998,748.9398606082144,759.4738250307677
1731139312.4161673,647.7757334801707,809.7793868758316,698.998579438545,726.5612845867178
1731139312.4200678,646.8906560423768,812.7520711069425,687.5276882420053,712.9082097437721
1731139312.4214156,695.7132152595996,811.5192935061064,713.1530982565409,717.0110207514019
1731139312.4221292,749.8751481373864,805.3158643148944,749.1315387004698,724.9080212304111
1731139312.423968,764.0919790565594,795.2305211834675,763.3757723072997,722.3322490616785
1731139312.4278686,729.0548058109091,784.0840288901579,743.3919225222066,707.177321283161
1731139312.431769,678.8496648165111,775.3788030264296,705.876709397545,691.2802355743961
1731139312.4356694,660.8943997595715,771.6903736570594,682.3624590299847,689.5757194780987
1731139312.4370005,693.721512129992,773.3742940822189,692.3888489482175,706.1217647536737
1731139312.4395697,750.1827634626842,778.4073599494155,726.9759678991668,729.6873108827202
1731139312.4410272,781.7295751862412,783.5120368355347,756.9974318857292,743.1598990852299
1731139312.4434702,762.2711501700119,785.9320561822273,759.5278260320551,738.5314399266036
1731139312.4473703,711.8735006246575,784.8709996349891,738.7716435419842,724.1079837358238
1731139312.4512713,678.4582790356283,781.8085551904718,721.9588179122427,717.4828478218902
1731139312.4525847,693.8422248561118,779.5089506020632,732.866644115679,730.4354682738776
1731139312.455171,744.3186125918285,780.2841958269591,767.3066401977951,759.0033452993695
1731139312.459072,783.2931011065397,784.5867192395754,794.9982775152401,787.2974500646523
1731139312.4599252,774.9164450760255,790.8337436283202,788.1166957595912,801.3792952425309
1731139312.4629722,728.2568217699168,796.4877887134835,749.882999935523,800.6014333760892
1731139312.4668727,689.3722402563789,799.5280487219862,714.007900319751,796.3159161932614
1731139312.4681697,697.8211569012772,799.3464257386712,712.9362841466702,799.664591157955
1731139312.470773,748.393476754701,796.7641467419837,744.6836929704575,810.4125681760942
1731139312.4746735,794.8328655101993,793.4861651615499,772.0537443508468,817.6447451194044
1731139312.4785738,792.7366499984802,791.3649324948109,757.7003888437084,811.498786431356
1731139312.4788232,741.356824216767,791.6524018348375,702.5561709997247,794.2372638874842
1731139312.4824743,684.9338221756144,794.4547404109079,649.777641296621,779.5500480645852
1731139312.483754,672.4396673525063,798.7252330401427,648.2096357298813,780.3820295972627
1731139312.4863746,713.3474927475455,802.9087705498094,708.1288457142409,796.6456923727573
1731139312.4902751,770.0354684766755,805.854872180401,790.267471097357,814.443507478265
1731139312.4941754,792.980508757557,807.3748546443123,838.6838513580417,817.9101428769391
1731139312.4977212,765.6807628375184,808.1055775908798,827.5965735423031,803.2800028643792
1731139312.498076,718.1251785950474,808.8624564897556,779.907333390525,782.6048910604651
1731139312.4993386,697.2944067721004,809.9623458350136,742.2046520356103,773.5877490969037
1731139312.5019765,722.8614137950578,810.9258245140757,741.4793430493767,784.3234494555954
1731139312.5058768,769.3906831800334,810.7033993670162,764.1766229930943,806.4201089379449
1731139312.5097773,791.0930144713261,808.3109960539115,774.8910868706765,822.6393974833887
1731139312.5136776,765.4036056607301,803.5557236096909,753.7136197481926,822.2090502834724
1731139312.514923,714.4761877043757,797.4042120985582,715.0938574178336,810.0524872813781
1731139312.5166192,684.7337910169372,791.6447816598952,691.2946949724769,801.7201394717898
1731139312.517578,703.7132775321408,787.9407873134184,698.773987698874,808.75978409573
1731139312.5214784,754.2444560620978,786.9126669863745,721.6173469263459,827.8384792930581
1731139312.5253787,789.7647201303773,787.970820052746,728.2801284048787,843.4329158860206
1731139312.5292792,776.5978063241662,790.0227591902358,704.7552346773937,841.5800172745552
1731139312.5305078,724.3493744844918,792.3996536455903,671.0855005278496,822.1839199222977
1731139312.5331795,677.0775823520271,795.1660632276828,664.2361589942769,798.8083534869605
1731139312.5355172,674.755312321041,798.5845587482129,702.9734277099612,786.462416085016
1731139312.53708,721.4318109152388,802.3039263579656,768.0442672468608,788.876934371088
1731139312.5409803,787.3935038385937,805.0912220676594,816.7940130075093,796.882123123866
1731139312.5448809,837.9214850547093,805.4583060362797,819.220297628553,798.719025211867
1731139312.5460925,858.3382068639007,802.7667049694637,782.8861911167537,791.8302266333915
1731139312.5487812,856.0521187671858,797.9324429950707,744.8830260264169,784.7004715574852
1731139312.5526817,846.4854859727104,793.0699911956311,739.0776898611405,787.4156253681513
1731139312.5544152,840.1764240566853,790.216035271772,768.1109956843317,800.7569775468097
1731139312.556582,839.4042431749906,790.0621240297241,803.7127542344724,814.919134852934
1731139312.5604825,841.612417871373,791.6901330366785,813.0157466851497,819.2109499520054
1731139312.5616772,843.8081938747225,793.4980800929085,786.6503739119182,813.0269080916582
1731139312.5643828,844.6959053272042,794.5051593757187,744.8230030657988,806.8812357612175
1731139312.568283,844.5236821287095,794.9499148566133,718.08200815847,811.9561749852932
1731139312.5721836,844.0497509404895,795.7941489091833,721.1964154375352,828.1043250082441
1731139312.5733132,843.7783672911307,797.7393324627491,743.1143199599339,842.2847731100818
1731139312.576084,843.7897591618635,800.7027954373156,760.5315157666294,839.7346840646496
1731139312.5772617,843.931875954005,804.1003385702081,761.3908022713198,817.8816982574411
1731139312.5799844,844.0479114474989,807.4132944337194,756.23482075447,789.8984605531891
1731139312.583885,844.0770600991118,810.3295754453861,766.8610203264788,774.078373934552
1731139312.5877852,844.0378355174522,812.4216810404135,802.8402867658448,778.3179399805363
1731139312.5916858,843.9713405361852,813.0242328053947,848.2490729525653,793.6694500494447
1731139312.5922112,843.9027832404086,811.7924089423478,872.4761921114888,802.7974152093645
1731139312.5928464,843.83489633192,809.5007426273377,857.2513281424464,795.781074445538
1731139312.595586,843.7591796932327,808.0738294745269,816.3098625210087,779.2371130743512
1731139312.5994866,843.6677423049177,809.4038140519815,788.7606421603433,770.7343763953281
1731139312.6033869,843.5579368979729,813.7220157111879,809.02316049509,783.3234183334624
1731139312.6072874,843.4309632269667,818.9162787153931,876.8621009552505,813.4902614405898
1731139312.6074152,843.2888336865266,821.5573283833481,952.8158940939386,842.9168020551975
1731139312.6084309,843.1327720235006,819.0677434635494,985.066973031503,852.8331402126412
1731139312.6111093,842.9634888137698,811.56489533853,948.6374942054506,839.2614718038928
1731139312.6111877,842.7820179205252,802.0869046135325,866.5230571077938,816.5840876879913
1731139312.6150882,842.5895279305647,794.9632968820011,794.5111673294125,806.2256933266478
1731139312.6189885,842.3855893086077,793.3023678120393,779.3578327161325,819.4288733023219
1731139312.622889,842.1663023483864,797.175554200592,822.8611992220256,848.3066778402858
1731139312.6240156,841.925331331958,803.6606885355492,881.9767070806034,872.8176577288692
1731139312.626789,841.6602042850598,808.6920102304774,906.0562491704727,877.896264826271
1731139312.6300073,841.3814926299495,809.4901156005187,879.9095886628801,866.1244210128516
1731139312.63069,841.1151718820082,806.032797435176,835.3341353216329,855.1085460131476
1731139312.63459,840.8856367047854,800.741117399617,821.181207484627,861.9520743566786
1731139312.638491,840.6784338363124,796.7394285579778,858.7232954363948,888.1657766456633
1731139312.6396005,840.4100326236138,795.9080096022911,921.8112449316702,917.6483894636057
1731139312.6421692,839.9579390268399,797.9799127909363,958.998434833356,929.1832489112439
1731139312.642391,839.2874270251995,801.1544596302148,937.9621905974607,913.1206137088082
1731139312.6462915,838.6188270095695,803.5897592626532,873.5020658336286,879.0071128783453
1731139312.6489053,838.4460192514156,804.53138574937,814.8913980440142,848.4434096941318
1731139312.650192,839.1819971095125,804.3430511054769,803.4418102404404,838.9404204728736
1731139312.6540923,840.45244680222,803.791420371151,836.9691487026905,851.2052562841694
1731139312.6551847,840.5985994327439,803.4018535997712,872.3304399926857,869.3825664090467
1731139312.6579928,837.3935185794534,803.288714067198,864.4346695598716,873.7170664805586
1731139312.6618931,830.5520835309227,803.3250781301039,807.970284424373,855.6127520092224
1731139312.6657937,824.8018030361375,803.3618424430574,744.9826035310665,823.4741047937288
1731139312.6678033,829.906631404648,803.334263970133,730.8534836042534,795.224298514698
1731139312.669694,853.9124819000306,803.2545558944942,787.4272669987953,783.9288112272588
1731139312.6707697,891.5038744154957,803.1604621197064,882.9999031987147,788.0531160029844
1731139312.6735945,919.0121219920215,803.0771493045529,955.6635681106605,793.7233354649659
1731139312.6769233,908.3436373332254,803.0086688710538,960.3235002426034,786.6692316293888
1731139312.6774948,853.6181735850632,802.9474750046045,901.4686356931697,764.1085097084177
1731139312.6813953,784.2322178820143,802.8857600624242,827.0284142388986,737.2223705125576
1731139312.6852956,745.9547054266325,802.8204895460285,790.3482654160294,722.4436666420854
1731139312.686354,763.4889987810128,802.7525832488574,811.1734821255795,728.5735947084953
1731139312.6867013,818.3204097360557,802.684091984861,864.9137582969495,749.9958567519534
1731139312.689196,863.1955585815149,802.616277020591,905.8706994473675,771.4287729246095
1731139312.6930964,862.0215439786878,802.5492779944393,904.1380004119949,780.4152352086818
1731139312.6969967,821.0253005326977,802.4826716009571,867.0702835618038,777.3471115041514
1731139312.7008972,783.7514545680142,802.4160639764381,830.0140902077737,774.6022138541252
1731139312.7019386,793.2958820255903,802.3493261101784,825.7214828134366,785.3073454209043
1731139312.7047975,853.5731414709812,802.2825264646084,857.8604912385216,811.1344629867034
1731139312.7055993,922.8519176930611,802.2157743826401,899.1551304713053,839.7026442228804
1731139312.708698,946.0967852579457,802.1491260743992,914.141776770138,854.2610451833053
1731139312.7116773,900.3765366541938,802.0825847331408,887.6324417793161,847.8837848829795
1731139312.7125986,816.1115984662395,802.0161497707167,836.8552629479332,830.229044443939
1731139312.7164989,755.4386063228467,801.9498530123557,798.5102956959213,820.6625312341698
1731139312.717523,763.3585238755722,801.8837400090941,800.8035034261444,832.7483466699574
1731139312.7203994,830.6760169360906,801.8177973948001,841.5931257203616,862.6562303683392
1731139312.7242997,900.1173505103069,801.7518857368954,889.4951652246102,891.392015002552
1731139312.7244973,912.4350630335387,801.685783238324,907.7525680721592,899.6047503387736
1731139312.7282002,855.3837316435552,801.6194132547816,882.9322899340972,883.1565607717693
1731139312.7321005,774.7091472474785,801.5531600381423,835.9654178232295,856.749720473299
1731139312.7331078,737.4494464763478,801.4879282986782,806.3162372310799,842.6824954796417
1731139312.736001,777.707565958794,801.4245219396729,821.2871746261808,853.9551268065393
1731139312.7399013,869.2934865633366,801.3623444470666,874.452589020589,885.163312774822
1731139312.743395,946.7000550427167,801.2984116019759,929.9927993333405,917.6819155052762
1731139312.7438018,956.3610781939449,801.228526086873,949.1486782649904,933.9135051678174
1731139312.7464314,896.9907909146397,801.1517740522273,917.7836486947178,928.8116950878822
1731139312.747702,818.1312260544164,801.0762143014264,853.9116390569337,910.4914589855788
1731139312.7486925,779.6173166261876,801.0190748666726,791.1628784310902,891.6139407000052
1731139312.7516026,804.7735415994101,800.993894874969,754.0976106892876,880.1874277115016
1731139312.7555027,864.1922873630625,800.9860158720619,745.8592427534354,876.6618365424483
1731139312.7594037,902.1817971918903,800.9366874831278,754.1860880437723,877.0855136493781
1731139312.762293,883.6119159913038,800.7706017623095,765.1033162584641,877.5817969174108
1731139312.7633038,822.4458180420783,800.4853057743258,771.5227183889332,876.5374246661299
1731139312.7642772,768.7098872793763,800.2572629070529,773.3847059097624,874.2579433323308
1731139312.7672043,765.5497873108311,800.4406669748266,773.5709770207594,871.6625990084138
1731139312.7711046,812.8737971762257,801.3436903362533,774.3889705118205,869.3535418715232
1731139312.775005,867.8511104367992,802.8595508928418,776.4453247875235,867.4183082450147
1731139312.7789054,881.1071042879128,804.2945453580064,779.2327327265642,865.6679072137501
1731139312.7798617,837.9947870437335,804.712438426309,782.080927989537,863.9124039546892
1731139312.7811854,771.0037536082564,803.6461324430024,784.6681430269293,862.0801106276841
1731139312.781191,733.4714118518401,801.5567858735313,787.0234753724957,860.1949789797729
1731139312.782806,755.9227471785237,799.5481112930919,789.3087612996196,858.3071370562385
1731139312.7867062,820.3465010823138,798.5385089919199,791.6419059187417,856.4466781548658
1731139312.7906067,873.9465975676393,798.6446309155459,794.0484022640753,854.6163147733533
1731139312.794507,872.3070253142256,799.3006094475065,796.4982374157662,852.8053265703358
1731139312.7954464,816.9107409306779,799.8630868653961,798.9564391476886,851.0039454751311
1731139312.7984076,755.0747694974001,800.0557909369586,801.4078984642808,849.2089402273072
1731139312.8000894,741.0912645174534,799.9653297305373,803.8556157406987,847.4219287007878
1731139312.8023078,790.5138153393019,799.7975590085116,806.3086094692317,845.6456189667178
1731139312.8062084,866.0797151214238,799.6866163501302,808.772939875564,843.8815089958505
1731139312.810109,907.3778885316801,799.653835987058,811.2497093135232,842.1296510176428
1731139312.8110309,879.7176658056246,799.6593323494516,813.7373582360143,840.3894508213672
1731139312.8140092,802.0954745202125,799.6620208536331,816.2343936787033,838.6604120691504
1731139312.8159397,732.105590017758,799.6460344101928,818.7405274729629,836.9423905609469
1731139312.8179097,720.8598521287223,799.6162785845042,821.2562378101196,835.2354774508136
1731139312.8189874,774.2357604002586,799.5835278500313,823.7817523051377,833.5397962252988
1731139312.82181,850.5414423803965,799.5543480461586,826.3165137368901,831.8553936204647
1731139312.8257103,895.3228420899667,799.5293930709439,828.8597732980231,830.1822462525923
1731139312.8266156,884.8008597296962,799.5063662955203,831.4121725237748,828.5203166794396
1731139312.8296108,842.8870451728101,799.4831369290611,833.9770360870431,826.8695862199348
1731139312.833511,818.363392612202,799.458975894057,836.559211240223,825.2300306914644
1731139312.8374116,841.7692958174164,799.4342112524683,839.1600904552998,823.6015590465139
1731139312.8378854,898.5408114144232,799.4094196378824,841.7711114240396,821.9839843920837
1731139312.841312,941.1155787485071,799.3849234761574,844.3731739079474,820.3771103066849
1731139312.8422005,929.6317764941354,799.3607337867232,846.9506260076275,818.7809455592673
1731139312.8452125,866.8905678123975,799.3367202354809,849.5187749444077,817.1958948571382
1731139312.8491127,798.3961355904588,799.3127726223879,852.1428573123276,815.6226142651406
1731139312.8506937,777.2894781011987,799.2888578366626,854.9095680400798,814.06129942332
1731139312.8530133,822.3775776895615,799.2649963744709,857.8296114070824,812.5106921356671
1731139312.8567834,902.7276923400676,799.241218993832,860.7214294500491,810.9678773548487
1731139312.8569136,961.2139079417184,799.217541809022,863.2201315611007,809.4302140313648
1731139312.8577847,958.8270247044081,799.1939645912194,865.0646310321958,807.8994229059103
1731139312.860814,904.9066240629686,799.1704798339748,866.6143382119214,806.3847496526536
1731139312.8647144,848.8574285612908,799.1470809345063,869.147916211796,804.8993785301476
1731139312.868615,839.3705050290848,799.1237658089798,874.217946082288,803.4463567455115
1731139312.8725152,884.0602054679468,799.1005376707176,881.7387836724118,802.0005768798464
1731139312.8733697,942.9528832774358,799.0774045477983,887.8807602409046,800.5077799559405
1731139312.8756814,961.6057896383203,799.0543761790069,885.4948732863913,798.9246054688429
1731139312.8764155,916.5936265272014,799.0314562331567,869.5608181401399,797.2959137689824
1731139312.880316,835.7698329502826,799.008632644886,845.6437292026653,795.8064074309505
1731139312.8842163,776.6801496595732,798.9858770876832,832.3287221804095,794.6973754833051
1731139312.8854475,780.8789980083332,798.9631670442752,849.0499309552168,793.9905428431529
1731139312.8881173,841.2174994884837,798.9405290605378,895.620653590697,793.1641912165368
1731139312.888954,908.164596276988,798.9180687217615,944.486007732982,791.1878576715058
1731139312.8920174,929.5326785725711,798.8959261217967,958.7945024226506,787.3371403037555
1731139312.8945794,891.3438264793973,798.8741225581434,923.4488903382261,782.6276052218426
1731139312.895918,827.0170420648737,798.8523769051674,860.8863173753721,780.5696247149992
1731139312.8998182,787.9095293511607,798.8301183579424,815.2041986624391,785.3746184767771
1731139312.9037187,799.9718139853746,798.8069375360026,816.3730143685618,797.6751870272144
1731139312.9045386,842.8853607545489,798.7834016744894,855.1270017996632,811.6947562831143
1731139312.907619,869.1142012891863,798.7615317194314,891.2067708740623,818.4454017720741
1731139312.9115195,846.2407929067593,798.7437988582031,888.8379760038698,813.7884418135444
1731139312.9134774,786.0984650974522,798.7301338979714,848.7990859335254,803.8403173848503
1731139312.9154198,735.8172540540635,798.7146569199615,808.4925866822471,801.3761577810063
1731139312.9193203,738.4765088662621,798.6864979551359,809.0580224987697,815.1276466276431
1731139312.920123,796.3935502412958,798.6389048069337,857.7342544069741,840.9787546662415
1731139312.9202018,867.4838486642396,798.5842751114839,918.6727855189177,863.248553293066
1731139312.9232206,897.8958861901139,798.5607621325887,941.4369787171368,866.1175928959145
1731139312.9271212,864.7508283283947,798.608574900183,903.7159663664,846.5650621611653
1731139312.9310217,794.4438068630313,798.7068430902526,831.4469641527404,818.1600960143704
1731139312.9323754,741.2591998581062,798.7001142404542,777.878256749745,801.7690724868611
1731139312.934922,743.2184038931535,798.2873987405524,778.430944425978,809.7803405079344
1731139312.9357078,791.2808563043909,797.1549927839292,820.1425210091897,836.2917102721574
1731139312.9388225,837.6509792969596,795.2466042558872,852.9504847009156,861.534723666164
1731139312.9427228,836.5665899769294,792.9734138053653,834.0481523484149,867.4331928581621
1731139312.946623,783.5072944829897,791.070531054525,767.2728245939356,851.8737578981198
1731139312.9505236,719.9064250994477,790.0610043306032,703.0484129081203,830.0698198863819
1731139312.9512734,699.3854366657118,789.7456948805578,698.0049497604365,821.9415697504413
1731139312.9512925,743.445859782177,789.263203874796,767.6985746120179,835.8636878691682
1731139312.954424,822.8172833109711,787.8087163312708,871.5597544636017,861.8999792481139
1731139312.9549558,879.5477255056537,785.46516589038,942.5298546515303,879.7819070715957
1731139312.9583244,872.3863593098281,783.4157017892982,937.7817055658636,875.1026472881105
1731139312.9622247,809.5042835481154,783.284311280904,870.3736826402682,850.8041382046797
1731139312.9661252,742.1601845956427,786.071865192712,797.0823702735581,824.82686436872
1731139312.966877,723.693779760053,791.4648003729368,772.6739845129885,815.8092042216433
1731139312.9700255,766.5776886435119,797.9487144525378,807.7060182232448,828.34055099897
1731139312.9701717,832.722411655806,803.5491725884094,863.5495395006792,849.6545594881713
1731139312.973926,865.396705403043,806.7031729709136,887.1543017539844,860.3290017790862
1731139312.9778264,836.5912691764797,806.8620485162108,855.3647162254692,850.1971504935952
1731139312.981727,770.5996018069015,804.643637226529,792.0605033591441,826.6185845442137
1731139312.9824617,724.327235528653,801.4790642394992,745.8133482911313,808.6199141067411
1731139312.9856272,740.6428014246371,798.8521275141918,749.0373980351012,811.7471628459223
1731139312.9890697,812.8862732446045,797.5105014234323,793.1906305857477,835.6275997690088
1731139312.9895277,889.0744466494463,797.1957800640768,838.7262224980626,863.8597078874922
1731139312.98971,912.3292332290773,797.1482215785935,849.0259799026375,876.1832370984758
1731139312.993428,865.5473604094568,796.9881783804772,819.5597031551905,863.472341436186
1731139312.9973283,785.0725712571395,797.1732871485514,779.7164052713226,833.9927209527667
1731139312.9980464,732.2730184892987,798.5806031189709,767.6297039479069,806.1874229231414
1731139313.0012288,745.173085438778,801.605738653337,798.9863657055839,793.9317662904908
1731139313.005129,808.7353089787854,805.6523610962544,854.1953226923356,796.2992631490554
1731139313.0079677,867.9897552116969,809.4816268439486,893.2423004839002,800.1283990523748
1731139313.0090296,873.4723848277746,812.0417092401274,886.2875180843839,792.8629321028965
1731139313.0129302,821.7157971516984,813.0193017448436,836.5845230963811,774.3973798654455
1731139313.0136309,757.5733792907731,812.7722821941649,778.6807608822336,757.6379219211645
1731139313.0168304,736.8446422041021,811.9199855312638,753.6414702887079,757.3492995094509
1731139313.020731,780.2707013774852,810.9988479759701,779.7649386553825,776.9612538388155
1731139313.024464,856.4087506605096,810.3111958173386,839.8029933093858,804.6967048888558
1731139313.0246313,906.7684016382664,809.9120520172507,893.2308484468078,822.4853383735075
1731139313.0268655,892.5206694678346,809.6937671050276,904.4603811885205,820.4812779966138
1731139313.0285318,825.3049797537136,809.517433214773,867.1990642013233,805.3081910691398
1731139313.0292156,757.5699726705099,809.3039452075981,807.926870139299,795.0461599480592
1731139313.032432,740.0910800677071,809.0449234624531,765.8683280880456,804.6162005701914
1731139313.0363326,780.9471961910793,808.7661911542234,763.9217609039315,833.2753245458505
1731139313.040233,839.8116719975189,808.4916715295083,792.6794148160997,864.6763220222479
1731139313.0441334,862.7824997977848,808.2293713305152,820.5092032183376,879.8097722329908
1731139313.0448003,828.831289532461,807.9754032711625,821.8584953199622,872.2922095500146
1731139313.0457635,768.5679568892682,807.7231797904657,800.0289224356197,853.3250848314486
1731139313.0480337,739.1416834733806,807.4690625250234,784.2432096716195,842.294310541394
1731139313.0519342,776.0659136041633,807.2129510272126,802.4145926421038,850.9214234423058
1731139313.0558343,861.9630183607795,806.9563259913978,852.8049740192984,873.9309585517118
1731139313.059218,938.0529571074903,806.7004203478463,900.421130704959,893.5190400788061
1731139313.0597353,949.3403331470798,806.4455880863687,903.8351646571023,893.6907403262063
1731139313.0603848,887.5770497374526,806.1915824433112,851.2866321434839,872.9283031659756
1731139313.063635,798.0456081714259,805.9380509656831,774.6878416838035,845.2927310004985
1731139313.0646615,744.6799981831971,805.6848135907944,726.9410836830444,829.2623950110659
1731139313.067536,760.7329165780939,805.4318724127919,739.1696157136025,833.2095648582499
1731139313.0714362,823.935969065871,805.1792996002954,793.6200716831426,849.1043238659091
1731139313.0753367,876.1989285165292,804.9271451912141,837.045805979269,859.5881488534346
1731139313.0759697,872.1992824499868,804.6754161681405,825.5595216197769,852.7545623580027
1731139313.079237,817.1769049514268,804.4241036797484,763.6943823797317,832.459362665111
1731139313.0831375,762.5795488637842,804.1732103283626,703.3576879391799,815.4375031102969
1731139313.0835595,763.0003491981438,803.9227433426258,701.5737565250474,817.3963992054098
1731139313.0870378,829.9875315281733,803.6726737614281,771.3410752475495,839.5054655762951
1731139313.0909383,920.6548446162458,803.4229020990939,866.9266250865979,866.4806397960909
1731139313.091554,970.266198724118,803.1732948743047,917.2316534553556,878.0262668262061
1731139313.093972,942.6329863618013,802.9238263638974,881.4788466340716,864.6275946200951
1731139313.0948386,858.5331421861029,802.6747513149877,782.6262092285134,835.2081649398041
1731139313.0987391,779.9815206496759,802.4265951622683,690.9789669591797,810.5122345256415
1731139313.1024575,762.6185635968353,802.1797344605139,670.2947787478756,807.2160501783179
1731139313.1026394,813.4397865327579,801.9336358129148,729.4973058259288,825.1520309889346
1731139313.10654,887.2391856011728,801.6864079733796,818.9795657242255,847.7879537434227
1731139313.1071386,924.5022299183114,801.4357339014704,873.466673974944,855.639960231591
1731139313.1104405,899.7549098476554,801.181658020645,864.4629312307899,841.8134653277926
1731139313.1143408,840.6187417918788,800.929637425016,818.4873942331487,817.1209791085474
1731139313.1182413,802.4045311738506,800.68977140098,788.3700655707792,800.8928682056871
1731139313.1213555,820.5181986809316,800.4682594476735,805.3776876585808,805.3468161632659
1731139313.1221416,881.0274315756163,800.2531951937598,854.0299821431834,826.2690262530539
1731139313.122723,933.3745009117896,800.0078309396191,888.9030226014033,847.0698988879611
1731139313.126042,933.4444783761373,799.6910049115666,875.8627158265905,852.3191041276201
1731139313.128726,880.5405288202594,799.3110400236624,821.2398788548833,839.6809444421119
1731139313.1299424,817.8149223392197,798.979075297456,765.3465147246887,820.9791909844441
1731139313.1338427,796.2555376610159,798.8832801057567,748.0132190777408,811.9590290294027
1731139313.1377432,832.2571812356331,799.1156544566841,776.5226004815889,819.2187535802477
1731139313.1383078,894.0291034412951,799.4050923739521,822.4500163173287,834.9640852805717
1731139313.1402535,928.3330414959202,799.0125546428161,848.2725016656325,843.935483495783
1731139313.1416438,905.5020745614245,797.131624491981,839.6821735499105,836.8670880449828
1731139313.145544,845.0222629962619,793.8082553295045,816.1688360229388,819.1647612517093
1731139313.1494446,799.7225015567274,790.6442461704551,812.2657200122524,807.0947137858149
1731139313.1533449,811.2866667059793,790.2061883908324,846.7793884198074,814.1218435517609
1731139313.1538925,874.2469196043864,794.0658035299804,906.046429070872,838.6179449056767
1731139313.1572454,938.7818690548335,801.0196665910765,953.8809728795766,863.5006190435051
1731139313.1591516,950.3437743434082,807.29982428446,958.6161612160158,868.7370222498353
1731139313.1611457,893.8661146078175,808.9782901449634,915.2880717961898,847.0272863615194
1731139313.1634803,806.8042387462592,804.8611245739152,846.8299456409753,810.1301718226396
1731139313.1650462,750.4070779076993,797.6257139130345,785.6884876692724,780.519805361802
1731139313.1689465,761.8912930454575,792.1644881869368,752.1943081990121,774.675938797809
1731139313.169477,825.5882291601664,792.1949502280594,746.2268277840224,791.1323132930196
1731139313.172847,886.3609332551183,797.6271114104137,754.7947925720745,812.7612354468498
1731139313.176747,894.5792660548815,804.7215809035833,764.836280091248,821.2363632434677
1731139313.1780496,845.8481892811023,808.9243915531226,770.3392803251686,811.5818969119649
1731139313.180648,782.7397211899148,808.1318388498518,771.7224858111803,794.8040871519936
1731139313.184548,757.5704177218009,803.8463928455861,771.7913201857489,786.9152911628419
1731139313.1850617,788.0484223518781,799.4943908070895,772.5865467059332,794.2804109572871
1731139313.188449,843.0902540388589,797.5048262836631,774.5329010622951,808.0173522285943
1731139313.192349,869.8501348579736,797.6193629876258,777.0911544307909,811.9539677484092
1731139313.1962495,838.3220848939798,797.6870825973522,779.6433864275817,796.9152691990365
1731139313.1969476,766.3161400707547,796.0383565583226,781.9235394450374,769.0820967906819
1731139313.1982343,705.0670338822034,793.2521555466149,783.9829108508487,745.6054122432588
1731139313.2001498,698.0299404682223,791.7256842268481,785.9771200145349,741.3205518986554
1731139313.2006464,746.3002879610374,793.3973848847364,788.0093884728363,757.3748129376536
1731139313.2040503,808.2728937033469,797.6677295084121,790.0959293728612,780.729783342126
1731139313.2079506,833.8428503385817,801.5261360538728,792.205444119439,794.7231111630731
1731139313.2118511,805.5319703454554,801.9891281304756,794.3057931252159,792.0717619917822
1731139313.2157514,752.5847445517381,798.7676480885137,796.3845859550327,779.7761495191214
1731139313.2158456,725.8099557745688,794.7095924247748,798.4456872415619,772.0848576672685
1731139313.2162309,753.8807562560899,793.5242706785687,800.4975426997535,777.6753933241243
1731139313.219652,817.9059567976661,796.764959851655,802.545282638978,792.0320381627905
1731139313.2235522,865.8744947099658,802.6446421090565,804.5894072542746,801.4179122993057
1731139313.2274528,855.0072389555838,807.523369812358,806.6281695529857,794.8460705904172
1731139313.231353,787.048055009926,808.626682528154,808.6600907896564,773.783114695146
1731139313.2318156,708.0655669759582,805.788770839532,810.6849115033712,751.5479415332385
1731139313.2329884,673.5298818573089,801.1361376258934,812.703108215135,743.1202549360373
1731139313.2347436,706.4570959792298,797.34524631118,814.7148969576398,753.6856082550984
1731139313.2352536,780.7563408445022,795.9620028600133,816.7196569168611,774.8411960151335
1731139313.239154,842.1561151040175,796.8553341805969,818.7163906701888,791.2333468331109
1731139313.2430544,850.5659608350325,798.8232558394093,820.7052290677445,792.4729880987863
1731139313.246955,810.8845728066475,800.5808169104309,822.6889516205136,781.1127846912382
1731139313.2474003,767.3240647008134,801.343351673798,824.6724497932752,770.2666060998648
1731139313.2508552,765.1752621611676,800.8303228459398,826.658376400161,772.4950607054872
1731139313.2536416,811.4647528303116,799.1046895663554,828.6403503105207,788.8903612424475
1731139313.2547555,868.0651444363908,796.6380524632541,830.6003529935548,807.5842465887391
1731139313.258656,883.8718905812077,794.4421810412533,832.5196183072961,813.296016852124
1731139313.2625563,839.137605360384,793.7645924885247,834.4050483865893,800.1865004603809
1731139313.2629848,764.2377121168063,795.238247841903,836.3133404438065,777.2931859115066
1731139313.2664568,716.5775697483463,798.120676877241,838.334721013246,761.8915696723928
1731139313.2677424,734.4404943699254,800.4479482301726,840.5063574928989,766.0630993982446
1731139313.2703571,805.6146168984135,800.223090465566,842.6880286527002,787.2208405845322
1731139313.2725396,876.4836187181032,796.8282355920539,844.5306924443323,810.102929242054
1731139313.2742577,894.5773016005832,791.6142562628472,845.7067699970182,818.674038912791
1731139313.278158,850.553201989023,787.2463678216483,846.4142408548031,808.5973302890402
1731139313.2785697,785.4904021862042,786.2324686799465,847.7839963722928,790.3671888149831
1731139313.2820585,756.9419421124851,789.4937700518066,851.4669610894434,780.4503379153197
1731139313.2859588,791.1464371153494,795.7580244277311,857.9039103134012,787.5194114204653
1731139313.2898593,861.0470641373159,802.1653746623592,864.0173715940201,805.219944215812
1731139313.2914376,908.7470438875313,805.8739695747736,862.8271352166864,817.7591693942915
1731139313.2937596,893.7135791651497,805.7684173908576,847.8320390271628,813.7710094550889
1731139313.294154,826.4472514589276,803.0847661969642,821.2864396120995,796.6302082785102
1731139313.29766,759.9507551925217,800.3806052959072,798.5904016645378,782.2281501656357
1731139313.3015604,746.7360332350913,799.5675904817712,799.8706657448142,785.9167254090924
1731139313.3024964,797.0218728356963,800.5886271659066,831.9753002593978,809.6217572693762
1731139313.3054607,871.708225461727,801.8200906254339,877.9144834489097,840.0071898587953
1731139313.3093612,914.7736331627075,801.7516970149384,906.5813496626621,859.2243585958414
1731139313.3097386,898.132076033139,800.3763592689929,896.0801949797063,859.2172263630029
1731139313.3103356,842.6673181107324,799.0832780646851,850.9709992567273,847.6330511603448
1731139313.3132615,798.8770133077555,799.295552104905,799.1419158185984,840.48103612036
1731139313.317162,803.4907070461404,801.2098850648167,770.9330543584607,847.8653504015444
1731139313.3210626,848.2848861370974,803.757324841892,777.150787911192,865.0308320710367
1731139313.3249629,887.4833304245205,805.6311290982446,803.2194486524916,876.5050704392204
1731139313.325323,877.8654443889676,806.2666919876757,823.6826607377042,869.9491550616837
1731139313.3288634,817.8061915186275,805.9631240430958,824.8279297209106,847.9627060676657
1731139313.3292336,751.9362800661929,805.3466945532333,816.5251182058595,827.6573387694723
1731139313.3327637,736.6703553923758,804.8528659886069,823.0089858297667,827.8544645343825
1731139313.3366642,794.2133410740005,804.5824638545553,859.6821858891254,853.8523162284357
1731139313.3372505,892.1836461247378,804.4358085883476,915.4038850302305,891.8459251786459
1731139313.3405645,965.766622970335,804.2913800365975,956.7715076183199,917.8366380638274
1731139313.3409078,965.9685498987419,804.0948703922799,953.5737547764807,914.8067530525028
1731139313.344465,896.8666157115442,803.8550138371794,905.7356115521338,885.2925698910891
1731139313.3481317,812.46582984005,803.6022569366605,847.8274001969676,849.4588127646508
1731139313.3483653,774.6738383328902,803.3573801564871,823.7441400594897,829.7090482221945
1731139313.3522658,804.9995174429141,803.1240350597138,849.9739314313252,833.7172209651376
1731139313.356166,868.841401051021,802.8962344983996,898.7213915389808,849.5431886724785
1731139313.3564923,905.577969967539,802.6675932869124,918.1876753931637,856.8677352546688
1731139313.360067,879.7807008574557,802.4355485661152,875.988824145987,844.9055087535033
1731139313.3639672,810.9151053797401,802.2007856651684,789.9372214038046,821.8800511528963
1731139313.3670297,757.023174963655,801.9649619007379,718.6701752116631,808.183765774887
1731139313.3678677,766.5115502397082,801.7291208079929,717.3171503459187,819.1073863432512
1731139313.371768,838.0414303411154,801.493393784539,793.1438454113575,851.4370830164376
1731139313.3720045,920.7427093335652,801.2574417438796,897.5356792520365,884.6832413475852
1731139313.372077,953.8002889276662,801.0209397651577,961.9963344335505,895.8855174690237
1731139313.3756683,913.5235895200566,800.7837785240104,950.069784038529,876.5175955875335
1731139313.3795688,830.9174968328942,800.5460181794485,883.5039141121313,838.6582899431493
1731139313.383469,766.3926914604607,800.3077621448483,821.5828223877157,805.9045932231102
1731139313.3859277,762.1140209743076,800.069070434974,811.3334835781076,796.1788830420176
1731139313.3873696,810.2223077035904,799.8299409409517,850.6957102177413,809.7449914167139
1731139313.3876617,862.1719023714081,799.5903368605385,895.0657841446334,831.3718760726808
1731139313.39127,870.6227117826846,799.3502341749918,899.6215236779285,844.0291682126216
1731139313.3951705,828.6393156317733,799.1096683257097,859.2154030294142,842.3810190139918
1731139313.3990707,773.9827905731264,798.8687489377742,811.3840522809709,835.2863251616786
1731139313.4029713,756.1517544294096,798.6275999165591,801.6396023827383,836.2665513414763
1731139313.4032464,794.5939382934274,798.3862137635274,842.7436656217541,850.7488204842572
1731139313.4048257,862.5307400300937,798.1443096279914,903.1106312102839,870.7998620330856
1731139313.4067583,908.7636821762806,797.9013992451318,933.1722345062122,881.353977655388
1731139313.4068716,899.1335302823844,797.6572385485882,906.63997254022,872.6558301639039
1731139313.410772,844.1692878468355,797.4125214173862,842.2421950800101,848.87200603054
1731139313.4146724,790.6274341391852,797.1691302591984,788.3958070038182,825.7748934820071
1731139313.418573,783.3173099823841,796.9289923092288,783.9304198913507,818.8804511212868
1731139313.4188309,827.9385381205062,796.691354643433,827.4995966817825,831.2296545297837
1731139313.4224732,885.7941845494908,796.450341162671,880.5630771058784,850.8386016170207
1731139313.4237237,905.648852762512,796.1967168508669,900.3500314580491,860.3678436186358
1731139313.4263735,866.9151357680771,795.92687635775,874.5197779873079,851.4280627912929
1731139313.430274,798.0627108260234,795.6555759756249,829.2094706234229,831.6828988507366
1731139313.4341743,754.2017942554411,795.4188736330321,805.5900917370404,818.5694170340446
1731139313.4344156,771.8456187051049,795.2500357947714,825.8542007588686,824.6057432416417
1731139313.4380748,838.1463188534547,795.1276429169955,876.3510137249339,846.4716585594462
1731139313.4415126,900.113579352642,794.9346618536093,919.6691391050392,867.0950195916495
1731139313.4419754,906.581937055653,794.5031731395574,923.846171165648,869.2871356476542
1731139313.4426217,849.1499980543164,793.7953379373672,884.8119839021867,849.9100157635431
1731139313.4458756,769.1082449001349,793.1443532554786,825.7637979764066,822.8977221153914
1731139313.4497762,724.4772350688539,793.3034393495451,776.9241943987763,808.2923610902807
1731139313.4500003,743.3883073560758,795.0442926138526,754.419074341225,815.9112244285592
1731139313.4536765,801.7097838747094,798.4376479573174,754.6846236822829,837.0856256172892
1731139313.457577,843.7742288527652,802.4807143913392,764.2346002282129,851.6861258470198
1731139313.4614773,829.6293406351507,805.6382342881802,772.0454675885106,844.9927588169039
1731139313.4615197,769.6068474777549,806.963046539681,774.6023271917053,820.4516219508041
1731139313.4653778,716.9876238198734,806.7677815511588,773.7209072500458,797.5104655608695
1731139313.4655848,724.3278352749093,806.2114768280658,772.3434460859295,796.0667436527258
1731139313.469278,799.2207831195634,806.2112492789103,772.0481942951446,820.1467402104568
1731139313.4731786,895.699247962526,806.702622369669,772.8378383493043,854.0740489396778
1731139313.4762666,948.4708944507679,806.9102146475412,774.0351810116755,874.2987687654551
1731139313.477079,922.9192927003652,806.3213460415255,775.0936418881764,867.5552353994212
1731139313.4804175,841.4719750692935,805.3612955259873,775.8642456860862,840.9908871609604
1731139313.4809794,765.6155880061108,805.0194767828632,776.4620189180748,816.2438825287595
1731139313.4811697,747.7375725485913,805.7094927455562,777.0436319912163,812.2101398082143
1731139313.4848795,791.016467028643,806.504487039334,777.6858127017107,830.3588434790992
1731139313.4887805,849.4706734152217,805.6581514919342,778.3830409733163,854.42183380028
1731139313.4926803,867.8470218806881,802.1069967380153,779.0979546608174,864.4560045916799
1731139313.4965813,828.1354122850946,796.6204176524371,779.8029175526191,853.3899685094726
1731139313.496754,763.9874416195855,791.5012072910702,780.4918126180099,832.3436689920811
1731139313.4993155,731.4994685518643,789.0345971973308,781.1716599168874,820.7384962760314
1731139313.5004814,761.4896033679563,789.9469595466869,781.8507907388076,829.9247507317332
1731139313.504382,833.2522434712298,793.015188556026,782.5329333275298,853.9756793913455
1731139313.5082822,891.067638153572,795.973963148088,783.2175616490423,874.8511687998173
1731139313.511021,889.2473767975825,796.9835238635021,783.9027621715494,877.2415827628529
1731139313.5121827,828.7259798713184,795.7066464723662,784.587411976008,860.8379052925077
1731139313.5123386,755.8606962262579,793.3926672287232,785.2716357633583,840.2576834485807
1731139313.516083,724.9720627898737,791.9764193248142,785.9560702699265,833.0039137542648
1731139313.5182135,755.2105392709776,792.8106688872127,786.6409117079719,845.4207296282651
1731139313.5199835,816.6638236477029,795.9104694775092,787.3255472044926,868.0557300206802
1731139313.5238838,856.7806748380833,800.1942989708888,788.0092027987141,884.0370505511221
1731139313.5277843,844.994507483153,804.3793289811904,788.6924350174236,883.3219827364454
1731139313.527923,798.0857264546921,807.6822703876827,789.3783276407171,870.8534487932421
1731139313.5316846,764.9286762957004,809.8145701622491,790.0714401851894,861.920284773869
1731139313.5355852,783.8350453316505,810.5623934390911,790.773235317099,868.9107405020283
1731139313.5371118,848.9733956793444,809.6170891983114,791.4760310211345,890.7631898983137
1731139313.5394857,914.1923022136414,806.9054116180804,792.1622903533298,913.7739272093287
1731139313.543386,930.6921878364486,803.0084550566332,792.8173141841265,922.7057702149602
1731139313.5435078,887.0787395663871,799.1101294605897,793.4546361081862,912.8394234594529
1731139313.5457747,819.0999042401663,796.3910400639321,794.1340497854761,893.334230287019
1731139313.5472865,781.4239979434368,795.3388277152618,794.9362982550687,879.6180808564487
1731139313.5511868,804.2446840521874,795.5498665519322,795.8737361518885,881.2422415874964
1731139313.555087,869.4403267912392,796.203841610957,796.7818944659872,894.9131324458954
1731139313.5560098,925.4438293472147,796.8497914008665,797.3242166239571,907.9595138887486
1731139313.5589876,929.0211296246501,797.8596693969985,797.2531185793166,909.015625456473
1731139313.5590923,880.2069890392535,800.1141984809714,796.8876297734619,897.0031845467581
1731139313.562888,821.7703022211446,804.0932247145475,797.3997647050304,881.1505621399953
1731139313.5667884,803.4399074234282,809.1097384574792,800.2371163746803,872.365802173265
1731139313.5706887,840.3204301567316,813.4309155997482,805.3675608132916,873.431184475677
1731139313.5745893,899.8690242223597,815.3480911178494,809.3116841349025,876.2898359652924
1731139313.574677,928.1584994169642,814.4062839965693,805.4691702307994,868.6979157580874
1731139313.5749078,894.0162268548719,811.7580323973827,789.0849251477882,844.8871542800579
1731139313.5784895,815.5503159434011,809.2689752697821,765.1051666643345,811.7132064678683
1731139313.580529,747.8977539464705,808.0526407098217,750.7077067495463,785.1933647396086
1731139313.58239,741.3797234188607,807.6345767409972,764.5650832913017,779.5579251430186
1731139313.5862904,802.3110966085356,806.4582724760436,808.291696272772,796.7258850538558
1731139313.590191,887.2971818721985,803.340631050798,858.7595726101343,824.237040738089
1731139313.5902617,936.3661063632013,798.6924111529547,882.9742771941594,843.6584730504532
1731139313.5938058,919.4436007677002,794.4942820069709,864.6403099809996,843.4953471718205
1731139313.5940912,859.0385166185632,792.9994798808306,818.6668097276141,826.9010684949974
1731139313.5979917,810.390099237345,795.1248417949859,780.0691541960141,808.2966014185764
1731139313.6018922,815.0475709631163,799.7371790662846,776.3501300812238,801.6261140207444
1731139313.6057923,866.3083746555877,804.3745725266587,806.6509782420919,809.5626230944179
1731139313.6058464,915.4457349807024,806.8709073708623,844.6254129991632,822.1501936168683
1731139313.6096933,913.4375075124324,806.6959885801159,861.4900120725074,825.6989082820135
1731139313.6127038,853.018755465278,805.0891302427677,849.426294961986,814.4358741540684
1731139313.613593,775.842177969519,804.0020212502277,826.633482795054,795.2477419754731
1731139313.615283,738.9188572244148,804.6889085100728,821.0372874313913,781.6213760347363
1731139313.617494,768.2214636187359,806.8960607251844,846.2470148847177,781.9403126532998
1731139313.6213942,837.6739188482089,809.0836812005605,888.8453770275484,792.2049026722672
1731139313.6214309,890.7611872671528,809.4582812875269,917.5309973985635,799.708450983199
1731139313.6252947,886.8707877588309,807.1783404401014,907.9447007792703,794.7659289430102
1731139313.629195,833.8565001944148,803.0043002736961,863.7385004667316,780.1673018385356
1731139313.6316018,779.6430686694378,798.9032684098877,815.6231322376432,769.5046878199526
1731139313.6330955,770.2505551895322,796.7107586021751,797.1892979842123,775.2667020633281
1731139313.6369958,810.3258756022852,796.6836368464338,816.5193071878047,797.1383444298918
1731139313.6370156,860.0120190046136,797.0822785404947,847.8771396121365,821.3263826418525
1731139313.6408963,870.3826895652353,795.32560848,851.7769717562668,832.0943172244814
1731139313.6447966,826.5095603156012,790.046601437897,807.7747253501875,825.5922983125636
1731139313.6486971,761.437894688992,782.5311329475718,733.4390819733846,813.6675013825788
1731139313.6500373,729.8202420119484,776.3612462621339,674.0512204112401,813.9023808904859
1731139313.6504998,763.4514058221362,775.3926862851788,670.418382538237,834.0426467013373
1731139313.6525974,844.6279215900571,781.4168739380357,728.5722039985826,863.9338325734642
1731139313.6526003,918.1800163731547,793.0573898748657,813.9976880300592,882.083217021903
1731139313.656498,932.8850579489352,806.549452743257,875.8162927394643,872.0875695886907
1731139313.6603982,880.548801333612,817.7560078239331,884.0212962855319,835.9653490231673
1731139313.6642988,802.3655548762858,824.0263029039137,851.032155798633,793.5259343162787
1731139313.6681848,756.8824739159633,824.8213523261387,819.0425415120083,767.9273329194931
1731139313.6681993,774.242064880201,821.0883162206741,822.399431530053,768.7704994438966
1731139313.6693978,833.2044186842193,814.2276990285305,857.0643335611344,786.1023655633408
1731139313.6720996,879.6974452038611,805.4958864631459,884.718256957469,799.7310379666625
1731139313.676,871.866983715127,796.0343410114217,868.701999690072,795.8837617580429
1731139313.6799004,814.8620480327397,787.1392684020501,809.785486791088,777.7836000585
1731139313.6837697,757.1708303284656,780.2959593876758,749.15302452221,762.264600561439
1731139313.6838007,751.7398558565811,776.7695479911116,734.8971991002941,765.8880928509
1731139313.684791,813.1483379372455,776.9032445234727,780.489898482208,791.7852807340165
1731139313.6877012,904.6274234539246,779.5957160157836,850.9193135434937,827.0933243027104
1731139313.6882958,965.036292649258,782.5434689783617,889.143430830255,852.403267204983
1731139313.6916015,955.1074007003243,783.4678969380103,862.1386173882472,855.8557823641505
1731139313.695502,887.3834196509707,781.7152108854567,789.1440409672969,841.4137149021924
1731139313.699354,816.2944149238713,778.964687722995,728.0592219683632,825.1947920247743
1731139313.6994023,795.4829826452991,778.148574720733,729.5546357198062,822.5942019607425
1731139313.7033029,835.8253856478435,781.1195863758347,795.8198693979712,836.1148935517616
1731139313.707194,898.0001589929915,786.9303199123934,878.4605954046552,853.6729722634965
1731139313.7072031,925.9259353014758,792.3811373077458,917.9375996959046,859.030007404025
1731139313.7111037,893.7452449727726,794.6121762631378,891.7219654274697,845.9687977657975
1731139313.7149386,827.6460687159706,793.5622446462877,831.0663396770796,824.3268248101061
1731139313.715004,784.6751124891205,792.0239850904225,793.5806339174885,812.5034926577716
1731139313.7189045,806.1676465779299,793.090093689849,816.0596607209079,822.4045697347276
1731139313.7195451,883.7819868806641,797.208516545797,886.6579793427738,849.3200848803751
1731139313.7228048,965.2775247552969,801.5639546463366,956.905702914117,875.2888647939565
1731139313.726092,995.0855134193399,802.495597197968,980.8087939360306,883.4116999638321
1731139313.7267053,957.3933805385286,798.892261063785,948.607257301883,871.5912003991799
1731139313.730523,887.7256594940865,793.5065838795729,890.1154696225954,854.5484665556673
1731139313.7306056,843.792213763546,790.899775430778,848.0331489680615,852.2660613702008
1731139313.734506,858.8278038685627,793.7432942030274,844.4094686253159,873.8340716031242
1731139313.7384064,915.2820560116419,800.7021987350917,866.8929061674239,909.4679176125137
1731139313.7423067,960.6134223260304,807.6662547150012,883.9550936145142,937.1089837196027
1731139313.74499,952.097156135473,811.0514958172968,874.4050323734403,938.5244393619329
1731139313.7461078,893.1096807062763,810.2007843927265,845.7696429683707,912.4543540311385
1731139313.7462072,830.505233463589,807.0876196195162,826.8610020741438,874.8959862160852
1731139313.7501078,815.3400079995358,804.153664273857,841.9772070933838,846.6849461706067
1731139313.754008,859.5499436610208,802.5067160068672,888.7222769109906,838.0595145889059
1731139313.7542992,924.3408116062942,801.8161719804373,937.4294316385486,841.8097697349626
1731139313.7579086,950.1753049893744,801.4136250508188,952.5681432018641,839.862894509965
1731139313.7616923,904.6203750570655,801.2356830581633,919.763103245175,817.9560630076471
1731139313.7618089,809.6393010701997,801.8212990861978,858.0364154628072,776.9817515949022
1731139313.763888,725.7113349803582,803.646074272575,807.5559747366704,732.2066682804467
1731139313.7657094,704.3834648244771,806.5779046025988,800.8963807445309,701.0167623585497
1731139313.7696097,746.8419162322384,809.9285096178435,838.5009875731656,689.0074971251535
1731139313.7735102,802.4936318164292,812.935498287676,887.1921002511166,685.810754277125
1731139313.777277,809.7314966436553,815.1711277201002,904.1629186250558,674.2709583122902
1731139313.7774105,746.1685871801932,816.5970307025422,869.2677812480217,645.3695408673339
1731139313.781311,647.1628872807297,817.4422504340293,801.108396271541,606.1149875070612
1731139313.782786,577.3815699706489,818.1967314616095,744.1545321268636,573.4009669530342
1731139313.785211,578.7802197194476,819.6556809285478,736.2376620151776,558.9963320159768
1731139313.7890532,637.2835794972128,822.6624495127064,780.910994931078,558.7833041762779
1731139313.789112,694.6757007119113,827.4913376232977,845.6751455679478,555.9216463954245
1731139313.7928617,695.5456017416516,833.4046291905915,887.537351769569,535.5408433666203
1731139313.793012,631.2131914796605,838.987885336654,886.1893814533289,498.26656526842646
1731139313.796913,545.2894990429323,843.1179170115005,858.3898894411732,460.532756759602
1731139313.800813,496.83518432439513,845.619050576617,841.4527158852915,441.0617373945205
1731139313.801684,511.99944495421846,846.8560518141977,859.3364789210165,445.23420203468584
1731139313.8047135,564.4638994157879,846.6859180129335,900.6360239858932,461.089976760559
1731139313.8084464,600.3197878680279,844.0742718333645,928.5389215230136,470.2996763311779
1731139313.8086138,585.0873446438827,838.1243309820088,914.8003313371474,464.1259128871022
1731139313.8125143,532.4433783967795,829.6877909693246,867.6083878575114,450.392652153897
1731139313.8164146,491.2168294459496,821.816534862575,827.6304297085892,446.06745455829315
1731139313.8203151,503.3307514332209,818.1807600012547,834.3001252324187,462.75163068488234
1731139313.820582,568.7212159732408,820.4734919632107,890.7681239145718,497.62407026321716
1731139313.8238072,645.3370450477064,826.9020860840253,957.7586729307536,536.5256342637957
1731139313.8240309,682.5963883335775,833.095503846517,982.8571272326875,565.399480851361
1731139313.8242154,660.7671440259824,834.839784796191,942.6105780857533,580.4204390750747
1731139313.828116,605.6317946123872,830.6492320055488,863.4904813738377,589.4676100314551
1731139313.8320162,567.674051221345,822.3937796179098,803.3676402963598,604.8192394421027
1731139313.8359168,582.388946455051,813.7565821320986,806.6313044249166,633.2331861672325
1731139313.83948,643.0181571584131,807.8596125499711,868.866500839974,670.8998751289023
1731139313.8396156,707.4692371241595,805.7375627831002,940.8467712864376,706.7476582849582
1731139313.8398173,733.9050405075749,806.3802580548434,969.3053829578556,731.2869288805304
1731139313.8437176,715.9641088636329,807.8321947919635,940.3782349722401,744.1059570535722
1731139313.847618,688.4692639111703,808.3672284168649,889.064276191124,754.2252185449267
1731139313.8515184,698.5639014229749,807.1334309407798,867.5123514180053,772.9888976169957
1731139313.8552003,765.7151902851858,804.2329145343383,900.1907069484275,804.9203339556032
1731139313.8554187,863.2114398935404,800.4501261613581,963.8648757504989,843.592112614893
1731139313.858378,936.4482895513003,796.8178749199109,1007.6133882877555,875.8322311671184
1731139313.8585613,944.1700200421233,794.1816844872618,994.4845614222825,891.3667541572406
1731139313.8593192,890.8607150571895,792.9368287872352,930.3019982276327,890.8225303623245
1731139313.8632195,824.7321322766895,793.0236395280122,857.4507842075834,885.8511982670701
1731139313.86712,801.6153181264112,794.0711114269466,820.1838166445672,890.7222417881504
1731139313.8707848,842.0578462315985,795.5034025350553,830.2595230958259,911.4985790336312
1731139313.8710206,916.0344398613124,796.6019923909254,860.6392882576881,941.5540903423353
1731139313.8749208,968.7915378853962,796.7079762108156,871.3890207935908,967.5919791958261
1731139313.877276,967.2273094763973,795.6086482629211,844.9191280887387,981.4044633212559
1731139313.8788214,927.6952823440365,793.7791695231108,800.2333457879778,987.1438289809469
1731139313.8827217,901.0223314561919,792.0849973389933,774.7070302188424,997.4089655960161
1731139313.8863697,927.3023980072804,791.052983574985,790.433884656743,1021.3199400058658
1731139313.8866222,999.4897658127186,790.3795751925745,834.9354446626039,1055.0723601287843
1731139313.8905225,1067.3770423457418,789.2351794903551,872.2829381794405,1083.5423342993943
1731139313.8933156,1078.8390538400104,787.1500459689478,873.8549038093628,1092.0607200578474
1731139313.894423,1023.5982775087346,784.6455760518994,842.0706968885154,1078.7379051632809
1731139313.896174,942.869101398052,782.990677533323,807.8635825344304,1057.0265275947781
1731139313.8983233,896.7700551630934,783.2896189908882,804.9507304603172,1046.0183980961021
1731139313.901954,916.2523283121776,785.7002544385639,842.0780144116128,1055.9439026036368
1731139313.9022238,979.0889496872562,789.3931817131454,895.1791077717542,1080.481816779167
1731139313.906124,1029.761095942615,793.1450472225467,925.5809586404919,1102.2476992190586
1731139313.9100246,1026.6194965693,795.9372652667753,910.1486463279888,1107.1012447086866
1731139313.9139247,976.7078198726565,797.087491807097,859.6739686371031,1095.4815423863563
1731139313.915072,929.0404032110172,796.0647479519528,810.7061897154132,1081.3934717801105
1731139313.9175386,932.3971034430419,792.5231394160877,797.0581015200937,1080.1069877193488
1731139313.9178257,993.441433201092,786.7614463185043,823.5056740616455,1095.0866063760418
1731139313.9217255,1070.023509033706,780.1215871311034,862.2796809761248,1115.0618872976465
1731139313.9256265,1104.7774615785058,774.6415761048925,874.7078049878131,1123.4719369448742
1731139313.9280696,1071.2252820379986,771.9526993466061,841.0056947187314,1112.3188717646508
1731139313.9295266,995.1793471169144,772.2828370107832,775.7599622410488,1089.0470180048749
1731139313.9331234,934.6602709791115,774.4673021431905,718.0553979459778,1070.853108209433
1731139313.933427,934.5465552161759,776.9204904886153,703.7666847237113,1070.9646115509927
1731139313.93397,991.7706309225648,778.5923128924499,739.9130679466244,1087.894017813377
1731139313.9373274,1058.426744092214,779.079129851533,799.5157447712396,1106.4649007425928
1731139313.941228,1080.4365445637804,778.1173674949454,841.3372725363067,1110.1110241677534
1731139313.9451282,1041.1596395963943,775.3966564950343,840.7811536091048,1094.700235751815
1731139313.9487078,974.8099546980561,771.1157381432593,808.4520380773705,1072.4581377021566
1731139313.9490287,938.3854430933989,766.5964854009159,780.6126222723974,1062.3455280398075
1731139313.952868,964.6694400179407,763.9732715236388,787.8490391030813,1074.4650926727236
1731139313.952929,1034.8282164117504,764.9224144741103,827.569310014447,1101.307618275669
1731139313.9568295,1093.2984961336376,769.4978302342498,864.5420062371813,1123.2063143780556
1731139313.9607298,1092.8405512991837,776.1155807623165,860.4957214625549,1123.6825632485857
1731139313.9628236,1032.8390626361418,782.6335847387321,808.1559625406537,1102.255484833978
1731139313.9642923,959.651170517737,787.5296737137674,739.977570400266,1074.4630397839846
1731139313.9646304,928.9596814045398,790.3053054575977,702.6963634429117,1059.315381254133
1731139313.968531,960.9629057435894,791.1051807936897,718.270759129885,1064.460155927814
1731139313.971766,1024.9081328542595,790.1675689179593,764.5773264183435,1080.926342975008
1731139313.9724312,1065.5532172777162,787.6300601975278,793.7287878702483,1091.3808586398504
1731139313.9763317,1049.77982835767,783.7374880380913,774.0259514924749,1084.8692223811277
1731139313.979877,994.5953118192283,779.1489242792485,719.8581654623703,1065.8351119622512
1731139313.980232,952.7067022830695,774.99953568235,682.0936613606265,1050.0462190662365
1731139313.9841323,967.2796041325339,772.5616104237735,704.8309796799093,1050.9876674031132
1731139313.9880328,1033.874081487354,772.6515154331037,784.872331973284,1068.2148879008432
1731139313.990664,1101.9528879777272,775.1702108927794,869.9687125530279,1087.3963676799008
1731139313.991933,1115.2062823629692,779.1163120398727,899.1827702537117,1091.9202669618744
1731139313.9954617,1057.594251256398,783.0569849322225,851.9899917760187,1076.4263644036637
1731139313.9958336,967.5318718242909,785.7082022720554,764.8561144725006,1051.2605046394788
1731139313.9975777,908.7792596359955,786.2891840790661,701.7967399013221,1034.3581289054644
1731139313.999734,921.2592953852895,784.6099144749443,703.9726104700478,1037.101464049102
1731139314.0036345,990.6851020705062,781.0661988557159,759.6241840881358,1055.3489315722268
1731139314.0075347,1060.8104444341593,776.6445235208048,817.2270983777103,1072.6722530580005
1731139314.009562,1078.3529970848115,772.8235939099907,828.7659681972976,1073.2312708644156
1731139314.0110464,1034.620899889399,771.1842561284938,786.718242231748,1054.1509482133438
1731139314.0114353,970.4004763208537,772.723850372765,725.6610135491676,1027.6072083757613
1731139314.0153356,940.3270603848831,777.1826515647152,689.7118832532997,1010.8612596714902
1731139314.019236,966.253278137838,782.863165935729,694.8229296621861,1012.0639600216593
1731139314.0231364,1018.5601531611493,787.2471352661757,717.7976933584627,1023.266341474147
1731139314.0266309,1041.2766470600136,788.2115827966502,720.056257412388,1026.5415502271314
1731139314.027037,1000.0503786185618,785.139293220488,684.1841320818708,1008.4928348244158
1731139314.02846,912.6163199664488,779.1684934406042,630.9952790968514,971.3041282694408
1731139314.0309372,835.9574267036631,772.4108951740358,602.6446290568849,931.0664567870131
1731139314.0323317,820.34775046227,766.773673610808,626.7995624493432,904.5564033272498
1731139314.0348375,867.847643181521,763.290355490276,692.2917650419961,895.3353331282054
1731139314.038738,929.4112496280453,762.2733552918988,756.0948057377047,890.7899909700823
1731139314.0422156,943.5227064528269,763.7509303335927,775.464097442548,872.7088661176789
1731139314.0426383,885.2763728595011,767.5009309047642,739.45657938188,832.5715890952044
1731139314.0465388,785.753036652802,772.7003057936782,675.5516463332538,778.6008178757111
1731139314.047358,705.6319522819213,777.8680584802186,627.1775873775979,728.564111970669
1731139314.0504394,684.971612620607,781.5353104286436,620.3536132006212,694.5497143523876
1731139314.0543396,711.0397243308363,783.212484646661,645.2597556189039,672.8532039311335
1731139314.0578,730.665990015196,783.7831311240266,666.0776480533,647.6409926743057
1731139314.0582402,695.9968782155773,784.9374356860512,650.2093611229038,605.1864852297036
1731139314.0621405,605.0639235795146,788.1016049959492,593.6100430214893,546.5546479070566
1731139314.066041,504.05921394771065,793.6607361914406,523.3180820378932,488.0995592926971
1731139314.066256,450.5468311388622,800.9054726679958,476.8270602647767,449.36067818303553
1731139314.0670855,468.0498865056131,808.5594048488996,475.2094519881763,438.11764208037505
1731139314.0699413,527.9038558519062,815.4803691848854,509.8925449721141,444.4227405196483
1731139314.0733848,571.8660371635413,821.1845285542503,551.3638138060109,448.2869174716447
1731139314.0738418,557.4475497601222,825.9447363122523,572.0780977943176,435.1504860991556
1731139314.0777423,490.72422555118777,830.3388842026866,566.5007938329229,407.16791487055264
1731139314.0816426,420.87925270823683,834.4755916748969,553.6216924514003,381.2903645833602
1731139314.085154,400.49009709106565,837.5677840301369,559.7255329278297,375.3553451903262
1731139314.0855432,443.2481525869244,838.455415969749,594.3070004329693,393.21588377823736
1731139314.0889697,513.5159558666901,836.829342953922,638.9313959697099,421.1272879681124
1731139314.0894434,556.1852454126642,834.0226542872176,660.157192224211,438.56061445737834
1731139314.093344,541.8094935739953,832.4087585940197,637.8487622743664,434.61127520208834
1731139314.0972445,489.58693941653365,833.7313372931924,585.4325540629934,416.467808681895
1731139314.1011448,449.9928948205713,837.8079948140072,543.3150687535613,403.13150372175744
1731139314.1018398,462.6109535677396,842.759016694232,548.6403752313095,409.9147082272935
1731139314.104052,524.1733772809679,846.4780575501374,605.2859564822456,436.5882707225021
1731139314.104554,592.0604788981141,847.9795053805324,679.2494099388946,468.4849802911172
1731139314.1050453,619.4305706168992,847.573141048117,724.733563053656,489.00299890803603
1731139314.1089456,593.3983040048347,846.0424647280283,721.0371563985826,492.9798506371866
1731139314.112846,545.544249683157,843.8144592361801,690.1261566417586,490.14975864465964
1731139314.1167464,525.80116702703,840.8317233380407,679.1954086998392,496.07785721358937
1731139314.1201386,560.3788049812443,836.9996261527162,721.8964888724093,518.1204867706501
1731139314.1206467,628.5877480808128,832.6132293745201,811.4878214971319,548.1984870039414
1731139314.12295,679.1072542675099,828.384121247178,908.9344453629737,568.8632199880169
1731139314.1245472,673.4218164248049,825.1587365739978,975.9615437691392,568.1069942396231
1731139314.1284475,620.1528140432358,823.6362916788406,1000.849446593587,550.5862972253123
1731139314.132348,570.4060142120136,824.2524700967979,997.3320196051166,535.3489874232566
1731139314.1357234,576.7196700155869,827.1174293636743,986.1959396902608,541.2665485358038
1731139314.1362484,649.14247932444,831.7792812565079,980.2071256883958,571.7980796880302
1731139314.1365938,744.8368021643074,836.8278259151605,981.3369852584028,611.4617495326089
1731139314.1401489,800.2759029861083,839.8311362136911,985.8902803838205,637.0091678762453
1731139314.141848,780.6624655287004,838.2392121721931,990.1118624786911,634.7927889635442
1731139314.1440492,707.3030541135844,831.1814756993973,992.5891384593015,611.1664224738656
1731139314.1479497,640.8330428773573,820.9142453645766,993.8064129405404,588.0174948726783
1731139314.1513078,633.0994784694575,812.3220947564133,994.7633441707942,586.6006449186333
1731139314.15185,686.1136865112582,810.1854537463159,996.0575662303567,611.7625090149734
1731139314.1557505,751.6326563464673,815.9943009330503,997.74106764446,648.6718589388088
1731139314.1596508,771.9646262444523,826.8415508629228,999.599225720673,674.6765516269598
1731139314.160746,728.1443557028008,837.3537768122101,1001.4372680390617,676.9076309340355
1731139314.163551,655.3360957313996,843.0949427638845,1003.1909709771528,661.583301958823
1731139314.1668923,613.0773408126635,842.8265336164834,1004.8926539702684,647.8410152641391
1731139314.1674516,635.7938616947789,838.2722478147028,1006.5962273611223,651.6703253636455
1731139314.171348,704.7215798749536,832.1509502369455,1008.3314737359044,673.3621411773155
1731139314.171352,763.7738859638138,826.2509503443707,1010.0994612032913,698.4477824297478
1731139314.1752524,765.5922595832473,820.7567771501668,1011.8885021665083,710.6365119148054
1731139314.179153,709.8994766837627,814.8956251034208,1013.6889710519177,705.4950096085415
1731139314.179644,643.2081320119196,808.2312219071673,1015.4983714780005,693.5001712057496
1731139314.182477,620.6365116460565,801.7342029800623,1017.3190437763914,690.4013932947238
1731139314.1830533,661.225789997373,797.8564502510419,1019.1541397684699,703.5067483828848
1731139314.1869538,733.0877195172809,799.2761084036297,1021.0053696332035,725.58656039857
1731139314.190854,780.1583909247518,806.8638750336858,1022.8729252176429,741.273423923202
1731139314.1947546,768.4068249422161,818.2690445219795,1024.7563950263398,740.2509290647477
1731139314.1980617,713.7670360253071,828.4509037990387,1026.6555326063303,726.1492797428838
1731139314.198542,669.3278152248404,832.2289901409612,1028.5704599541934,714.0079637181659
1731139314.198655,682.4160835748906,827.3798370706993,1030.5014622780247,718.5991099334129
1731139314.2025554,756.0655805316202,816.2314217669623,1032.4487133153839,742.989644739102
1731139314.206102,845.472313720213,804.5846098414735,1034.412190880392,776.234703523449
1731139314.2064557,892.3531266693917,798.4955774036246,1036.3918686621098,801.9296310364772
1731139314.2103562,870.4157144228815,800.8291199376107,1038.388059377199,811.0406966733916
1731139314.2136464,806.1286695742335,809.6715387033126,1040.4015641877238,809.0307312178556
1731139314.2142563,757.8786513354007,819.5755855231525,1042.4332075315067,811.4140751047142
1731139314.21744,769.514891751769,824.869824499624,1044.482681370303,830.8313582485196
1731139314.2181573,835.5037419842307,822.9637425923381,1046.547490667934,865.8908829093668
1731139314.222057,906.4142938118831,815.5945466911819,1048.6236625955912,901.3174686545358
1731139314.225958,930.6591475269379,807.3734109405024,1050.7095124348161,920.0689965811896
1731139314.2292309,897.975027269032,802.8276395977309,1052.81103601833,917.8393317104619
1731139314.2298582,848.3062627551162,803.9790427493058,1054.9432458579126,907.6828803932649
1731139314.2337587,838.7309078856101,809.7354876583474,1057.1201312699088,910.3085191899825
1731139314.236338,896.009251084043,816.8657160121552,1059.3327504560482,937.5113423606164
1731139314.237659,993.6337710720866,821.5271214609387,1061.531560376766,982.0525871061755
1731139314.240856,1071.6163075710986,820.6760769191109,1063.6442931647687,1022.2431392895603
1731139314.2415595,1082.8929114659743,813.2856421090706,1065.6505458023962,1037.8727882882888
1731139314.2448156,1029.5805098398098,801.1457651447922,1067.679884965376,1025.202944263053
1731139314.2454598,960.5608066429127,788.4616369429148,1070.0220474758894,999.3551621203425
1731139314.2493603,932.3306932417239,779.7501340480551,1072.9178020041938,982.2593645242786
1731139314.2532606,964.5001466487221,777.0232021689965,1076.1435389609544,985.9258100944834
1731139314.255236,1026.141447284368,778.4875903143729,1078.719851737763,1004.6844916680345
1731139314.2571611,1064.124195331568,780.1892234764745,1079.3322526327754,1022.4246642407456
1731139314.2604,1049.3754126981833,779.4410908822689,1077.7971959180827,1027.9251094560818
1731139314.2610614,1001.6746901447204,777.0247829107062,1076.8291807334053,1024.5328958569048
1731139314.264962,972.0338867945535,776.1706552385081,1081.940374692642,1025.9546555188726
1731139314.2688622,998.1872219979948,779.3430468481771,1097.144084437426,1042.613233687396
1731139314.2727628,1071.3482232713188,785.8299106778039,1117.1498243219444,1071.1718208901132
1731139314.2741342,1141.9941512868172,792.1642172246023,1122.7673375846325,1096.3931450833031
1731139314.2756102,1159.3104492602893,794.7053483587781,1089.5411453701436,1103.3936085191851
1731139314.2759848,1111.8045110967703,792.0168996316977,1010.3017935185642,1089.7751348847519
1731139314.2766633,1036.588971123489,785.2949220906045,912.500157226209,1067.7749968079713
1731139314.2805636,990.0585766986096,776.9882184172494,845.9519369441922,1054.8781060427652
1731139314.284464,1003.1569876681731,769.0756097616389,843.2423402841604,1060.364652269812
1731139314.2883644,1057.2095078612383,762.3503370715433,888.0727865856301,1078.4010453361584
1731139314.2915697,1100.5960133366293,756.9493661720147,925.3335589663428,1093.2213500136625
1731139314.2922647,1093.081259028214,753.2994068526326,908.0189797409193,1092.2814753346174
1731139314.2930322,1040.5827236087766,752.4415084751192,839.3325160119946,1076.6033576905238
1731139314.2961652,990.319782528652,755.4080951320468,770.6483885236439,1059.6888570857027
1731139314.3000655,989.9131448803882,762.2716439015699,755.7773886570936,1055.9052420664718
1731139314.303966,1045.1463553283659,771.7818428319379,801.9611884356581,1068.065333008301
1731139314.307154,1112.453286680859,781.8973594560584,861.4142597033233,1084.4979996469158
1731139314.3078663,1132.8275146902338,790.6640025610185,871.3797170348672,1087.9551372241126
1731139314.3103642,1079.3843517937482,796.7094652730768,808.1096971367384,1069.1446523064214
1731139314.3117669,979.9846497327987,799.2416321795474,708.4029394373263,1034.226112156085
1731139314.3119302,896.8144324334083,798.0255559709447,640.6146014417144,1000.5063990093215
1731139314.3156674,879.0324514569712,793.627424239593,649.8519227164979,983.6660260705979
1731139314.3195677,925.6417988635875,787.5591287330506,722.815349854707,986.3213300744883
1731139314.3227386,987.7896116173201,781.7989943851716,800.169274894678,996.8382164602756
1731139314.3234682,1008.7712397741218,777.8211504537238,824.608416669013,999.4412361141766
1731139314.3273685,969.7752774959753,775.9335880818348,784.4456312478568,987.507476574493
1731139314.3308282,904.214477331432,775.5081069996264,718.2144547260941,968.9448622745385
1731139314.331269,868.7881195463136,775.7794648703591,679.1734548435406,958.871693237842
1731139314.3351693,895.2361330668863,776.3493085565935,690.961858117195,965.6656018532526
1731139314.3383234,962.9658487850659,776.9639035100503,730.5859128934493,982.4752005277619
1731139314.3390698,1015.223447256562,777.0235471739267,750.2240390552179,991.8643095907465
1731139314.34297,1005.147821244284,775.6357186104552,717.4262949689429,980.0015002304493
1731139314.3451183,933.7468540053673,772.4601516087095,640.6001035436926,948.5252755984013
1731139314.346871,849.2754282802186,768.6605670471027,561.3325128487729,914.0611249371636
1731139314.3497262,809.2220850547578,766.8931708610868,522.3318949409581,895.6127310924688
1731139314.350771,835.6849158387254,769.9025422892311,537.0768347452091,899.9849745395709
1731139314.3539078,899.3959309226607,778.5431091103942,583.222143902465,916.9532638022972
1731139314.3546717,944.5627454598883,790.8117322012897,622.4118388315013,928.0098611194138
1731139314.3585718,934.2959544675599,802.8901956264028,629.9445156193167,921.5441997777041
1731139314.3624723,879.8379691301673,811.5404665952971,611.787990345055,902.002256318
1731139314.3663726,829.7070222223754,815.9214196995288,596.7451269498906,885.3903274761316
1731139314.3686242,827.7430195672912,817.332713807706,610.3599878765505,884.8100142962318
1731139314.3694923,875.0988683739308,817.2841000094089,651.1110277369196,898.2282925797925
1731139314.370273,928.2172818860101,815.8412842640587,688.3514118568635,909.066643389591
1731139314.3741734,934.8719011083656,811.8466024490057,685.3511334537327,899.5671336225747
1731139314.378074,878.5115231661632,804.6950765561364,630.7243553800686,866.080845740732
1731139314.3798723,793.9639672615065,795.8036916757608,552.8032723375562,823.4961049203038
1731139314.3819742,740.897875843501,788.2536411337136,502.6571063244718,794.7127417106412
1731139314.385077,756.1164977711444,784.8570499751926,515.9744392791074,793.3089354497021
1731139314.3858747,823.4996325560794,786.2975820105848,583.110426431854,813.2913006692895
1731139314.3875222,886.7154961120252,790.8107346798952,653.2450835210549,834.310383822361
1731139314.389775,895.3064349395711,795.5283934904421,672.7198982808776,838.31432966389
1731139314.3936756,846.7846211996207,798.3925923803276,628.6200998721612,824.1924794247785
1731139314.397576,789.1281625867647,799.2718285026206,561.3538002374635,808.218716627539
1731139314.4006617,779.9124003325704,799.5692414162942,533.3514621088943,809.4860050654712
1731139314.4014764,835.3028943720346,800.7075030764258,577.715897716002,832.1722845381955
1731139314.405377,912.5481416101501,802.7399315896796,669.3292554639527,859.7914738439925
1731139314.4064202,942.5813025521028,804.2969070719988,743.6993096384094,867.1086188224027
1731139314.4092772,886.833128887335,803.980606758871,748.9900676648208,840.5680829453877
1731139314.4131775,771.1205026581389,801.9881784789847,688.2664927459712,790.4705549836847
1731139314.4146264,668.0777734683281,800.4166258268394,616.7768490530102,744.5186438050955
1731139314.4162464,641.9441520643041,801.7929168066931,596.6204356752237,727.528919788274
1731139314.417078,699.9241031837972,806.9415091947351,646.5281521352667,743.3646973779335
1731139314.4209783,788.487476565824,813.9564432500867,728.1349337270748,773.2314819272424
1731139314.4248788,836.7354109368811,819.2392717736561,779.4080568764214,791.2007626678053
1731139314.4253182,811.7541238043849,819.9715908524332,766.6013083731195,784.1644362871698
1731139314.4287791,742.030686448124,816.2285511067921,710.9489880397754,760.4050378073827
1731139314.431831,691.225863669374,811.0595507136093,668.0104706917136,740.7664483539419
1731139314.4326797,704.6624024755283,808.2630691055803,677.9207335184896,740.6409040628215
1731139314.43658,772.3249673244142,809.38988169209,729.5572399456113,757.8384642522128
1731139314.4404805,837.8069774045573,812.3663835804336,769.6615933407988,775.654519618584
1731139314.4442165,844.8389035651235,813.095568050539,749.5024069140676,777.5611722312132
1731139314.4443808,783.0475634613074,808.9707817557048,669.5209637289781,760.8543140170196
1731139314.4474156,696.3001230213503,801.4001147774004,583.7020120573824,738.297226732956
1731139314.4482813,647.7626664107838,795.0269972318961,558.8390746362296,727.0952484188941
1731139314.4493804,670.1828618926663,794.1098186058265,621.4145432997044,734.6637233357627
1731139314.4521816,740.9573124234644,799.0758363257683,735.4495007322533,752.7725536681743
1731139314.456082,801.3967182641773,806.1842534462035,829.6196596684008,764.6090319520359
1731139314.4599824,804.3768791612031,810.5136012168815,851.7308940360368,758.8835026045116
1731139314.463,751.8712073002229,809.6349701247323,806.5605571340428,739.4331382974462
1731139314.4631145,691.9206680454271,804.9494432833845,747.4446375775954,722.3047840882206
1731139314.4638827,677.5853151513709,799.9328862723147,730.4741154023704,722.410995654788
1731139314.4677832,721.9225980280922,797.1606452697783,770.1633860010423,740.6187821857961
1731139314.4716835,786.718589786435,796.6342447770406,832.1688684672196,762.2358045771299
1731139314.475584,814.6310865059453,796.3958685945923,866.0757518847028,768.686870624345
1731139314.4785848,777.82342969434,794.4463949307876,848.1406263823042,753.0301771283421
1731139314.4794846,702.3392835517983,790.2932255190265,798.1224005598017,726.4046510846705
1731139314.4820125,648.0519734763941,785.2075394907018,758.8734909634504,709.8358002944041
1731139314.4833848,660.8290030493713,781.3915016946445,759.0401461772916,717.843582946729
1731139314.4841344,735.6414971860057,780.788537159351,791.0769964106736,746.8702653973997
1731139314.4872854,819.8499005116124,784.1537461370255,821.2979877252172,777.5746623399177
1731139314.4911857,853.8433904664697,790.698845690675,821.2618289526753,789.1547634593751
1731139314.4941697,816.9886114779869,798.4057846977528,793.2652561179042,774.694788178741
1731139314.4950862,742.7209203256575,804.8898392359985,769.0169674777368,745.9088578730895
1731139314.4989865,690.9518426001696,808.4286049682663,783.1067714951439,723.8689282274789
1731139314.5009103,700.1479812032906,808.6311766491897,843.1204806140294,723.0763246712752
1731139314.502887,757.9744142145964,806.3920841854041,920.5305158934848,741.2524342769129
1731139314.5067873,814.0430799830633,803.1942594352183,969.902323098255,762.489353372637
1731139314.509754,823.2921756798181,800.2236581430057,962.0415039108441,770.6475681777688
1731139314.5106878,783.3194403548755,797.8836389226772,906.1806582234592,761.8547923556778
1731139314.514588,734.9294128238599,796.0370947345111,844.5247086764382,746.2272159753431
1731139314.5184886,726.5917937058884,794.740095798809,822.8030208711936,738.2377636960299
1731139314.5188885,773.2376036115396,794.7354953438877,857.8731547937293,744.4463469488828
1731139314.5198083,843.4250551204877,797.0751684046486,925.6009302096403,758.8696738791795
1731139314.5223887,884.9405196569421,802.0483892614416,978.0543841383178,769.313866222484
1731139314.5253386,867.7433427472406,808.4158920049139,978.3286938030785,768.7496405793933
1731139314.5262897,809.2070956283611,813.8411345100186,927.9971899170405,761.8205560071729
1731139314.5301898,760.4587278282029,816.3091939028046,866.1282972016994,760.8118479236681
1731139314.5340905,764.1099771549711,815.3267323353161,839.2272855044033,774.3885248566248
1731139314.5379906,818.131054085157,811.9055288910071,864.6437468592607,798.8266310960117
1731139314.5387063,876.7873547907251,807.5401568125253,916.9309526372539,819.7190197297558
1731139314.5409234,888.8055429741283,803.2730338724471,949.2714036352215,823.3058854343849
1731139314.541891,840.9451089463186,799.5939551533736,933.1754253636134,808.1114908592378
1731139314.5457914,770.0912550272935,796.8727006968566,883.5546703321457,786.9566771623624
1731139314.549692,733.5579551367246,795.5157833830795,847.4711884813397,777.3592771900816
1731139314.5535922,762.3446037601904,795.5629711225457,864.8387709267419,788.006777184561
1731139314.5536425,835.7301711045545,796.2764021852566,933.3411908877574,812.1484812795494
1731139314.5565078,897.3694850818009,796.428569720432,1007.4373665959922,832.9830579827416
1731139314.5574927,899.4606301189776,795.2900550432696,1033.7407220071905,836.5502993927455
1731139314.5576043,839.9545061820982,793.4932887175854,994.540863585307,822.0411437859058
1731139314.5613933,763.9057900509075,792.8577492586152,923.1784931031854,801.7733786907902
1731139314.5652936,728.0495853923704,795.0786578604243,877.1993266205229,791.1275272452775
1731139314.569194,756.2911622525614,800.2451079458873,890.57163017505,796.4218187915469
1731139314.5720923,821.3317964127414,806.4919992178557,945.1539504391028,810.3281388094783
1731139314.5730944,867.3982649125757,811.2608008670768,986.4699858711643,818.5382267027178
1731139314.5765023,855.9734897823662,813.2484559573247,971.0810919572971,812.2826503264241
1731139314.576995,797.2822837865184,813.4021231727779,904.9506004849288,796.3060543708306
1731139314.5808952,741.6289876340652,814.0209859533765,839.3171886425991,785.4336965206859
1731139314.5847957,737.6973171863231,816.6272685034866,827.1902344802929,792.2826214301223
1731139314.587677,792.1289151017476,820.3801402075081,877.7475453056393,816.1590359420946
1731139314.5883963,863.4819282703338,822.4450930591352,947.8190855632064,842.4280703917983
1731139314.588696,895.429795295133,820.1743129284757,977.8225492621325,853.2384334162622
1731139314.5925963,862.2137713571682,813.4429968227812,941.5838389785602,841.2718177125902
1731139314.5954003,789.4654994593094,805.2199246897178,867.7558708649608,815.5446641975049
1731139314.5964968,733.2764666102765,799.7215460117557,814.8289406534619,794.4245629289984
1731139314.600397,734.3042233915628,799.4407749091158,821.3933359762294,791.2884409083053
1731139314.6032617,784.6637662483314,803.4039471043068,874.4403677912261,804.420587894684
1731139314.6042976,835.4529104953925,808.1272494161357,922.5282137510038,819.413206612178
1731139314.6081982,838.9443311955914,810.4739053513093,921.3568228827481,821.8856583823293
1731139314.6120985,789.841270685787,809.9430177680399,871.5073451933262,809.6355824910429
1731139314.6142983,730.4326308013898,808.4720135039419,816.2284889384199,794.0187352734395
1731139314.615999,715.1133205904382,808.1431514353349,802.8164180168869,789.7430195140137
1731139314.6188464,764.1020634922737,809.0465975556149,841.8703972045838,802.0042470095233
1731139314.6198993,845.0093263458391,809.2290476823639,898.5702258746497,821.7560553597174
1731139314.6231508,897.5697271571528,806.5942977161639,921.7175100400349,832.8624713579175
1731139314.6237998,881.5025029871192,800.8904924114897,885.3025849411794,825.1744956646709
1731139314.6277,808.8209029960935,794.0693746735471,808.8216660498898,802.9611534972323
1731139314.6316006,734.424196456165,788.9298209997264,741.3344428436475,781.9148383778002
1731139314.6331964,712.3253615791243,787.3491319570084,723.590297603082,776.9954922974067
1731139314.634431,752.7603960217159,789.4053754335619,758.8404106923836,790.6839632485393
1731139314.635501,815.1090403289668,793.6950859301793,814.2899122034307,811.089527389769
1731139314.6394014,842.6420332041025,798.3021594559893,849.8700805817083,821.6656595012479
1731139314.6433015,810.6187141542488,801.7359051437982,849.9770955213411,814.8297203541695
1731139314.6472025,747.7225160565564,803.4329680049498,833.2132747504916,798.2205962584975
1731139314.6500156,712.5820287726409,803.7086427787632,833.9934730366671,788.1021062537078
1731139314.6511023,744.5073491775794,803.2977021721506,871.9900618879569,795.2193178525655
1731139314.6520944,829.1794074831904,802.8327007760737,933.663650952391,815.1240405958367
1731139314.6550033,907.9053171159192,802.5855898779271,979.9518847284329,831.5578138058582
1731139314.6579049,923.6555760733881,802.5275730579541,974.6848383211484,830.5153526734327
1731139314.6589034,867.1966738618545,802.525394919543,913.1818327200302,813.2063993973221
1731139314.662804,785.7433708853658,802.4863841439404,829.3220051611484,796.307867168292
1731139314.6656,745.7946141596528,802.3939439932558,773.7183044457425,798.1272880508552
1731139314.6667042,779.1004077190847,802.2747871321908,777.2957308000514,821.6921247585515
1731139314.6706047,856.03427610461,802.1576330055082,827.7863967962714,849.6808112559669
1731139314.6709924,909.5523333849796,802.0541493617061,878.7340489469466,857.0215273443514
1731139314.674505,890.9916876753624,801.9613978158942,885.3493028016821,831.7261823742514
1731139314.6784055,811.4427901646914,801.8720055383694,839.3656637824316,786.4775726823157
1731139314.6811848,733.8780420626387,801.7813058657442,775.3261003172879,750.5243406736242
1731139314.6823058,722.4271460066038,801.6887156053435,743.5090180495525,747.9153604013159
1731139314.6862063,790.6842537722376,801.5957749998006,770.8203655567668,779.5716848775653
1731139314.6898904,890.8383509705893,801.5039781290408,839.7811527807943,823.2712377415587
1731139314.6901066,951.3248497704852,801.4138689299659,901.6240640229689,850.8312076097549
1731139314.692659,932.0926350010081,801.3252458928025,913.7854120508392,848.5107994282163
1731139314.6940072,854.081734780564,801.237715051825,873.2113234884135,825.2711194466469
1731139314.6967697,780.9202588942729,801.1510469005804,818.7994307284998,803.813329158583
1731139314.6979074,768.2066365508259,801.0652263464864,799.4584621874742,802.3930428435542
1731139314.701808,820.5797384609051,800.9803407304854,832.7557792178283,821.5760097151126
1731139314.7057085,890.3574507483304,800.8964697325888,889.2098409885122,845.5060927584552
1731139314.7087884,918.2748954917961,800.8136449007553,917.2458511245202,855.7926011330915
1731139314.7096088,882.6361693985988,800.7318609039436,888.4584252391024,846.497131052784
1731139314.712354,816.2853377489095,800.6510954065244,823.6216186194652,828.2863769763112
1731139314.713509,777.8214270615127,800.5713160323098,775.7738846016288,818.9072041525922
1731139314.7174096,801.9221366144411,800.4924848808988,784.4218085164132,828.3075846812045
1731139314.72131,870.5989161871464,800.4145829016447,840.5634671309506,850.7513062482212
1731139314.7252104,928.5905668650312,800.3376546867609,892.9826423024479,870.0095465578598
1731139314.7274127,928.9427541285888,800.2618296269374,890.8689728147423,872.7890174292901
1731139314.7276864,870.9670732594509,800.1872483260576,827.2707454984903,859.2173416281191
1731139314.727939,800.4946620253859,800.1138709268544,747.2499549699684,842.1913717017995
1731139314.7291107,773.0421664365101,800.0412894707529,713.2532582472386,836.5503694917553
1731139314.7330112,809.3519059419785,799.9688245272163,754.9783106155409,846.912305384583
1731139314.7369115,878.6118936698683,799.8961443659758,844.6249823451197,863.8905827719535
1731139314.740812,923.3469592837455,799.8242001850253,918.8862659814993,871.8474930941895
1731139314.7435234,906.7316998781167,799.755536765272,930.2100245709898,862.1311139242788
1731139314.7447124,843.6992450995301,799.6926979873126,884.0979260389635,840.9377342438729
1731139314.7465844,789.1140316725302,799.6345177003392,830.7263401900534,824.8492449217028
1731139314.7486129,791.7071010876169,799.5728828993135,819.2442488409964,827.2039850368932
1731139314.7525132,852.0400150899874,799.4953016321141,855.5042990289879,846.5246054468552
1731139314.7564137,920.3167115406904,799.3972442290034,899.37707958944,866.986027408883
1731139314.7591078,936.6253190578176,799.2992860904135,901.7774870397819,870.9288930575606
1731139314.760314,880.5006619277183,799.2505131713174,847.6816868235902,853.2074651373669
1731139314.762167,788.9316984165279,799.2950537563474,768.6724402962906,825.6024026558506
1731139314.7642145,728.0567275334856,799.4015890756691,716.3823010294682,807.8114389341624
1731139314.7654824,741.4432165976491,799.4095543571185,720.819159241477,812.3939444093807
1731139314.7681148,816.4588154285041,799.0934591773046,768.3440268550755,835.6068642595072
1731139314.772015,895.5356063507894,798.411840610714,816.2649522383927,861.1106078336687
1731139314.7746923,923.0153690686616,797.8341020195801,830.3331727714863,873.279186630424
1731139314.7759156,889.3047494832912,798.4049108740201,812.8540081479052,869.3000049780259
1731139314.7798162,836.0301256489828,801.1921018468474,797.830412553744,860.2962724107007
1731139314.7837164,818.280106153245,806.2467896015291,818.27179812689,860.7305420680347
1731139314.7843804,856.3361190627875,811.9242738437495,874.7068170325146,875.1733167143873
1731139314.787617,918.1723167453326,815.4872226743652,932.1808647176927,893.8234387228234
1731139314.790277,947.3731617854893,814.8854366037451,947.9279773141357,900.730629643126
1731139314.7915173,912.230916498368,810.3774869814873,906.230241785616,887.7727912922688
1731139314.7954178,834.2635824574156,804.5887430844956,832.1600880791813,862.4794812167266
1731139314.796921,772.357108613762,800.8621015685129,773.9017822585082,842.9593543972314
1731139314.7993183,775.825188317713,801.1449259621286,767.8367469057902,843.9379243564279
1731139314.8032186,844.743436257739,804.9168520415691,812.5614316953893,865.1660392787232
1731139314.8032784,929.3685267589384,809.7158805460141,870.2699847554836,891.417418490737
1731139314.8058617,968.86175062083,812.6524618808033,893.8898691648507,903.9695281370878
1731139314.8071191,938.4834239272338,811.8693075958041,860.4787784158741,894.5087853962201
1731139314.8110194,867.9344065430089,807.2821453989866,787.2990778317178,870.7382809392677
1731139314.81492,816.4063047171028,800.5068699848422,719.216868568324,849.6286356248075
1731139314.8188202,824.4061842447799,794.1432514952776,696.5846413236072,843.9227479914928
1731139314.8214464,881.1590454146323,790.6212142739209,727.0468952030367,852.6129526360086
1731139314.8221765,933.8524771591956,790.9765614317076,781.8025236412707,862.6825409913547
1731139314.8227208,931.1160921967813,794.2292784121641,818.669981125714,860.3223357863931
1731139314.8266213,865.6100648022923,797.9980557391226,814.4928399172621,842.4707999944836
1731139314.8305216,781.5622711790351,800.1912464587986,782.4525398094448,819.6005898675318
1731139314.8316753,741.1620087618558,800.5356884219468,760.715758438846,807.7592921436899
1731139314.834422,776.1744172936479,800.5318323582546,780.3859610451178,816.185556342295
1731139314.837031,862.6405524717139,801.7265439367125,837.7875908030796,840.0446853249196
1731139314.8383224,938.5684170202527,803.9013041303497,894.6974048357778,863.7943459876944
1731139314.8410745,951.1283264975305,805.048503490765,908.6686736375322,872.5956895631839
1731139314.8422227,896.5796865043206,803.3245127426248,869.5472704881947,863.0256379415767
1731139314.8461232,821.28638166349,799.1207883614964,810.2961282923244,844.7833884071915
1731139314.8500235,782.8986503073197,795.12816083208,780.2674142346594,832.1258661690838
1731139314.8526156,803.4172898704037,794.1641987282896,802.1033970247717,832.1651219568439
1731139314.853924,853.0111890579176,796.7182039176724,849.9970888219385,839.8684011829016
1731139314.8578243,877.7012385199552,800.4593689909047,870.1576998784029,843.8428945333574
1731139314.8599725,846.7720106661177,802.1211076409348,827.5076558034484,837.5299648267049
1731139314.8617249,779.4039818852788,800.073247316454,738.7027820726998,825.7358216860547
1731139314.8656251,728.4394610474519,795.4492716121873,662.258898565022,820.702664527678
1731139314.866429,735.6928483704789,791.0832012139338,652.7794178348596,831.2049846637369
1731139314.8682,796.5402612962234,789.3114828980771,716.879773305547,854.203986172792
1731139314.8695257,863.1242628086902,790.424611366876,807.530328437891,876.344068468183
1731139314.873426,883.3989758764859,792.8268784309765,861.800357851953,884.1231903871184
1731139314.8773265,843.7490056081523,794.5266831328129,850.5891282161016,874.1025059181001
1731139314.8788705,779.7463756630509,794.6052823697538,798.6453085953802,854.5407254321624
1731139314.8812268,745.7311851810904,793.5401179414987,758.7135908143649,837.6677173010022
1731139314.8837848,768.482259377847,792.4076380122367,763.659523023856,830.3088005012755
1731139314.8851273,824.2769141702687,791.9206423318814,799.4064873578794,831.0510302198561
1731139314.8890276,859.2332256718009,792.1065828503191,821.9025335320958,834.443060897807
1731139314.892928,835.8272453053986,792.6057081562661,800.9789463719447,836.329675349073
1731139314.8968284,765.9319991038758,793.0837368615084,750.1137397562392,835.7717413171003
1731139314.8977685,702.3854763716271,793.4155135990587,715.1564201881491,833.8647286327092
1731139314.8993697,696.3261445854623,793.640494554712,732.8211906992957,831.915413072236
1731139314.9007287,755.6213665246744,793.8431047542034,796.3390375101956,830.5117860290724
1731139314.9011831,837.9378365133864,794.0739772456346,858.5230104183977,829.5677287148105
1731139314.9046292,883.6684124193796,794.3374620787678,869.8146754384533,828.7619005019437
1731139314.9085298,862.4493613601921,794.6152571713664,819.3128870236775,827.8728627034701
1731139314.91243,796.4144787091769,794.8907455320526,744.4876396919599,826.8605387692195
1731139314.914954,741.5664451516836,795.1584117346081,701.4531147411013,825.78785314613
1731139314.9163306,742.0361731460669,795.4209556384465,720.4294814035121,824.7226729024611
1731139314.9166665,794.275425582662,795.6829196846217,783.0157512718015,823.6925645433209
1731139314.9202309,850.627439009657,795.946798944757,839.1641469431439,822.6905252740703
1731139314.9241314,859.5304520674547,796.2126487103238,848.5815311803109,821.6990445466339
1731139314.9280317,809.1925955018345,796.4794404914092,812.0503589397283,820.7070104408868
1731139314.930539,738.518799470036,796.7463220903154,768.3150484912713,819.7129770370263
1731139314.9319322,706.0992931081216,797.013048938027,761.3438445664565,818.7205277766218
1731139314.9355645,742.5307653999275,797.279789719925,805.4599510761471,817.7331385580925
1731139314.9358325,824.7733669406127,797.5467849146476,874.7771920614194,816.7520357700521
1731139314.9359372,893.3213544222922,797.814156190021,922.7719285126777,815.7766807262268
1731139314.939733,898.776290533103,798.0819001346008,915.8208032021812,814.8060811764306
1731139314.9436333,840.9939293499503,798.3499641945123,856.3929955446629,813.8396388674407
1731139314.9461231,769.4140957093047,798.6183077954674,780.4042876422363,812.8772662104504
1731139314.9475338,743.6475841375999,798.8869160337082,731.6181776866374,811.9191123792075
1731139314.951434,785.5206990727509,799.1557853204332,731.7950348374939,810.9652905843592
1731139314.9544623,861.5159743361014,799.4249142900159,767.9688397788551,810.0157806144085
1731139314.955335,910.3147129110753,799.6943161953936,805.4524396904067,809.0704807075325
1731139314.959235,893.0643992401326,799.9640387245989,815.9623734291998,808.1293056893782
1731139314.9617078,825.1359232850456,800.2341542106813,799.1613737968282,807.192240415079
1731139314.9631355,763.6325570319552,800.5046911914686,781.4045550003907,806.2593008594563
1731139314.9670358,761.4351089532746,800.7755335411371,793.0704880173316,805.3304130445991
1731139314.9706914,825.2465033498495,801.0463961447527,842.1553700881813,804.4052997784555
1731139314.9709363,910.6526523125958,801.3170163664777,904.9135525013203,803.4835360388748
1731139314.9733603,957.0010549471792,801.5875688124678,941.957487260911,802.5648949859083
1731139314.9748366,934.0053925155902,801.8589952979311,928.7791396335947,801.6498562020313
1731139314.9772923,863.8127998555346,802.1326569394797,877.0420555490765,800.7397529073654
1731139314.978737,801.8902991229721,802.4089147384589,827.9621272556718,799.8358702773671
1731139314.9826374,792.3275800250626,802.6852809411804,820.4192066606095,798.9374181774613
1731139314.986538,833.4661015431476,802.956259522085,858.5289050311249,798.039833254102
1731139314.9904382,881.6080940886281,803.2173487822537,906.5733945192528,797.13631469657
1731139314.9922583,889.4022652597259,803.4729096713127,917.8075743919062,796.2246496236867
1731139314.992877,846.6542939214345,803.7415927642531,874.4671406627706,795.3164224212952
1731139314.9943388,789.2892821806146,804.048205782779,805.078161726547,794.4383828767308
1731139314.998239,768.9389542313833,804.395886336744,762.9389388731659,793.6135827011652
1731139315.0021396,808.5875883572522,804.7329975878476,782.135087160213,792.8228637345923
1731139315.0054457,881.434590771024,804.9561507253958,847.3634884565784,791.9766159175899
1731139315.00604,931.1298940206095,804.9937470434211,903.938218890147,790.9514768827712
1731139315.0084617,917.4634013798498,804.9580622204917,901.7621865428018,789.7247503629897
1731139315.0099404,850.149587269732,805.243880591922,837.9586384529529,788.5407059237513
1731139315.0111566,782.1577757112091,806.3845198343209,761.8373218421627,787.9091132184698
1731139315.013841,766.7209798444325,808.601291390119,735.7025346871486,788.2150114795033
1731139315.0177412,812.83573233896,811.3110722140182,782.6959878070834,788.989485311366
1731139315.0216415,876.9738087526225,813.1145631120825,866.2526088364289,788.4463075592643
1731139315.0240464,899.4723577703161,812.595390623432,920.513748424005,784.2937266090152
1731139315.025542,855.8597935895895,809.5542698632241,906.6308314818278,776.2805847742181
1731139315.0294423,779.4028034988412,805.627239617333,845.8915598249539,768.9154167800289
1731139315.0300546,734.9376271640295,803.429253305472,800.3987502192799,770.6594613257665
1731139315.0333428,765.4495303457661,804.579778807532,818.4381310968566,787.5024197488278
1731139315.0372434,855.7768247602278,808.1634801000815,892.2883240198898,815.327336059282
1731139315.039631,943.1209017196712,811.0698757560082,964.2402221013431,839.5744118766456
1731139315.0401995,965.5475538141595,810.1647299744932,974.6337313298563,845.0088850189774
1731139315.0411437,909.6579563326638,804.6758245149877,911.0352570320034,828.0174099988907
1731139315.0450442,820.0822780554067,796.9226437598628,818.0870399015507,800.5396148079678
1731139315.0489445,763.8261519886246,790.7906563082656,760.682406628988,781.7768299301451
1731139315.0489526,777.8700053157359,789.0815510672202,771.414593170556,784.1373798555964
1731139315.052845,841.5547310026019,791.6938857501342,825.9605939499695,804.5877432002724
1731139315.0552156,895.5615424357032,795.9159844025446,866.5762340238099,828.1213444902139
1731139315.0567453,891.7435542945384,798.5207091870165,853.1099987244017,840.2479862303384
1731139315.0606458,832.9281089389722,798.0698271713425,797.4867029946088,838.2424700451213
1731139315.064546,770.1616888849884,795.7883733263425,752.3726835034402,832.1654198886359
1731139315.0678506,760.1388845392623,794.5057718610802,764.9528406932159,835.2409192351436
1731139315.0684466,818.2226726514334,796.5572078458066,836.3671441702188,851.8871558654141
1731139315.0708,905.3484149399936,802.1645667470707,920.5424767694665,873.3928511650628
1731139315.0723467,958.743296058101,809.3246432949311,961.1982125214937,884.7420866217989
1731139315.0749536,941.1030358312285,815.1254725595602,934.9989542716802,876.9434511534884
1731139315.0762477,868.994894210977,817.5168296217189,866.9147495357952,854.7997927965104
1731139315.0801475,798.5923591880294,816.3939353694,808.3795534769594,833.7235814089186
1731139315.0840485,780.8261009777065,813.3941114076187,797.5537689407269,827.978194161688
1731139315.0863848,821.9755342245006,810.6571777228185,832.478256705386,839.6942043672092
1731139315.0867486,880.9690069304515,809.4376455328812,876.0488538626148,857.5555778069819
1731139315.0879486,904.9058672410696,809.4848529097505,887.0543362374736,866.3194081260697
1731139315.091849,873.3123880339572,809.5182098274627,852.4385952404089,859.4463513008208
1731139315.0957494,814.6824414390089,808.3506107937801,796.2043245442677,844.443629531242
1731139315.09965,781.9319673114982,805.8083961988252,759.342392764716,836.4759623823777
1731139315.1019697,807.4814744376745,802.8097723466524,767.7704068701895,845.5120966739777
1731139315.1035502,875.2669349618836,800.6012387063051,813.5059747198658,867.5951998580049
1731139315.1056466,932.57285538589,799.7667894215067,862.4384471158801,887.3953929593831
1731139315.1074507,931.9386430485317,799.7975549702891,881.0970191249222,890.0547378713836
1731139315.1097076,869.4090080152318,799.5874480357782,861.5367120624696,872.9188500081528
1731139315.111351,788.4959805306991,798.4695543466881,826.2078006003526,847.7714346594748
1731139315.1152515,746.2773759454944,796.9112834439483,809.5620534853996,831.5981672937835
1731139315.117554,768.2397636373578,796.2121611175775,829.8963503506338,833.1491224074564
1731139315.1191518,828.3075317793248,797.39018075644,872.9942761663272,846.340555145858
1731139315.1230524,871.0115056583084,800.2024628809909,901.9119305575321,856.2204060300152
1731139315.1245446,858.1219470457088,803.1997961350955,887.3192676402174,852.5655123368256
1731139315.1269526,800.7461229666008,804.8207500395324,834.2587434745417,839.2133191028058
1731139315.1308532,749.2829330982539,804.5725120696272,781.1676673014309,830.6108397779565
1731139315.133139,749.4532774413531,803.2434791810505,769.1127897303418,838.3616131703048
1731139315.1347537,802.096862180354,801.9854930430627,805.910268394281,859.7178874028334
1731139315.138654,861.3376378921362,801.1575308111926,856.473994250672,878.5173674141338
1731139315.1425543,872.6990840121548,800.0377900875561,869.559557304405,878.208802415636
1731139315.1434426,818.8962411645215,797.6973145223437,820.0095039770179,856.0837798475003
1731139315.1444616,735.172299952371,794.2432453993262,731.7935912855659,826.7306012482322
1731139315.1464548,681.8027745816361,791.242918982376,662.1661491848711,811.591344159327
1731139315.1487231,696.3209441373278,790.7793636106429,658.4363469537648,822.6987645753328
1731139315.150355,764.0265958636301,793.7680512499886,721.2871632985541,853.3078484081428
1731139315.1542556,830.4459982975945,798.9135864328953,804.4436670096129,882.8127828469927
1731139315.158156,845.5589382883907,803.2873126648838,851.7624787437635,892.1939880801546
1731139315.1620564,803.6557786449885,804.1887885847422,841.4761707758662,877.9104815985319
1731139315.1623406,746.1691145839577,800.8569449622411,800.3241117760098,853.414358882989
1731139315.1643078,725.6172939459719,794.7537339851564,775.9122790603751,837.5208720433078
1731139315.1659567,761.1875707366958,788.3906562125198,792.4508996186952,839.446972211982
1731139315.1698573,822.9068578502627,783.7968389341357,829.5211950086137,852.5852737372606
1731139315.1737576,856.8292103975941,781.763049156319,842.2239986373676,861.3397652660959
1731139315.177658,829.740513645136,782.1147026776806,803.8433238283504,854.4633877476283
1731139315.1792157,756.8565199504425,784.4070156094429,732.7858528615458,833.5400277622699
1731139315.1798923,690.75695170774,788.2904331597522,680.0020264212395,810.2436802095092
1731139315.181239,680.7036563243546,793.3125901216888,687.0835855381928,796.0444988197017
1731139315.1815584,734.0974392019709,798.5554706298191,749.8287514113865,794.0652209276782
1731139315.185459,810.1385078762931,802.7069550759682,818.2742397986398,799.3718472961773
1731139315.1893592,851.4764512511643,804.7563486269206,835.3454701023581,805.152886538267
1731139315.1932597,829.8742257502797,804.8163966182922,784.1906885232314,807.8257549034269
1731139315.195477,769.2351937512443,804.2612663512152,704.730442703868,807.6196300975247
1731139315.19716,726.0077943615626,804.8367822695774,663.3514058481153,806.3747525489188
1731139315.200137,741.9444523822073,807.3083311870563,698.9911214706857,805.511636500982
1731139315.2010603,808.4248610980941,810.70288670264,790.4012137428897,805.3950163891931
1731139315.2049608,872.8203023618412,812.771195592468,872.541173297521,805.7118746399133
1731139315.2088614,881.985007262406,811.3617200150762,888.4392792797913,806.0547215399495
1731139315.2110617,826.4881155909278,805.8110158682028,833.2252598207549,806.2304591003204
1731139315.2127616,748.9335069662046,797.562023987173,755.1430935225802,806.2588958300596
1731139315.2139697,710.1359354919638,789.6811224097901,715.3787992489081,806.2389856218311
1731139315.2166622,741.3132386839527,785.4045665250989,741.1786472812614,806.241851840187
1731139315.219035,820.6067640746903,786.3326821271264,808.8428865232374,806.2821868829056
1731139315.2205625,891.6930743600874,791.3438774651116,866.7206243890047,806.3412171202854
1731139315.224463,908.7079670103799,797.1801214056363,876.9910819549772,806.3974853800377
1731139315.2266464,871.3097336509315,800.5710574480927,842.6223002054935,806.441760068965
1731139315.2283633,821.9395186735173,800.3893698861764,799.8929159071232,806.4758041056596
1731139315.2322638,808.0778342129014,798.0747456027582,785.2059087869666,806.5049728873445
1731139315.236164,841.237279213686,795.989784403123,805.0844033399497,806.532784261241
1731139315.2379327,887.2705977392769,795.2544858952255,833.9421545695853,806.5597344208074
1731139315.2400646,896.1610565483727,795.0561161543159,839.5158159604795,806.5846903710163
1731139315.242231,846.0551182158146,793.9456668082553,812.6085907035292,806.6065291075121
1731139315.243965,764.3874300146908,791.6877081452403,775.8826509777134,806.6248488742891
1731139315.2478654,708.1799532083198,789.741582343338,765.5630925005448,806.6397973081617
1731139315.2487235,719.2867255528149,789.8524746423018,801.9274388705187,806.6515754758826
1731139315.2517655,790.7525415766729,792.1356462141691,871.7971044912547,806.6601080453341
1731139315.2556665,871.5607035424691,794.6211270556188,935.9634455716508,806.6651034104225
1731139315.2568307,906.3790595579708,794.9094919670766,956.3180726831957,806.666464857717
1731139315.2578156,878.7686842876021,792.5547223358133,923.6687111588201,806.6647479915066
1731139315.2595663,822.9876173238291,789.9319034105481,865.8129959341315,806.6611232883909
1731139315.2634673,794.3444512008881,790.5519480068392,828.1042692433491,806.6563662993196
1731139315.2673674,822.0696662220922,796.0554915025425,838.9848717412991,806.6491269976069
1731139315.271268,884.0460825016917,804.4081191498632,886.5347860103724,806.6350434483356
1731139315.2734,925.2464392419171,810.9206188143447,926.0279934116913,806.6090812039012
1731139315.2751684,904.8563062375085,811.4173239530083,914.6438769645225,806.5719525051319
1731139315.2757287,832.3923285722419,805.1842032455977,846.6862982410196,806.5366878845613
1731139315.2790687,762.3006179453771,795.5780305071247,760.9042691143102,806.5260132826353
1731139315.2829692,751.3106487223044,787.965279489556,713.0723634270807,806.5521552836177
1731139315.2834778,813.2466688842316,786.491565845807,734.3694523531146,806.5851250489868
1731139315.2868695,907.4060932339871,791.812943900592,807.5661190092319,806.540302105846
1731139315.2889848,969.4023505084841,801.1026869417461,879.8901171043885,806.3289650342747
1731139315.29077,960.0624212442264,810.0665514774701,903.4328544663406,805.9818046508775
1731139315.2946267,894.1692944549033,815.4476330836526,871.8514323139935,805.7626575570315
1731139315.2946703,826.667932560883,816.3937167709242,823.5674444715515,806.0940759531869
1731139315.2985709,807.5030488712912,814.0879939012123,807.8166002977275,807.1530883834445
1731139315.3024712,841.6711982211117,810.3583926635787,841.4243550439011,808.2865541905732
1731139315.3045695,887.2791920410863,806.5370632057186,893.8507808633937,807.854433145555
1731139315.3063717,893.0815734950628,803.2821870473413,914.6672403020116,804.289503915209
1731139315.310272,843.7079632057594,801.0470641558359,879.8678333960167,798.4253120849002
1731139315.3135247,774.2236844011175,800.3949749609673,815.5285384880412,795.3248207635088
1731139315.3141725,741.6679504787018,801.7666492585179,776.7851636072119,802.4494528046359
1731139315.3180728,777.3131254380683,805.0207897852677,799.7954383106036,823.2146917354355
1731139315.3182318,859.1571974337915,809.3017342437847,868.5277517135055,850.8721046617145
1731139315.320154,927.4072559269196,813.4155167592103,925.7647521869919,870.2683395140989
1731139315.321973,930.9553112403014,816.4203343027878,920.0034078939087,868.5601761379586
1731139315.3258736,867.8862211864075,818.001213532302,849.1885577996234,846.288283803809
1731139315.329774,787.3610167561134,818.3987246812718,764.065936828971,818.4319584813887
1731139315.3324227,750.7757793226701,817.9840542229135,727.2030642632238,803.5483197850965
1731139315.3336744,783.1123936396627,816.8470194705709,761.2664711629774,809.7089071854994
1731139315.335739,853.8565597740974,814.8049695841083,830.1825381185981,828.9491755559809
1731139315.337575,902.863045267218,811.8939273065286,869.6552427866665,844.6833182185588
1731139315.3414752,889.5511669176566,808.8727322608376,841.501778723901,845.5218496374297
1731139315.3453758,824.9688217071896,807.1249316506396,765.7873904704179,833.8805591092429
1731139315.349276,761.3139548459112,807.8623139293371,704.0288344535765,822.7536612000946
1731139315.3513207,748.93681806207,811.2248134965862,708.6533579656132,824.1172009910886
1731139315.3513231,796.4530712171476,815.9915740938716,781.3968647063411,838.8380938187452
1731139315.352986,865.3279258479336,820.0895965100784,873.6913788480605,856.0185702232242
1731139315.3531766,901.8377095707633,821.5226034227064,926.2042099587146,861.9230445137653
1731139315.357077,880.2142148879698,819.2174759870773,913.9943052182637,851.3155978973017
1731139315.3609774,822.6568993839675,813.4739868190421,861.7774834815633,832.236462089688
1731139315.3648777,780.2084725583289,805.8866454632536,819.4441207869876,820.1106989289431
1731139315.3669078,789.7647199733781,798.7472571401231,819.7477392637949,825.4136491838636
1731139315.3687782,842.601328051447,794.1503219072067,853.2034010153659,844.7594237513024
1731139315.3702188,891.3105018938368,793.2219432138476,879.8292481551777,863.1591330575537
1731139315.3726785,890.1951875088614,795.8307716715799,866.2708402061974,866.1611062899256
1731139315.376579,835.2673312287505,800.8045487758873,815.9423440488844,851.9332353042586
1731139315.380479,769.4850016798899,806.3992216566919,766.6562936523773,832.9195584058314
1731139315.3824923,748.0465478468033,810.8132438463372,758.6029031460928,825.4188762835659
1731139315.38438,792.4814929277917,812.7259634038795,800.5792490747929,835.8275564327521
1731139315.38774,871.7807043697002,811.7954582673667,862.6773017218078,855.1722368694492
1731139315.3882802,926.2959707049663,808.8099305293687,900.3856842421047,866.5015532148869
1731139315.3891168,915.098327399061,805.2135482474656,889.454886965861,858.966147925437
1731139315.3921807,848.5519093163338,802.2289475908996,843.7878335972773,836.9645504613696
1731139315.396081,779.6523796862716,800.2678561960699,803.4621129047266,816.7666991381325
1731139315.398077,760.7634686947549,799.0987140314523,803.1974086313672,813.1963561589109
1731139315.3999815,800.8189318986902,798.451269731794,845.6104896938044,827.2189063682841
1731139315.4038818,858.4900262955532,798.2893656250455,899.301778566937,844.8641518486138
1731139315.4077823,877.499899578959,798.4563574620427,923.0267247110716,848.7271216021387
1731139315.4080148,834.8225940989272,798.2457674797251,897.5511452399106,832.6921104488252
1731139315.4116826,761.3249025182731,796.6229387471656,840.8179832200063,807.5762929520325
1731139315.4136617,717.5129453517078,793.0725055215711,794.6806107146554,792.8159722395641
1731139315.4155831,744.4456409670432,788.2434816359105,793.2679384485127,800.845690423103
1731139315.4194834,829.7919939393091,783.6652202077781,837.0575965049798,826.7655876538504
1731139315.4224942,915.9462223922479,780.7429935359758,892.1918148601563,851.5828054383404
1731139315.423384,943.378369642436,779.9906104750308,915.4797860402824,856.5553014031264
1731139315.4269128,895.3432005362654,781.1783885332327,886.5747135794139,837.5230236480871
1731139315.4272842,809.6875047943045,784.049526094053,823.5624879554482,808.0832021377717
1731139315.4292464,748.9346194509106,788.6209045820945,769.98993424505,788.9889188982053
1731139315.4311848,751.8459107440294,794.5905856756295,762.1754338892015,791.8915284435135
1731139315.4350853,804.3690945124816,800.5205741461355,801.2439660994761,810.2905508677061
1731139315.4389856,853.2330843615242,803.966936580546,852.4838986551902,825.1495379091845
1731139315.442886,851.406295795477,802.9150307231248,874.1543048572364,820.823403687377
1731139315.444831,798.1009295398013,797.4821552703156,852.9856667148458,798.2842224473891
1731139315.4458108,739.8585207935693,790.3157662923777,815.7488127487892,774.6945561563866
1731139315.4467864,731.4442839910627,785.0880125356716,805.2021200114369,769.6635560657738
1731139315.4506867,788.9590449603634,784.1218815156617,840.1711757941974,789.4639787936369
1731139315.4545872,874.2329415063751,786.9749802679584,895.2751801191245,821.9497222254912
1731139315.4572482,923.7842883897614,791.0379590242882,920.0022651448912,846.0068101115365
1731139315.4584875,899.1177767897736,793.5771441382359,882.2665837488516,847.717188708592
1731139315.4604156,817.8066965254702,793.5734829147752,798.9321632215875,830.4102949801321
1731139315.462388,740.2594341667386,792.024399346711,725.6358316754498,811.0326847357366
1731139315.4647088,722.5438888883683,790.7065935551061,712.624616571049,806.20816095766
1731139315.4662883,772.8777543426297,790.5931128001747,762.9931209352013,819.2891353787307
1731139315.4701889,846.6758722358561,791.2412286478217,829.157573784733,838.5788789757196
1731139315.4740891,884.0286372633499,791.5078327902377,852.142972039288,847.7753034432056
1731139315.476,858.7806559327453,790.7805135446757,811.7466280435204,839.819866031484
1731139315.4779897,798.7825544507399,789.5587360223572,745.0202713670786,822.6909266031835
1731139315.48189,761.0747213829886,788.9447930989799,716.2379769528973,812.4727778069796
1731139315.4836068,783.4741110682065,789.6531193344347,762.7583245304454,819.6246225367189
1731139315.4857905,853.1277915816995,791.500466899873,862.3896071547064,839.9117287541452
1731139315.4896908,917.4595668204083,793.7512039691907,950.0084757802214,857.4657214085715
1731139315.4915848,927.4843547976042,795.8559090416104,969.4740735374334,857.4607158596182
1731139315.4920022,877.5575230608122,797.8491304167768,917.4700411250069,838.1399879266534
1731139315.4935913,809.4855487788168,800.0961845645055,843.6147087731135,812.4631544019373
1731139315.4974916,778.1969673891334,802.6971600959527,808.3018768516249,797.9234685702941
1731139315.501392,807.1627174764561,805.1323995224801,834.2394220063321,802.6586220759706
1731139315.5025048,870.0125923592493,806.5077179220433,891.2760955939225,819.226778202451
1731139315.5052924,913.484596053748,806.234572236697,925.1930279865277,831.3291739673084
1731139315.5071695,902.660004721411,804.5538756988391,904.5721273022237,827.9041212033133
1731139315.5091927,850.5051182609625,802.3621731773881,845.9434857250178,812.5607354761395
1731139315.5130937,806.637534420944,800.3965178247307,797.1040962291177,800.2202899729062
1731139315.5169938,814.7124859977439,798.5200301143813,794.5278962981774,803.9368474568498
1731139315.5208943,874.4340541709148,795.9057619067994,832.21846905634,823.3266096521518
1731139315.5214028,940.0701430623078,792.1142992504676,868.212169485627,844.4291461628795
1731139315.522754,956.6689228923186,788.0924066398549,861.9286795949303,850.9786661601233
1731139315.5247946,904.4957566416385,786.0107681266359,809.8945670429007,837.7508074688765
1731139315.5267563,816.2043193147258,787.8508302453587,750.121773801673,815.2764683360041
1731139315.528695,753.1242659896552,793.8378054367627,732.2408949294294,802.1578295912503
1731139315.5325954,758.8838991255132,802.0337672603956,777.977067980282,810.8042837998702
1731139315.536496,826.29604185243,809.4320525960904,863.1518944714239,837.573106894117
1731139315.538339,903.5698979198498,813.6696935846649,934.6375293906464,865.1865717828413
1731139315.5403008,935.3134294153951,814.1051468839229,948.7678448689744,875.8899122639931
1731139315.5403962,905.8293457056295,811.6865369493395,902.2276246143335,865.1363295218875
1731139315.5442967,849.6903032463487,808.0029803532615,832.9132317092937,844.771484263627
1731139315.548197,820.8862744050631,804.3501754191624,790.8808780309555,832.9885015499303
1731139315.5520976,846.2641843408273,801.3847613352475,801.4880360842141,839.2816982687561
1731139315.5539231,902.4909577966694,799.3748342433538,848.1428492250703,856.949415497063
1731139315.5559978,936.050724837077,798.6222370371963,886.7790404225144,869.367176054837
1731139315.5591989,909.3278359262265,799.5689715663113,880.0805690578876,864.5568973184089
1731139315.5598984,833.8888925691479,802.4119891557758,825.2513894473515,845.6120171830756
1731139315.5615103,762.9313918390033,806.53509576522,755.1191714903276,828.1756511449437
1731139315.563799,748.7661842764167,810.3552386189117,712.9642322730705,827.1304005491533
1731139315.5676992,800.0710225676067,811.9574122873404,720.8081774453094,843.7298830190326
1731139315.5695078,874.2237362170457,810.2332144867661,765.0933070307149,864.1327677844296
1731139315.5715995,911.614511357177,805.6960686764797,810.0262880026564,870.8327768430073
1731139315.5755,884.0753537887997,800.2944405693058,827.3680649936153,857.5098980812832
1731139315.5780969,817.2393107874487,796.320442784626,818.3339334445689,834.6319136148633
1731139315.5794003,768.0039358810361,795.1863944726819,809.3883931918823,820.7717499589781
1731139315.5833008,776.071804573621,796.8134713742382,825.3717164022789,826.8105846418204
1731139315.5850923,830.5146384521975,799.830198734344,863.3789798851519,846.4172798760683
1731139315.587201,879.2991076593972,802.3358970614794,891.463614201762,860.9157063037486
1731139315.5911016,873.1280220983654,802.8763771480526,875.3345614575418,854.4799142551072
1731139315.595002,806.6133140762703,801.2473289401636,810.9916688792333,827.1119109534384
1731139315.5962644,723.2667170490214,798.6738641516753,734.1946869778983,795.0474180902407
1731139315.5969949,681.3173571003349,797.0984853220557,695.9976759856313,778.6303655624447
1731139315.5989025,708.4339953556408,797.8902388228315,722.3007871848279,787.3661239967563
1731139315.600677,780.9196737685664,800.8452361130464,790.416689647017,813.4875756970987
1731139315.6028028,843.050682305509,804.2791649345254,843.9114586195966,838.4926446914159
1731139315.6067033,851.0113051623998,806.2293779860958,836.5086479964402,847.2634573346407
1731139315.6106036,806.568525016877,805.892507880509,770.4609372009472,838.7316214667715
1731139315.614504,753.3595935056499,804.1921751942249,696.6836810013167,824.8752863880379
1731139315.615893,738.8060345570332,803.0295246114374,674.4109288967973,819.2758120061965
1731139315.6162615,773.4858692898432,803.7868423800395,722.8791227083489,825.0760784727387
1731139315.6184044,822.4142852516446,806.2144461578596,805.749410169575,832.5827890131458
1731139315.622305,835.7297193315876,808.5269718022557,861.772825448168,828.3993409848933
1731139315.6262052,792.5771698571865,808.6398101454785,855.5573381131549,808.0800391506723
1731139315.6301055,720.7163510174275,805.6522244741373,805.1564961684063,781.3910187723584
1731139315.6310184,675.0893881480561,800.504890094684,763.7865668236641,765.603549651628
1731139315.6318464,693.0917036388405,795.3419126539961,772.7780249158261,772.1847243740918
1731139315.634006,763.4512671160749,792.0757959337886,826.7279967789075,797.5629299254713
1731139315.634791,834.3867699191779,791.2516332064682,879.9189909200654,825.3975527762068
1731139315.6379066,854.9982947445973,792.0288408529566,887.185086299572,838.817016520734
1731139315.6418068,816.7671952778082,793.1567811262189,843.4659201777159,833.22861211213
1731139315.6457074,760.8838161730199,794.0304688850161,787.9444894415242,819.5106279472933
1731139315.647431,744.0445828554615,794.9582517746052,769.1943640951941,814.7292150441845
1731139315.6496077,790.0507519791407,796.5505762954044,801.6595016058412,827.6852568003519
1731139315.6535082,867.8752168751271,798.8969408152706,851.8451866156108,851.189805648762
1731139315.653689,915.6734859918257,801.3047051076443,866.9792651304651,867.597532719198
1731139315.6574085,891.4769104057182,802.8339949575363,821.627223135752,863.0824359845577
1731139315.661309,808.5672784694893,803.1662068423614,741.8961746500795,838.9380932587973
1731139315.6630156,726.4216519606168,803.0224504768285,686.3584383066593,810.8599727781774
1731139315.6652093,704.8454973105654,803.6673797708532,699.7996980246314,797.0553838849411
1731139315.6657724,758.1570068592002,805.8091120168591,777.8838122718821,804.7450424447333
1731139315.6691098,845.109883122198,808.8201281550444,870.3640960123746,825.4779744906356
1731139315.672587,901.5537143724127,811.0425889754592,918.729249271442,842.5665027792636
1731139315.67301,889.9368075917287,811.0279610412919,898.1882058847102,844.5594714911633
1731139315.6769106,827.2253792091609,808.6855250140926,832.8047252662761,834.0286665204601
1731139315.6786,769.6296575776813,805.3395310264498,774.5411724090144,824.6124988803631
1731139315.6808107,766.400605596843,802.6637833144226,763.8830808679755,828.7317584052589
1731139315.6847117,819.9817165438267,801.4746922694761,801.932096648738,846.2946330183953
1731139315.6886115,885.0989167096513,801.4345282582161,853.5387467473821,864.2047093263284
1731139315.6914847,907.3605426540809,801.7802037068524,876.9040057861138,867.4281968830614
1731139315.6925125,868.9051270574915,802.1987021892409,855.6916071067392,852.2921783085602
1731139315.6941848,802.949488988872,802.9322132688308,809.4266249789276,830.4828819076223
1731139315.6964126,765.639910760903,804.1357673045184,775.9379053909589,820.0363089145123
1731139315.700313,789.3210797682391,805.3792596003359,781.0258644377036,830.7245771465922
1731139315.7005267,856.0365730281122,805.9574616713651,819.0599898809179,856.0051301253202
1731139315.7042134,912.4794262522435,805.6069676933733,858.5490134621155,878.0859814584404
1731139315.708114,913.4569673845833,804.7287501588098,867.4016198275172,881.6424953989489
1731139315.7097695,858.3108064153682,803.9303430082371,838.1895887498875,864.7802064367426
1731139315.7103827,791.0546924485419,803.5195604782267,794.147889152116,838.7447952062051
