timestamps,eeg_1,eeg_2,eeg_3,eeg_4
1731141350.6860404,804.0137596562356,792.2304745764018,799.2880709835888,799.9180626394816
1731141350.698699,801.0653947806121,792.1535200291257,799.1563752219553,808.5062388094332
1731141350.7016664,799.5636560787078,791.8767945507669,800.0812678907278,817.7517031206772
1731141350.702602,799.8484800673589,791.3097190162774,802.0183386333543,826.7492328013595
1731141350.705206,800.5079660059363,790.4564781550445,803.5876459946271,832.8952033759434
1731141350.7065046,798.7354374815119,789.2927081045083,802.9893741863647,833.2613849614585
1731141350.7104075,791.8961281039528,787.6902809556749,799.4835751015145,826.2476416179762
1731141350.7143102,779.5864480763062,785.5395283955451,794.2802455735476,812.2855168179262
1731141350.7172923,764.6299522942293,783.0005279092888,789.9700939959442,793.4395187924664
1731141350.718213,751.8251435788286,780.6031501970862,788.7488022171954,772.6412458747617
1731141350.722116,744.990115226637,778.9902050966728,790.7996698641261,753.1613766572577
1731141350.7240512,744.5005574990437,778.4498082242854,794.2092041122912,738.2137833129597
1731141350.726019,747.3706573866605,778.6490258356141,796.5091818194248,730.3113617114269
1731141350.7299216,749.8809044911196,778.8272780794047,796.504552999867,730.4413060029881
1731141350.7329185,750.5944488335825,778.2671935411005,794.8597806546868,737.611021468284
1731141350.7338245,751.2829151236034,776.6405896475843,793.1381538616998,749.1972221621294
1731141350.7377272,755.089515331692,774.0774229453222,792.3608736396073,761.9790395873734
1731141350.74163,763.5737926036836,771.14270138896,792.3720781367545,773.2999831241042
1731141350.7428968,775.0918462123309,768.8312998959727,792.3432476891519,781.742898195238
1731141350.7455328,785.6913586573368,768.3502453881944,791.7263658229178,787.0099251380731
1731141350.7485445,791.6270572869989,770.4822273444217,790.7925906074948,789.2722740378446
1731141350.7494357,791.5028296291002,774.8678138416911,790.4543520694325,788.6910653840445
1731141350.7533383,786.5832897186737,779.9334238887874,791.6298032934374,785.5700415310147
1731141350.7572412,779.328931644217,783.7758038867942,794.5626677885374,780.8001054904362
1731141350.7611442,771.5634874514082,785.3893179681348,798.4255299253095,775.8254453933142
1731141350.761742,763.9396656681984,785.1822171874819,801.4428789953284,771.9110321904744
1731141350.7641704,757.1610512462901,784.3214297148462,801.6193103720153,769.3968756324776
1731141350.7650468,753.5114058719809,783.5331872987449,797.8426065103014,767.7663632437835
1731141350.7689495,756.4889267161197,782.503004834204,790.7922495593358,766.5304179045072
1731141350.7728524,767.9929594739469,780.4602383941426,783.0191777613677,766.0472762917665
1731141350.776755,785.3263131278409,777.4207040702771,777.9283610634612,767.3851273924532
1731141350.7797966,801.2561889915595,774.897440241846,778.0464579047998,771.1992256025494
1731141350.7805874,808.0180794398453,775.2539329720624,783.50854957894,776.5493024222231
1731141350.7806582,802.4680605402826,779.9941863897819,791.7440777017788,780.8013772082579
1731141350.784561,788.218930178454,788.2899674005649,798.723937018907,781.0050483568066
1731141350.7884638,772.9878510705271,797.074813890259,801.1324228036641,775.9368561571847
1731141350.7923665,763.344101982692,802.882444516122,798.1260303486451,767.3030258846916
1731141350.7954226,760.987979076688,804.0993273903365,791.5662426003603,759.0560337520587
1731141350.7962694,763.0817359392752,801.8189582321819,784.7101726532926,755.133722567184
1731141350.799433,765.6992619836583,798.6436064801499,780.4204920554567,757.1222331365412
1731141350.8001723,767.1954460003852,796.5762655158586,780.0762679143905,763.4254028111129
1731141350.8037405,768.8385510132784,795.855362112751,783.5414899428649,770.4571014460846
1731141350.804075,772.6138000883942,795.569490884211,789.7033204520034,774.9953255618645
1731141350.807978,778.5037334931422,795.2163056035903,796.9810613285168,776.1202116096941
1731141350.8110485,783.870564482108,795.6095067873958,803.6575271685995,775.5109847112788
1731141350.8118806,785.5481962626025,798.2495986317448,808.2300959735927,775.98176610893
1731141350.8157835,782.659968830208,803.6959368755611,809.8992912959428,779.2756252859457
1731141350.8182783,777.4712235094142,810.3817983959063,809.009178117252,784.6367429343821
1731141350.8196864,773.5179771519195,815.0150013328922,807.0589101580863,789.2098635478825
1731141350.823589,772.8772313901375,814.4774814713784,806.025589960781,790.0624269052314
1731141350.8266745,775.0784240257443,807.9349563102994,807.1949396872496,786.364795226075
1731141350.827492,778.3115748022195,797.6267131548261,810.2086756044873,780.0190781387678
1731141350.831395,781.3859983888332,787.7342275356835,813.1033311004397,774.1959975703829
1731141350.8352976,784.5385729149967,782.1115765398409,813.4957631136323,770.9676550043948
1731141350.8371236,788.6638520795719,782.413613517711,810.1789621356172,769.9830123558122
1731141350.838667,794.0422707465092,787.7278683589576,803.990168733409,769.1935173915482
1731141350.8392005,799.7967749154694,795.6403449203266,797.2939714519268,766.8602417919092
1731141350.842301,804.3840624892641,803.7290877543998,792.4480385938512,763.081453875061
1731141350.8431032,806.5800172084398,810.4328684233406,790.4001275610932,759.6831861039187
1731141350.847006,806.2717254702968,814.9482067374672,790.4621061925044,758.8267863383243
1731141350.8509088,804.6428375133562,816.6285320308918,791.3387886347087,761.674099584865
1731141350.8548117,803.6137659454744,814.7062286603534,792.4241549126001,768.1042845083335
1731141350.8559692,804.6982438472833,808.8072282492976,794.1756790877373,777.3019221301502
1731141350.8579266,807.8932187394425,799.9073563330779,797.2895370679977,788.2756636454249
1731141350.8587146,811.4937751935598,790.7359969098127,801.5975382310555,799.7360174073009
1731141350.8626173,813.2448185926129,784.861271502048,805.899670648943,809.7437278563057
1731141350.8665202,812.0824106056153,784.8109674681418,808.9853098966324,815.9715835648379
1731141350.8704228,808.9357580153384,790.6053701574186,810.8240509524884,816.7840242067585
1731141350.8735526,805.7115807154566,799.8649356926605,812.6572107640296,812.3484153919866
1731141350.873593,803.3339172632969,809.305979342562,815.7993012037738,804.776356765204
1731141350.8743258,800.8304241498107,816.3540180817647,820.2648490309416,797.0995401616041
1731141350.8748145,796.5675940641938,819.8563326141684,824.5311831399309,791.8603347040394
1731141350.878229,790.5131392925448,819.9330496332577,826.668972912074,790.2998701824266
1731141350.882131,785.105664330262,817.5639118242117,825.8205041079378,792.4554799751835
1731141350.8860345,783.4718193178959,814.1849161482594,822.7504819510178,797.6296474196033
1731141350.8891785,786.3939122335147,811.1614795425802,819.0758240709882,804.4846369051946
1731141350.8899367,790.9439748959235,809.1781526139728,815.9252903610324,810.7128915008225
1731141350.8936598,792.4025440782115,807.982968316553,813.1973784826336,813.1559673879456
1731141350.8938398,788.0929397473578,806.8138602099085,810.0094948843754,809.2067914787884
1731141350.8977427,779.9064746681394,805.2010345904133,805.914892574397,798.9706810893173
1731141350.9016454,773.2850324572108,803.416751342214,801.8248769335328,786.2833946537014
1731141350.9048047,773.3073181564033,802.1528893878938,799.7791400652337,777.0623682816691
1731141350.9055483,780.7817497064249,801.73288725885,801.5948753983772,775.648688556956
1731141350.9085195,791.1863880781352,801.5908268585706,807.333615667542,781.751555759483
1731141350.909451,797.2548130304477,800.5391927300228,814.755786389087,790.3846461431418
1731141350.9125054,793.6143611658555,797.7249038055426,820.2989813068646,794.9691280935219
1731141350.913354,780.5899656402624,793.5780664365366,821.0896671963495,791.5096235045708
1731141350.9172568,764.6717830874644,789.8917429320476,816.7835422815483,781.126740808304
1731141350.920431,755.0140821495551,788.7055385623942,810.0318152619058,769.4226071323909
1731141350.9211595,757.8133296524503,790.7120538222049,805.0819390388818,763.1255533958482
1731141350.9250624,772.0516713018571,794.5772212218425,805.1591982926673,766.0186514570389
1731141350.928965,789.5896175348321,797.9540963365295,810.2638798240928,776.6018526139594
1731141350.9313507,799.9356168529818,799.3769457087876,817.0516585666126,789.0388911048126
1731141350.932868,796.8360789548543,799.2550759062404,821.1378328160436,796.9393731833853
1731141350.9360566,782.3601270409296,799.0422034584531,820.239173389239,797.4637855001675
1731141350.936771,765.614230504274,799.536853327955,815.6928749780519,792.757497178763
1731141350.9406736,756.8142410359407,800.1258628504035,811.0994781643797,787.6579368442053
1731141350.9434462,760.735029065192,799.6886084625814,809.2628463148594,785.6560019414351
1731141350.9445765,774.0788309075862,798.0844974423825,810.0698767677043,786.5207552457506
1731141350.9484792,788.4487008147495,796.590027784659,811.0617191651608,787.3909602043667
1731141350.950196,796.4344165094095,796.8196904276041,810.011927517609,785.9966306736582
1731141350.9516826,796.1241820409191,799.2246298535482,807.1055082594904,782.9561058710681
1731141350.952382,790.9282888220243,802.6256002725485,804.8174244450877,781.2176196421078
1731141350.956285,785.5459508134909,805.162688405391,805.7234448787319,783.3519459415829
1731141350.9601877,781.8632275944684,805.7084217234681,810.239104120252,789.1112925128198
1731141350.9640906,778.1748949914955,804.4902320960256,816.1748712328596,795.2366807918688
1731141350.9673088,771.9584115755221,802.5678934061463,820.3156751619871,797.630137190022
1731141350.9679933,763.3393172985005,800.8938799141541,820.6286837543946,794.2666341410396
1731141350.9690416,755.9670362664225,799.8651685689845,817.4842064794644,786.7260758647692
1731141350.9718962,754.4654549415004,799.5180697791095,813.2661716433599,779.1959295810317
1731141350.975799,760.7040842731094,799.7805973346108,810.8503011725359,775.6248581529067
1731141350.9783726,772.1736976695822,800.308281808524,811.9282702505564,777.1715565762414
1731141350.9797018,783.847410995254,800.1807394910093,816.0982999159256,781.9147717642783
1731141350.9829347,791.7533199813657,798.1610111340129,821.2096216115485,786.823431125025
1731141350.983605,795.1141278350105,793.703266485626,824.7000985092608,790.0090634227707
1731141350.987507,795.6892418700978,787.9214913577058,824.9616015389053,791.4218429609897
1731141350.987887,795.6929301303431,783.4370705318838,821.7795600711545,792.0232555819248
1731141350.9914105,796.3414990202801,782.917026398626,815.7854240588524,792.6950504968336
1731141350.9953132,797.7241673444215,787.3688576151555,807.7959716827745,793.7618931235996
1731141350.998561,799.4101229835804,795.5371298241362,798.8626396638656,795.1153500983414
1731141350.9992158,801.020832390434,804.751254430913,790.835018187278,796.5316421786576
1731141351.0031188,802.4389623577842,812.3851816424486,786.3951869272355,797.8782922714465
1731141351.0067322,803.7335406024756,816.8574074807988,787.8698688447844,799.1452469809303
1731141351.0070214,805.0108773049966,817.7902292604766,795.438562118132,800.3815455284891
1731141351.0109243,806.3270400056508,815.6625722283618,806.298967845791,801.6311045151701
1731141351.0132992,807.68157618627,811.4385818184011,815.838043803065,802.9082927122658
1731141351.0141869,809.0501135257132,806.3830553720748,820.212133228922,804.205885210331
1731141351.0148273,810.4133116520245,801.9802200012999,818.4720156565834,805.511969722871
1731141351.01873,811.7661588993428,799.741211283738,812.6966859564563,806.8201384922687
1731141351.0226328,813.1130127945446,800.7351508390784,806.2330740708833,808.1304262928321
1731141351.0255778,814.4596121043039,804.9116268909829,801.5719396560189,809.4456850736125
1731141351.0265355,815.8087790733932,810.6317388276753,799.3784852065651,810.7682629932033
1731141351.0298128,817.1603942705502,815.0177991589261,798.9487533275657,812.0988899998222
1731141351.0304384,818.5132240253548,815.38480030774,799.2358716100912,813.4372080327732
1731141351.034341,819.8664004921993,811.0953991624151,799.5446503229875,814.7826749877713
1731141351.038244,821.2198231902636,804.4011305938373,799.6568063873008,816.1350612762002
1731141351.0421467,822.5738419374678,799.2166743171115,799.6363790518716,817.4944591700158
1731141351.044423,823.9288314839032,798.4078829814321,799.6053967479527,818.8610808968357
1731141351.0454388,825.2849995252645,801.6671978041987,799.6269585420562,820.2351037900193
1731141351.0460496,826.6424356820105,805.7983639743658,799.6969164935122,821.6166449410981
1731141351.0482256,828.0012392174999,807.2552890183829,799.7839812945291,823.0058035240437
1731141351.0499525,829.3615633918635,804.860654367645,799.864459642738,824.4026693986141
1731141351.0538554,830.7235127309241,800.5208078222526,799.9326143317091,825.807252599744
1731141351.057758,832.0869717802401,797.4885832811234,799.9939545106705,827.219396475875
1731141351.0610647,833.451575587205,797.7197108019809,800.0553428558991,828.6388264177165
1731141351.061661,834.8170413556155,800.4498224543994,800.1199034135421,830.0654532697251
1731141351.0632684,836.1838265550689,802.9491975296339,800.1871705631728,831.4998159199587
1731141351.0655637,837.5535692362096,802.6246864274887,800.2553963632454,832.9431900710509
1731141351.0694666,838.9283785720364,798.7387746244805,800.3233435573995,834.3967560604809
1731141351.0733695,840.3084881930005,792.6006359255954,800.3907371565032,835.8597883884171
1731141351.076691,841.6895183048325,786.4583627645746,800.4578573366373,837.32820464813
1731141351.0772722,843.0628100972696,782.2275183801243,800.5250175634524,838.7960623914972
1731141351.081175,844.4224209663382,780.9423843647318,800.5923191841198,840.2617387725596
1731141351.082114,845.7774456080232,782.8638728757296,800.6596778129439,841.7360204586807
1731141351.083152,847.1588153666444,787.5986684900713,800.7269500397052,843.2428756704918
1731141351.0850778,848.6033652897595,793.9398765251545,800.7940249757273,844.8020745784207
1731141351.088981,850.1081709182263,799.8735158613075,800.860845218757,846.3948322294069
1731141351.0923169,851.5820823146303,803.291302469152,800.9273855982896,847.9398613123495
1731141351.0928836,852.8611460266585,803.1817480350661,800.9936253388296,849.3283438142251
1731141351.0967865,853.850103559526,800.3469568814438,801.0595287779313,850.5447966177163
1731141351.1006892,854.7510782832721,796.9622995132543,801.1250345819565,851.8110096736834
1731141351.1009593,856.1613226391349,795.3180606869391,801.1900558331918,853.5711568049331
1731141351.1045918,858.7200943883034,796.6907197069438,801.2545024842914,856.1189904702143
1731141351.1079428,862.2071609206732,800.9054144934621,801.3183315535204,858.903381096865
1731141351.1084948,864.6368064430295,806.4720413678205,801.3815968448009,860.0000006841899
1731141351.1123974,862.5378531959634,811.0889456329369,801.4444281330742,856.5082221890644
1731141351.1163003,853.2735607642314,812.5994025166503,801.5068754131189,846.2072552332999
1731141351.1180785,838.3175741003919,810.2960057650315,801.5686635553895,829.7006872647502
1731141351.1198046,824.3012470689767,805.749043667171,801.6290940077083,811.3453473757972
1731141351.1202033,819.4072584028906,802.1173806434939,801.6874314793224,797.5840612787937
1731141351.1235688,826.9224371181019,801.9251500025364,801.7438573435287,793.1375388319515
1731141351.124106,841.4859718739561,804.8444235096606,801.8003560085474,797.64769079474
1731141351.1280088,852.2355312952038,807.4976735821447,801.8601569334901,805.728775394259
1731141351.1319115,851.0607744554185,805.8644523777988,801.9246272156059,810.9481431046446
1731141351.1358144,838.9984669886403,798.5912690520573,801.9887493930913,810.6803862261166
1731141351.1386502,824.8053549701216,788.4835601972508,802.0398797044242,807.5055973019527
1731141351.139195,816.6576873114834,780.8215871623239,802.0659378388798,805.7070752075708
1731141351.139717,814.4616178619998,779.7586968816237,802.073616346551,806.1679795139027
1731141351.14362,809.9587543315787,785.594939043008,802.1033758111063,804.810224852268
1731141351.1475227,794.6541636248016,794.8839235207233,802.2149960449374,796.3887719099392
1731141351.1514256,768.3355309506363,802.9964538147404,802.4251134055093,780.0697044818623
1731141351.153005,740.485437449946,806.991154027773,802.6222675681588,761.3319122742272
1731141351.154821,723.4116541497779,806.788049380662,802.5482395107998,748.3048422678777
1731141351.1553285,723.0602632630429,804.2929138793047,801.9457355643402,745.9001005341796
1731141351.1574955,734.9392278660574,801.6721098050323,800.8458566431588,752.7659113153749
1731141351.1592314,747.8882432026037,800.2006888153348,799.7470448137848,763.0668850439471
1731141351.163134,752.2549852767962,800.1709934730197,799.3901314220993,770.9071732338768
1731141351.167037,746.2598933823332,801.3743294002735,800.1824128489209,773.7631885858785
1731141351.1704469,736.3359938328543,803.4643492828861,801.777545163368,773.0420826112776
1731141351.1709397,731.8264608271277,805.9397168629017,803.2689628848881,772.3484853171298
1731141351.1748426,738.13972567765,807.9436723902325,803.8303787699058,775.0417865712222
1731141351.1763408,753.0436798938686,808.2429130280351,803.1548744829222,782.3053635163677
1731141351.1787455,768.3365610248048,805.6514823058928,801.3251860459771,792.4659774942778
1731141351.1826482,775.5643667911812,799.863820127204,798.4699909972578,802.0023932355166
1731141351.1860728,771.9783401200987,792.2175554262013,794.8170567937989,807.9339715855799
1731141351.186551,762.8322630175987,785.6412778717099,791.180565217439,810.1085830425138
1731141351.1879313,758.3405377385094,783.3850178482918,789.1846819341705,811.4774996669804
1731141351.1904538,766.9605258093293,787.0485400617595,790.5646889751592,815.6724181664763
1731141351.194357,789.2883190605162,795.2099570207151,795.8006821096108,823.4509078651026
1731141351.1951864,816.9424731039354,803.8218619272145,803.2230021081026,830.9781168325367
1731141351.1982596,837.6909186236176,808.4054503294532,809.6050330538149,831.9202864995948
1731141351.201699,843.4366744940679,806.7333114441776,812.087902258294,822.25678528238
1731141351.2021625,835.1202307205016,800.1940191215624,810.0576600416059,803.9985834568778
1731141351.2060652,820.7804941304523,792.8399038582664,805.4681198338295,784.3888959344051
1731141351.209968,808.6266897580563,788.7330059130594,801.3015946746154,770.905861215617
1731141351.2138708,801.1588172957192,789.4519894866753,799.3895074035524,766.2576716024255
1731141351.2140317,795.1671032542084,793.4901907746587,799.3095375968686,767.6585577635833
1731141351.217325,786.9057895561764,797.780249032248,799.106159195077,770.6448189233921
1731141351.2177737,777.1332592933504,799.9276303278276,797.0683347137033,773.4738430773475
1731141351.2216763,771.2528428149812,799.3546845303382,793.073178798464,777.9397714170142
1731141351.2228577,774.5947447017851,796.7619899193176,788.5669186844981,786.2638459450873
1731141351.2255793,787.2396271671449,792.917448053423,785.4648584207011,797.5601564399484
1731141351.229482,802.9224401448747,788.2101614477283,785.0266387227025,807.4923226244581
1731141351.232877,812.85336332975,783.2906253056909,787.508302309547,811.3512882721369
1731141351.2329507,811.3161839359695,779.7317498387608,792.4806514467341,807.5136190125611
1731141351.2333848,798.8790633137305,779.5578173675517,799.1156151977996,798.205343361394
1731141351.2372878,781.3155699162763,783.8128771315999,806.0721860071089,787.3335857173295
1731141351.2411904,765.6418576770161,791.5501001981352,811.3945436085465,777.7833924592386
1731141351.245093,756.4079316740979,800.2968088311949,813.0636188286867,770.5648996489998
1731141351.2485769,754.5130524292726,807.5543011350375,810.1814341650951,765.9784759595664
1731141351.248996,758.4327243926065,811.9496605984781,803.9459035467279,765.0002722271659
1731141351.2517226,766.0077443639682,813.2667136570767,797.5011743022931,769.192421175393
1731141351.2528987,775.2106272597556,811.8714482375613,794.5084292697717,779.1820476276016
1731141351.2568018,783.9181600935747,808.4521583093247,797.1925073211663,793.2442807049581
1731141351.257784,789.8144178500528,804.2015639081222,805.0136621665183,807.4299150075415
1731141351.2607045,791.1135105938388,800.7563942060619,814.7992232701545,817.3349048449309
1731141351.2642033,787.6148655407343,799.456066942069,822.3505466043396,820.3607012546206
1731141351.2646074,781.0803616873775,800.438139494983,824.6501092445735,817.0665375688461
1731141351.26851,774.4334249630053,802.5081029828979,821.3683000387425,810.8332467786435
1731141351.270568,770.1443000644554,804.0367178460339,814.7596198336473,805.9677317630055
1731141351.272413,768.7398858736874,804.1181192508328,808.067571648001,805.2184104843881
1731141351.276316,768.5052420407277,803.0057377438991,803.5361535736716,808.1776635154722
1731141351.279829,766.9637936426439,801.6078212087967,801.3393827270097,811.7557513018978
1731141351.2802186,763.4450137152705,800.6723969724001,800.0283110175726,812.600891357032
1731141351.2841215,760.6494447373267,800.3764044115238,797.9900916336072,809.7451133316772
1731141351.2880242,763.2275584920295,800.4678761892511,794.7286254488031,805.304287513231
1731141351.2894132,773.7489770764253,800.6226896230502,791.0100062548876,802.4964911504763
1731141351.291927,789.2696064144665,800.6704746305181,787.9002797942068,802.5719944029124
1731141351.2927103,801.9872920848113,800.60762154991,785.6917585604978,803.3970963487743
1731141351.295455,804.2768801523598,800.5025682012093,783.8102100747451,801.1651054642232
1731141351.29583,794.3370842918872,800.4113380183612,781.8222854154086,793.9296597612694
1731141351.2997327,777.677439582992,800.3494046689192,780.4649443802014,783.8067519212501
1731141351.3036356,763.0654640082134,800.305069382165,781.445780291665,775.6222399992918
1731141351.3075385,756.4107525636455,800.2622325970642,785.9516000260252,772.9094157179738
1731141351.3082588,757.6781447534828,800.2129457232172,793.2096012475494,774.7069262925144
1731141351.3110812,762.6960926249836,800.1577178752417,800.5570045472933,776.0830480980941
1731141351.3114412,767.2162338237531,800.1003646500001,805.1031785263162,772.059036680003
1731141351.315344,769.4615896634259,800.0437285909381,805.607437658993,761.63174458875
1731141351.3192468,769.9442114331008,799.9884479943561,803.0792914058777,748.6355390731956
1731141351.3231497,769.93246043703,799.9338051553266,799.8102053180505,739.005803274693
1731141351.3267071,770.2637356560464,799.8789383673035,797.7944785094511,736.8421264746949
1731141351.3270524,771.0788556167546,799.8234529711077,797.7242698650628,742.1412037245865
1731141351.327104,772.135146233677,799.7673923013083,799.0350091604304,751.3384437249898
1731141351.327637,773.1780358557326,799.7109516608191,800.657548611134,759.7968958853843
1731141351.3309553,774.1073665976986,799.6542605676808,801.8017214522557,764.5268420225774
1731141351.3348582,774.9521229714938,799.5973304134139,802.2845324074223,765.6364647639303
1731141351.3387609,775.778789250111,799.5401059315352,802.3604679945503,765.7180115310019
1731141351.3423333,776.6285003095225,799.4825291347059,802.3617941589055,767.4319263580679
1731141351.3426638,777.5058582975299,799.4245686690587,802.4672904094546,770.8500190812215
1731141351.3459494,778.3969505151887,799.3662159704269,802.6847981420705,772.7928836690417
1731141351.3465664,779.2886625033883,799.3074695609982,802.9459921496012,769.3610377313377
1731141351.3504694,780.1764809677546,799.2483240685273,803.1932329741101,760.2828588582815
1731141351.3543725,781.0624739881658,799.188768144776,803.4097422577454,751.5074403046077
1731141351.357959,781.9503113145831,799.1287875179577,803.6068858522297,752.9107832361956
1731141351.3582747,782.8421240428332,799.0683683529653,803.8010718546201,771.4625898625583
1731141351.3621778,783.7381171538156,799.0074986526952,804.0006538930741,804.3640540343548
1731141351.3625634,784.6376071523279,798.9461679502112,804.2053292429401,837.8992009755175
1731141351.364795,785.5400231642867,798.8843664670648,804.4112871848769,854.2426002483993
1731141351.3660803,786.445265901149,798.8220845765272,804.6156132461922,842.3652341682206
1731141351.3699834,787.35356622157,798.7593127417427,804.8176220502122,805.3883160459685
1731141351.3735852,788.265218783468,798.6960417051191,805.0180373020693,758.8653876248028
1731141351.3738863,789.1804319306009,798.6322626758136,805.2177588117521,721.2322392782766
1731141351.377789,790.0993235829429,798.5679674076764,805.4172224118307,703.4650843533757
1731141351.381692,791.021978392647,798.503148189812,805.6164146436092,704.9287229681432
1731141351.3836403,791.948482565825,798.4377978138685,805.8151596819057,716.9357040333441
1731141351.3855946,792.8789123792599,798.371909560108,806.0133439698008,729.851720450099
1731141351.3892112,793.8133119859053,798.3054772085015,806.2109736919165,738.2754977200437
1731141351.3894975,794.7517189071483,798.2384950617251,806.4081244604588,741.8313080604997
1731141351.3934004,795.6942612303648,798.1709579667901,806.6048760971611,742.848827524584
1731141351.397303,796.6412611070516,798.1028613304114,806.8012817670268,743.6657204745928
1731141351.39749,797.5931877805374,798.0342011301125,806.9973711770014,745.3202021593975
1731141351.401206,798.550325140965,797.9649739249614,807.1931663965889,747.7025497929062
1731141351.4024856,799.5122616011429,797.8951768678993,807.3886931188741,750.2975116388249
1731141351.4048371,800.4777121920628,797.8248077186042,807.5839827610824,752.7438043164321
1731141351.4051087,801.4453739299813,797.7538648540828,807.7790692122348,754.974170922014
1731141351.4090116,802.4159412132738,797.6823472753117,807.9739854756606,757.090492963978
1731141351.4129145,803.3938890482078,797.6102546126334,808.1687628848749,759.2039830874785
1731141351.4168172,804.3861229372033,797.5375871377844,808.3634324859875,761.3605226775604
1731141351.420463,805.3953013169114,797.4643457904539,808.5580263212141,763.5493461331263
1731141351.42072,806.4104708291312,797.3905322158107,808.752576206681,765.7421551224679
1731141351.4213312,807.4050639033351,797.3161487881687,808.9471094513132,767.9208828418339
1731141351.4246228,808.3549377629969,797.2411985827456,809.1416446384562,770.083235069627
1731141351.4285257,809.2768231335322,797.1656852820514,809.3361940087791,772.235217888657
1731141351.4324164,810.2583825465382,797.0896130801314,809.5307775684126,774.3827410523194
1731141351.4324286,811.4251095480084,797.0129867343272,809.725443675693,776.5280704872719
1731141351.4360893,812.8085804244093,796.9358118976903,809.9202745959949,778.6705817337205
1731141351.4363313,814.1772623509767,796.858095633174,810.115348977228,780.8088915754892
1731141351.4401765,815.0278272669209,796.7798466146729,810.3106586865644,782.9422505062802
1731141351.4402342,814.967641610434,796.7010743179922,810.506040393451,785.0707472694751
1731141351.4441369,814.4670894627086,796.6217870479874,810.7012409176473,787.1948737135305
1731141351.4480398,815.4271991174377,796.5419901352784,810.8961987678019,789.3150844179954
1731141351.4517152,820.6416761183217,796.4616871574785,811.0914193598355,791.4316280077102
1731141351.4519427,831.7951013054178,796.380886429565,811.2880227198012,793.5446032555434
1731141351.4558454,847.2026741942447,796.2996103250595,811.4869598711547,795.6540843366421
1731141351.4590218,861.5243018496533,796.217897639193,811.6874343066893,797.760205527899
1731141351.4597485,868.4371761541133,796.1357863339717,811.8857688723778,799.86317270418
1731141351.4636507,864.5316811604041,796.0532757288289,812.0769564683345,801.9632121198612
1731141351.4673412,851.4268375996012,795.9702958373678,812.2602015645817,804.0604856369937
1731141351.4673429,834.6270004698433,795.886737907156,812.4456940935427,806.1550280459835
1731141351.467554,820.2194283530893,795.802582956377,812.6544134072965,808.2467918813765
1731141351.4714568,811.7815084119374,795.7180714506566,812.9020323569348,810.3358587547875
1731141351.4753594,809.2793638046476,795.6337220337381,813.1693234121203,812.4227309506879
1731141351.4778674,810.2637306532054,795.549971841599,813.3844743186193,814.5083936901603
1731141351.4792624,812.3070667759254,795.4664592725101,813.4597193353069,816.5937594545943
1731141351.4829671,814.92698426913,795.3815175001516,813.4038556508267,818.6784838515795
1731141351.483165,819.60066458039,795.2928944146578,813.4562622757712,820.7600390843123
1731141351.487068,827.9076147765868,795.2002788658599,814.1023248298467,822.8347315576679
1731141351.4909708,839.4110014314047,795.1083555723558,815.8506279420911,824.9017621514495
1731141351.4948735,851.1836856042912,795.0266448725661,818.8412965738125,826.9684626808997
1731141351.4967127,859.4857139324018,794.9620822988344,822.5613987346474,829.0506563196782
1731141351.498593,862.2460267697179,794.9054542902406,825.9216321666021,831.1611483513653
1731141351.4987764,860.3725230743715,794.8231357924293,827.692106647341,833.2873276296002
1731141351.5022693,856.9350379960077,794.6727969817942,827.0520188960021,835.375979004084
1731141351.502679,854.8921934865704,794.4508828097663,823.9515305307523,837.3569037335429
1731141351.506582,854.9760442171518,794.2414257417258,819.090070842973,839.2223482713268
1731141351.5104847,855.1225047025418,794.1860293390588,813.5185095757525,841.1203688963601
1731141351.5142193,851.7898952655946,794.3070476411749,808.1111673176767,843.343544353801
1731141351.5143876,842.3364134026347,794.2914572759344,803.2764573520259,846.0864655096506
1731141351.515558,826.9793703617728,793.5609293985516,799.1097272623016,849.0050308324795
1731141351.5182903,809.1002169921971,791.7973047566206,795.7934705913857,850.9159653863105
1731141351.5221932,793.6751140304876,789.5118071675062,793.7782111004104,850.1384210023799
1731141351.526096,784.7824450358864,787.9646265419145,793.4682594324706,845.5979247892301
1731141351.5298452,783.6832524814146,788.3032638625955,794.6723502504493,838.0081171834049
1731141351.529999,788.5188908195867,790.6376042972175,796.4134545201355,830.0687696173825
1731141351.5339017,795.5912795575302,793.9105870515801,797.4156572165157,825.2219994625351
1731141351.5344036,801.288980549768,796.6644263437802,796.9238355075333,825.5997981177976
1731141351.5371957,803.5574138789693,797.9581433995777,795.1371344204238,830.5146555727711
1731141351.5378046,802.3152692499182,797.6422228157763,792.867136831647,836.6677417895539
1731141351.5417073,798.9107156429409,795.940528209595,790.7752756084769,840.1294799122695
1731141351.5454712,795.1540198395197,793.0033045950076,788.970768496685,838.7660202650376
1731141351.5456102,792.4913547202524,789.0335478048052,787.3925148079566,833.3383576727337
1731141351.549513,791.5807992207235,784.8378670585714,786.5395758156728,826.5561725748737
1731141351.553249,792.1690575254081,782.0171470992815,787.6087816795363,821.0386697095587
1731141351.5534158,793.0814973895878,782.2224803583625,791.5763395203738,817.843387999816
1731141351.5573187,792.4202745989539,785.8616808702002,797.8971239323538,816.4033663775896
1731141351.5610974,788.3333303101552,791.4136712479954,804.1615945184376,815.4063147616198
1731141351.5612214,780.4096995730199,796.1902912483524,807.4080192333804,813.7004756264363
1731141351.5651245,770.8820228690438,798.1257028752185,806.2645028170466,810.8086111823843
1731141351.5690272,764.282895105219,797.1671788782402,802.1202325115405,807.1002645607481
1731141351.5720942,764.988873917378,795.1234133419711,798.1600453810754,803.582338215452
1731141351.572122,773.941687550522,794.1542507984556,796.9117970495303,801.1562458792046
1731141351.57293,787.1186680847011,795.1971181721162,798.3307094314588,799.6398744682372
1731141351.576723,797.4994272776808,797.5494652712482,800.0609851510349,797.443514952382
1731141351.5768328,799.6035179215768,799.7577129251708,799.6338914491832,792.5668704955235
1731141351.5807354,793.3099911508423,800.9143631068156,796.6573308088881,784.422553845472
1731141351.5846384,783.8826005697213,801.2795416797118,793.101597820693,774.9942156468012
1731141351.5885413,778.0647925279644,801.8440609784936,791.5537825142883,768.1574171156799
1731141351.5909398,779.3248187480235,803.3473321457251,793.1125257724641,767.4601298660657
1731141351.5923493,785.9381689529968,805.6044782824496,796.7321536050758,773.9228207121475
1731141351.592444,793.10854022882,807.6003877086474,800.314664806588,785.3862910142401
1731141351.5963469,797.0662018310052,808.1334979031351,802.30733962439,797.7713805130612
1731141351.6002495,797.7776720311119,806.4488364358256,802.4229068376692,807.3178004250142
1731141351.6041524,798.3186887546659,802.5015467284269,801.2009243616583,812.3260613078497
1731141351.6070485,801.6974967428218,796.9256378889598,799.1773065217878,813.4179124005077
1731141351.6079755,807.8420848735359,790.9566302247954,796.5008091151833,812.4589613253848
1731141351.6080554,813.2530542275645,786.3173186049875,793.1709167525469,811.1650437429845
1731141351.6097853,813.6806115030126,784.7976143489885,789.5017785954282,810.3538786248808
1731141351.611958,807.6967549741361,787.4247330549468,786.3722074110435,810.0343772779505
1731141351.6158607,798.1718099352983,793.6711802558793,785.0772805700345,809.8908780226479
1731141351.6197636,790.2952174992854,801.431539795714,786.8061361503844,809.6747354790855
1731141351.6236014,787.6935746872839,808.0223996646507,791.91982567488,809.3244694377214
1731141351.6236663,789.8630350510896,811.5849487577407,799.4119342900492,808.8984140965769
1731141351.6275694,792.9996033549709,811.8932437403852,807.0342407746391,808.4702382435602
1731141351.6286304,793.4120341407811,810.094284114833,812.2400457023343,808.0742373804287
1731141351.631472,790.6388619143906,807.766740493867,813.4549906097127,807.7063480793024
1731141351.635375,787.8018935638662,806.0494049772667,810.8543284451134,807.3485267137593
1731141351.6392274,789.0081245916159,805.2982619179406,806.1921303995418,806.9879536011139
1731141351.6392777,795.8466516847948,805.2610633134649,801.8970454600196,806.6220186867447
1731141351.6419747,805.667845559298,805.486778099845,799.9672802639694,806.2540822461717
1731141351.6431806,813.0537242856502,805.6571246896218,801.0899241206107,805.8879198269541
1731141351.6470835,813.5383282784915,805.6835848133013,804.2939542048832,805.5250727173146
1731141351.647476,806.8022696004581,805.6232078366477,807.4304470378246,805.1651028017196
1731141351.6509862,796.7568520270056,805.5572092221416,808.4629340281596,804.8069367201499
1731141351.654853,788.3322693837567,805.5255559192188,806.824500082542,804.4498388192982
1731141351.654889,783.5913343048214,805.5252292380501,803.7099678283874,804.093617171281
1731141351.6587918,780.4724854237352,805.5365335902974,800.9780387483653,803.7383712652363
1731141351.6626947,775.2200311494116,805.5448883002516,799.7268076627154,803.3841992182677
1731141351.6663213,766.342401706957,805.5470184135806,799.8296471984817,803.0310683744601
1731141351.6665976,756.6653729119187,805.5465575161667,800.515687188435,802.6788356490024
1731141351.6704795,751.7742909424657,805.5478424708716,801.1314615567064,802.3273221097452
1731141351.6705005,756.1766968100428,805.5528067125107,801.4538808178128,801.9763722959176
1731141351.6744032,770.1951577366295,805.5611460428278,801.5750066642034,801.6258790043029
1731141351.676901,789.7260699533917,805.5717873231525,801.6618385151269,801.2757761789517
1731141351.678306,808.652349682338,805.5839995698545,801.8082656172691,800.9259985264773
1731141351.6822088,821.9266581547307,805.5976571809852,802.0177723898059,800.5764108259806
1731141351.6851666,827.3170312915063,805.6129741362579,802.2527066032546,800.2267470883997
1731141351.6861055,825.1442855348702,805.6301764287643,802.4812291019571,799.8766481070542
1731141351.6861117,816.834119158393,805.6493520189242,802.6938843694421,799.5258726087868
1731141351.6900144,803.7586805984193,805.6704707740823,802.8967443188371,799.1746104224812
1731141351.6939173,787.3292022993965,805.6934662754471,803.0987616733609,798.8235822315597
1731141351.69782,770.0203906738143,805.7182956255294,803.3045348205145,798.4734993203915
1731141351.7017229,755.9566690853127,805.7449542163126,803.5139188310936,798.1238190882666
1731141351.7017314,749.8723951985992,805.7734593816697,803.7248220796964,797.7716702396809
1731141351.7040122,754.6848132117431,805.8038219968926,803.9356248817259,797.4127348486073
1731141351.7056258,769.355793756545,805.8360198730843,804.1459246695337,797.045401571246
1731141351.7095284,788.8212845351501,805.8699890693113,804.3560961870667,796.6764938154463
1731141351.7118278,806.393063668162,805.9056543740879,804.5666163953593,796.322340363249
1731141351.7134314,817.2561731205539,805.9430051357022,804.7777088074548,795.9974689538922
1731141351.717334,820.7818393343085,805.9821716995156,804.9893467560166,795.6909867203517
1731141351.7173574,820.0249998649964,806.023397076897,805.2014107010979,795.3487917674377
1731141351.7212367,818.71254598558,806.0668077427225,805.4138182187208,794.8956482264397
1731141351.7228577,818.020452583478,806.1120495407721,805.6265657419498,794.3192625723415
1731141351.72514,815.8500220828375,806.158137723624,805.8397040398509,793.780533019304
1731141351.7290423,809.4156267422106,806.2040224520885,806.0532853471839,793.6371773168279
1731141351.7329454,798.995648871529,806.2499967528926,806.267308127346,794.2707217473659
1731141351.7329836,789.2904135233106,806.2990180062169,806.4816871873904,795.7902445666327
1731141351.736848,786.6288045655061,806.3559072879334,806.696292121441,797.9301436090952
1731141351.740751,794.0017328878255,806.4227748159357,806.9110826374829,800.3671528187452
1731141351.7417028,808.1645516475345,806.4923132107627,807.1262822266904,803.1334455833942
1731141351.744654,821.5197729851278,806.5458732758377,807.3423990195123,806.4523282515777
1731141351.7467542,827.4034525073037,806.5654440466624,807.5598650513551,809.8742996772892
1731141351.7485566,824.4852589819994,806.5605058474935,807.7783110776172,811.6083210871844
1731141351.7486095,816.8602600407786,806.5902638068931,807.9960449937961,809.1442795259561
1731141351.7524595,810.1233766005154,806.742240822961,808.2107604627153,801.1323746011295
1731141351.7563622,806.9108135538243,807.0386977778177,808.42207730949,789.0721814567087
1731141351.760265,805.4798753762497,807.3057608362866,808.6346511573491,777.1997503018323
1731141351.7605484,802.1345642880548,807.1293702363084,808.8580873963884,770.3457713867465
1731141351.764168,795.1532238753538,806.0259953599469,809.0995452255727,771.1864465942724
1731141351.7642355,786.8014230034463,803.7700906656431,809.35008515809,778.7429737140486
1731141351.7680707,781.7093741768039,800.5953577719242,809.5763033994707,788.9982523523704
1731141351.7719736,782.9591166847792,797.073245663831,809.7364165606768,797.0937569283753
1731141351.7758763,789.2197654621908,793.8410275870223,809.8298156633117,799.7746169905292
1731141351.7793937,795.4984412424916,791.4861024340272,809.9523497466287,796.8304027279644
1731141351.7797792,797.0469982901664,790.5785627724395,810.2842617466476,790.908924244319
1731141351.7798617,793.1801895838818,791.542063737437,810.9380138390437,785.8609586546372
1731141351.7816808,787.6818118179544,794.2347339600266,811.6983988204513,784.4527719332101
1731141351.783682,785.3234389362585,797.6073511313886,811.8807520255906,786.6704826822478
1731141351.7875848,787.4368077530293,799.9787317886392,810.6218526280358,789.6913607906563
1731141351.7914877,790.4667746273801,799.966533319304,807.6084213549639,789.7431867861105
1731141351.7953904,788.9859636239855,797.384711457594,803.6452397731384,784.8052184332679
1731141351.7954876,780.792062066974,793.3149986989779,800.3361459141621,776.298388098098
1731141351.798239,769.774367624322,789.313525241929,798.9507063550697,768.3998125358916
1731141351.7992933,763.9109270069523,786.5439132773533,799.4503970818938,765.2761771707413
1731141351.8031962,769.6356065383461,785.5935276110243,800.5235989764908,768.1588395269832
1731141351.8070989,786.7538560784354,786.8744150647289,800.4888795073762,774.4306943145536
1731141351.8110018,807.8215403275958,790.8416007294016,798.2545384653024,779.4356558537243
1731141351.8111136,822.6571228834755,797.5436002061479,793.7910632777318,779.6426318973103
1731141351.8149045,824.8509570982596,805.8896522845704,788.1710777419294,774.78924399471
1731141351.8166072,815.6174101768189,813.4819894703566,783.3119640234968,767.5393264039648
1731141351.8170846,802.3030139770399,817.461441134001,781.2612108193366,761.2101648223878
1731141351.8188074,792.8739116830671,816.0012450907592,783.031363947736,757.5376979115432
1731141351.8227105,790.6697004762665,809.5517120866441,787.7239349813484,756.1570862142011
1731141351.8266127,793.2786933246356,800.9780712317016,792.9363123826508,755.8772995099448
1731141351.8267395,795.9124266926074,794.2687940951541,796.461656366653,756.3290215870927
1731141351.830516,796.0262199971994,792.3295370733364,797.9166195893932,758.385098189759
1731141351.8344183,795.1889260161311,795.1460961910357,798.7922179565644,762.9818783142955
1731141351.83593,796.8657241863327,799.6811382757841,800.865751911387,769.5249954750977
1731141351.8383214,802.388003695831,801.865226838552,804.4618363200321,775.5716108987581
1731141351.8422244,808.80732167754,799.4487356259613,808.121865766798,778.4240577133917
1731141351.8423655,810.5520688077152,793.6028040829507,809.8782959636239,777.4743695026823
1731141351.846127,803.5914317942558,787.968453965244,808.9507888934563,775.1926344054557
1731141351.85003,788.8634151655508,785.8777106846654,806.4579403588023,775.5827047161707
1731141351.8515337,772.3693182936117,788.006538275866,804.6292089449756,781.1283561067369
1731141351.8539326,761.7988932316582,792.3181056374118,805.1568317322478,790.7572165137734
1731141351.8547752,761.9517238036763,796.0535819788653,807.939226467655,800.6080253064686
1731141351.8578355,772.0079916768638,797.7539156745557,811.1805298893639,806.9403981242369
1731141351.8579917,786.4314200563592,797.6902680547782,812.7927795407269,808.6646132095926
1731141351.8617384,798.7568339106449,796.934833392871,811.9922913783115,807.4734784285072
1731141351.865641,805.4537876326507,796.3327212588597,809.7836868999278,805.8703674107709
1731141351.869544,807.1192132496247,796.1353986902843,807.9798122868727,805.1861041075821
1731141351.8734467,806.5266921155105,796.1924328123232,807.7048838716048,805.2777269046096
1731141351.8736176,805.6206088045143,796.2779957882395,808.7105819772877,805.6402798809575
1731141351.8736207,804.1115675476835,796.276028511614,809.9330301099383,806.2999813669122
1731141351.8773496,800.5590292473967,796.1904988222428,810.5274120605073,807.428182521223
1731141351.8812523,794.5610793564391,796.0745729478825,810.3802789265757,808.3117119381257
1731141351.8851552,787.9290454284369,795.9693528427061,809.8731019651674,807.2196432466013
1731141351.88646,783.8343206999776,795.885056989623,809.3985603627445,802.8502885998076
1731141351.889058,784.6240081899671,795.8122204634485,809.1093224392407,796.2736045979728
1731141351.8892436,789.937019106026,795.7388055344157,808.956674972947,791.3365300057653
1731141351.892466,796.4799153362903,795.6591635853524,808.8348599986889,792.4274800937176
1731141351.8929608,799.7507004311045,795.5738956842246,808.6793763090136,800.785074285299
1731141351.8968637,796.7737863661207,795.4858883969779,808.4836543606355,812.3344127912702
1731141351.9007666,788.1437288584332,795.3971818817641,808.2700913574225,819.4689570127856
1731141351.9046693,777.9059606592868,795.3081514698478,808.0595233305443,816.1675130438003
1731141351.9048698,771.1262058466826,795.2181945864913,807.8590858845777,802.7102686406195
1731141351.9085722,770.6587841573909,795.1266374527497,807.6655591670982,786.0646574531654
1731141351.9113114,775.344337201851,795.0331744079381,807.4732767706978,775.3446704382885
1731141351.9124749,780.9259167182014,794.9378360801113,807.2790540972733,775.7692456560495
1731141351.9163778,782.9756366155141,794.8407719792672,807.082756059673,785.6312610487123
1731141351.9202807,779.6551103918904,794.7420737817912,806.8856357007232,798.1105228615335
1731141351.9204955,772.4167664836709,794.6417045888749,806.6887527718351,805.9591066523375
1731141351.9213865,764.4936110439725,794.5395126649321,806.4924148034489,805.4660547141804
1731141351.9241834,758.6529315204034,794.4353140690772,806.2964069087582,797.5251093880876
1731141351.9280863,755.898430998597,794.3290426380324,806.100417021538,786.1562107111544
1731141351.9301567,755.7181231747289,794.2209068145992,805.9042794412703,776.1476299328663
1731141351.931989,757.2338919724999,794.111377625308,805.7079881154522,771.1038196665661
1731141351.935892,760.134990678079,794.0008067761556,805.5116026585506,772.2862495681679
1731141351.9361217,764.6804282182483,793.8887252214668,805.3151669976992,778.2824055985326
1731141351.9397943,770.9132988180921,793.7734042606756,805.1186842875234,785.6207192798154
1731141351.9436977,777.9493655895058,793.6526604630748,804.9221316941881,790.2995787688661
1731141351.9476004,784.1885299961868,793.5263861779778,804.7254830883168,789.6687870425354
1731141351.9490025,788.3977738454815,793.3994197319239,804.5287209680222,783.7046663948688
1731141351.951503,790.5886583036825,793.281035573337,804.3318363131307,774.9319250311986
1731141351.9517477,791.6368699673637,793.1773116271154,804.1348233535081,766.9931159229418
1731141351.955406,791.8784170826328,793.078019042481,803.9376754308698,762.6672369233013
1731141351.956313,790.1863686958771,792.9498228778037,803.7403839268314,762.5017250041025
1731141351.9593086,784.8064178882336,792.7540406915863,803.5429391891158,764.8960293386643
1731141351.9632115,775.5397292501779,792.4956940940547,803.34533174836,767.5682810752145
1731141351.9671144,765.3255820032384,792.2739774593582,803.1475529105365,769.3650085269633
1731141351.9673738,759.4644861868478,792.2624078136188,802.9495947228661,771.0526523510378
1731141351.9678476,762.5935976942148,792.5534625757041,802.7514497044758,774.4420056774893
1731141351.9710171,775.4878360379903,792.9114271005017,802.5531106559295,780.5305170081675
1731141351.97492,794.137308903404,792.6636957883838,802.354570629743,788.2453600926074
1731141351.9788227,811.979187827962,791.0498180389619,802.1558229921385,794.9660598418022
1731141351.9827256,823.8067400375875,788.0592284104736,801.956861489027,798.5027346759155
1731141351.9829998,828.5530929221994,785.1091007342633,801.7576802863089,798.887611113207
1731141351.9866283,828.9701202413662,784.5918346945737,801.558274006508,798.4484156422982
1731141351.9866931,828.6457981622758,788.2112521225957,801.3586377849042,800.1061161208481
1731141351.9905312,828.8907533239816,795.4356270481085,801.1587673202156,805.2925692857638
1731141351.9912393,828.0327165370555,803.5395508274574,800.958658843045,813.0277401917037
1731141351.994434,823.5789840522049,809.2903333240288,800.758308942848,820.6075768814806
1731141351.9983368,815.2866125552226,810.9448756056395,800.5577143321415,825.1870279281861
1731141351.9986258,806.4094928120236,809.1261367063086,800.3568718306759,825.2019992456369
1731141352.0022397,801.8770539560622,806.1327245017935,800.155778909073,820.9719732062476
1731141352.0055385,804.6924618100741,804.3397792133466,799.9544347655395,814.3642218224766
1731141352.0061426,813.3955464620324,804.8217882938103,799.7528410956742,807.7720329291259
1731141352.0100453,822.7522108040316,806.9992617206809,799.5510010449259,802.9300820147499
1731141352.0139482,827.3606139405364,809.3299352477355,799.3489154704399,800.2259027680747
1731141352.0142517,825.4822807321411,810.4133007852378,799.146578391348,798.9130755577173
1731141352.0178509,820.0656497701971,809.7702069273489,798.9439771781028,798.0010156540797
1731141352.0217538,816.0845202233531,807.9437739461326,798.7411035041181,797.1108442052947
1731141352.0243838,816.3222919040475,806.0276933080935,798.537973426373,796.7140938602082
1731141352.0256567,819.0558563031495,804.9429907282779,798.3346395225822,797.7144586079727
1731141352.0261655,819.5429624042014,804.8074564355542,798.1311669110672,800.7320676524015
1731141352.0295594,814.1054532524032,804.7484657761589,797.9275601076928,805.5140331336597
1731141352.029878,803.5274716617255,803.4192916477805,797.7236818348678,810.8260585983759
1731141352.0334623,793.0347506215376,800.0721404396345,797.5192711355379,815.005292586765
1731141352.037365,788.7276464571266,795.4630969925092,797.3141661916657,816.9020604466184
1731141352.041268,793.0356189932427,791.7202605548392,797.1086794836343,816.4440019449968
1731141352.043229,802.6368067404022,791.0028338318023,796.9037820072273,814.2039190507894
1731141352.0451708,810.6238110115436,793.8585290374574,796.7005754612675,810.3223748948524
1731141352.045504,811.4898843622937,798.6202864644043,796.4988751614987,803.9947171603377
1731141352.0490737,805.1369111845896,802.4382345498894,796.2957840815145,794.3420304125036
1731141352.0529764,796.7170303281911,803.2151157270088,796.0863193134297,782.00901569604
1731141352.056879,792.5093461212158,800.9794761703968,795.8679033757325,769.8223347779804
1731141352.060782,795.3022951907859,797.7125918437921,795.6473198170222,761.5420417405587
1731141352.061092,802.9027182812579,795.8646109750123,795.4432956718762,759.5527225619398
1731141352.0611298,810.44462323998,796.7039403746661,795.2751706464295,763.4182629004396
1731141352.062075,814.0972251043502,799.6044226561396,795.1357146490116,770.492026605037
1731141352.0646849,813.2237084368354,802.6030061009255,794.966724020398,778.007482112363
1731141352.0685875,809.8507543824035,803.727611891094,794.6769985112452,784.9108196731472
1731141352.0724905,806.4189650609734,802.2065324999811,794.2341404162954,792.0251657835539
1731141352.0763931,803.6983804282611,798.8447419864192,793.7988239007665,800.5585249654205
1731141352.0767558,800.3739791553047,795.4230102288349,793.7755090356711,810.3403562810536
1731141352.080296,794.603966276621,793.5951932769215,794.6344858330173,819.3991265990803
1731141352.08092,786.3651937300638,794.0254423466131,796.5324016161364,825.2955086294728
1731141352.084199,778.534853631293,796.2405701318261,799.0172834406126,826.9755756431373
1731141352.0881016,775.404283117278,799.1137528571552,801.1206366507362,825.3862071745905
1731141352.0920043,779.4816110392393,801.5160878122872,801.8225920222484,822.3157091173953
1731141352.092382,789.1894303691147,802.7334206989921,800.5736650579497,818.7041076356571
1731141352.0959072,799.5759422119471,802.5727993344364,797.5630542305238,814.1673766286802
1731141352.0960186,805.6750172487764,801.3020926954741,793.6465596707443,808.1812258805468
1731141352.0997655,805.9014840470821,799.5227376910933,790.0549690832609,801.6405354190815
1731141352.09981,802.8315936905547,797.9526686376348,788.0608006144421,797.1084776610046
1731141352.103713,800.8133101582666,797.1248440016404,788.6677634355358,797.3257684550997
1731141352.1076157,802.3064296757063,797.1499891859921,792.240264408876,803.1621554350087
1731141352.108008,805.8400095987214,797.7123221470363,798.0685903123832,812.6569337685819
1731141352.1115186,807.2901421894641,798.2764664930609,804.2183088646548,821.8524882113064
1731141352.1154213,803.5729670448817,798.3010160103503,808.1923962240347,826.7856657858032
1731141352.1186109,795.7225210910952,797.3236902982837,808.4083446243116,825.3716050339257
1731141352.1193242,788.5835200593887,795.0215708636556,805.520711459805,818.2219517481502
1731141352.1232271,787.1308506667975,791.424499018042,802.3113316234659,808.1721152355165
1731141352.123634,792.4573072381089,787.2221344294667,801.9039701636682,798.9107482725398
1731141352.1271298,800.8965088988546,783.8125698014643,805.5976369629196,793.3914737257112
1731141352.130945,807.0102290648355,782.7787064429261,812.0511487553453,792.6692772816502
1731141352.1310327,807.781303442137,784.926758275972,818.3719423316937,795.5635963060188
1731141352.1349354,804.4730415980257,789.5251140804801,822.0475915748601,799.2690757836572
1731141352.1374562,800.9121121228522,794.4421887944172,822.1564715396846,800.7523500704507
1731141352.1388383,800.0825578873245,797.3108271521289,819.207252962558,798.3999143880761
1731141352.13926,802.0291185228084,797.0185631989041,814.2243180730479,793.0201630905815
1731141352.1427412,804.5056399211456,794.4442523869278,808.1226301603185,787.3987852672884
1731141352.146644,805.3463544522833,791.8538873278827,801.793766321574,784.4616796954725
1731141352.1505468,804.3553830947097,791.3960378795318,796.4375236046335,785.2371820631589
1731141352.1544497,803.2619074133833,793.8206304916129,793.414339363599,788.1841755570894
1731141352.154886,803.9980798122045,798.2758240734827,793.452391996224,790.4995813811798
1731141352.1563015,806.8009841686755,803.1026882180327,795.8357702909227,790.3905334330163
1731141352.1583524,809.6500373074543,806.8380807447497,798.4590731021011,788.4031435911801
1731141352.1622553,809.4958961592339,808.7240564520232,799.0579653484316,786.6469635710257
1731141352.1658716,804.4091444047151,808.6373224155686,796.9060709562905,786.6245663813174
1731141352.166158,795.0977520824703,806.8093179219745,793.6359323018966,787.7097279734481
1731141352.1700609,784.708067454758,803.6730600977032,792.2802003469191,787.7605229701327
1731141352.170512,777.0848097720145,799.8744453627288,795.0194136424169,785.2991000436235
1731141352.1739635,774.7146615100193,796.2864225316848,801.3673435575394,781.1197810034859
1731141352.1751473,777.6243302606345,793.8698704007483,808.3721404741764,777.7148445315099
1731141352.1778665,783.6834664388023,793.3435407982081,812.7723181281825,777.0322041181444
1731141352.1817694,789.881703404168,794.7916317875139,813.3461740474374,778.6855585457547
1731141352.185672,793.8007499590766,797.4936810998606,811.5571516253896,780.2897756944013
1731141352.186138,794.6193947619337,800.2399805487471,810.142621174429,779.5938997531103
1731141352.189575,793.2418478831344,802.0689116088829,810.985940763976,776.4424163805394
1731141352.1934776,791.4847204863042,802.9274944637027,813.9254279708543,772.8106388514284
1731141352.1939924,790.798930031988,803.6642026322011,817.1052386724372,770.9978766490625
1731141352.1973803,791.4238019888954,805.2395042720129,818.3039970482041,771.7547387514988
1731141352.200798,792.5716422020571,807.7445252494496,816.3087824342452,774.002912555618
1731141352.2012837,793.3138597465952,810.0939451952815,811.6679367337296,776.0788943274247
1731141352.201764,793.2796406708678,810.7648628913706,806.4980820234159,777.0545366692692
1731141352.205186,792.6830129481771,809.0528570768521,803.3533801557678,777.0385155634752
1731141352.209089,791.9309873037428,805.8031885016759,803.6862214401713,776.6320230807239
1731141352.212838,791.2894179728451,802.9502889510371,806.8972973288716,776.3208409109619
1731141352.2129917,790.8072770029788,802.1766129790407,810.7605037598878,776.2534800683391
1731141352.2168946,790.4130198490876,803.7363112572318,812.9935886344703,776.3459371925821
1731141352.21739,790.029161982311,806.3375511637018,812.755698819113,776.46855125053
1731141352.2207975,789.6245398192865,808.0903993875886,810.8991293735226,776.5537248829141
1731141352.2247002,789.2076032212399,807.7040734857052,808.946933710357,776.6030810961404
1731141352.2286031,788.7987059762381,805.0602530621113,807.8800201167871,776.6471692909405
1731141352.2316833,788.4107326037366,800.9574476814578,807.737158361614,776.710032812741
1731141352.2325058,788.0454294303877,796.5048140224782,808.0261348797535,776.7980313975556
1731141352.233016,787.6987834122755,792.7014283866637,808.2882024384475,776.9060814505584
1731141352.2357244,787.3669306995853,790.2605366490674,808.350730114854,777.0274864928043
1731141352.2364087,787.0486015477577,789.4062781595968,808.2670829196959,777.1591692044977
1731141352.2403116,786.7445489441433,789.6135658153989,808.1528405656101,777.3016580447072
1731141352.2442143,786.4560377886645,789.7007556143831,808.0775889589225,777.4568276530761
1731141352.2481172,786.1838742588412,788.5802131628335,808.0474928640972,777.6260856078168
1731141352.248642,785.9282738012698,786.2310024682807,808.0375444233383,777.8098839545428
1731141352.2505286,785.6891720208737,783.9266228018028,808.0249378235025,778.0081053035191
1731141352.25202,785.4665316344874,783.2552746233048,808.0020498006603,778.2205835232895
1731141352.2559228,785.2604558860231,784.6802961399726,807.9725355996311,778.4473568617557
1731141352.2598257,785.071147855236,787.0061514650702,807.9426043189102,778.6886478062952
1731141352.2637284,784.898828899783,788.342273075861,807.9156728387496,778.9447379742361
1731141352.2642682,784.7436904397318,787.7130453097479,807.8918120671137,779.2158759767966
1731141352.2676313,784.6058901476777,785.8506946464315,807.8695989529007,779.5022569909821
1731141352.269374,784.4855695484155,784.5379199565785,807.8478453337506,779.8040459218946
1731141352.2706509,784.3828697554843,785.2114343426009,807.8261936070877,780.1214047956195
1731141352.271534,784.2979364950405,788.0359251346925,807.804853153723,780.4545046577484
1731141352.2754369,784.2309173109444,791.990892696451,807.784132136344,780.8035229584754
1731141352.2793398,784.1819571103513,795.5720104296387,807.7641738799998,781.1686358763548
1731141352.279894,784.151195778948,797.4536799003004,807.7449458669228,781.5500132489752
1731141352.2832425,784.1387681876437,796.8957906979781,807.7263441547076,781.9478186931312
1731141352.2871454,784.1448051511205,794.0533036303297,807.7082821994429,782.3622134631956
1731141352.2882197,784.1694339377937,790.1819502280457,807.6907176331695,782.7933602316087
1731141352.291048,784.2127778520069,787.3850278595744,807.673635861517,783.2414220084679
1731141352.294951,784.274955400014,787.6681152786158,807.6570254112279,783.7065531950391
1731141352.29552,784.3560801421927,791.708833360861,807.6408647512445,784.1888863510202
1731141352.298854,784.4562621197482,798.237180489202,807.6251214347302,784.6885280838693
1731141352.3027563,784.5756103827134,804.6374853329842,807.6097563998259,785.2055814368258
1731141352.3055773,784.7142340052433,808.465625147413,807.5947285238188,785.7401967260449
1731141352.3066597,784.872237882218,808.822305038582,807.5799993799619,786.2926142816494
1731141352.3070648,785.0497123738018,806.6279625734157,807.5655389506943,786.8631260377384
1731141352.310562,785.2467235742421,803.7289648290129,807.551328558663,787.4519040167528
1731141352.311146,785.4633190204455,801.6376459652598,807.5373525596262,788.0587682751187
1731141352.314465,785.6995608266163,800.8223757981881,807.5235741641749,788.6831510819953
1731141352.318368,785.9555742481994,800.8346436599774,807.5099082724868,789.3245694286841
1731141352.3222706,786.231561337839,800.892276325099,807.4962266742116,789.9835930210211
1731141352.3259103,786.527713334204,800.4188069190191,807.4824313918226,790.6625575991609
1731141352.3261735,786.8440146105547,799.3428432031612,807.4685803700252,791.364648551638
1731141352.3267722,787.1800791305249,798.1654507292916,807.4549524330864,792.0905248692645
1731141352.3300762,787.5353000690977,797.7459224876309,807.4418765218339,792.8341281524467
1731141352.3339791,787.9095103061562,798.7773053041568,807.4292607026553,793.5826879662599
1731141352.337882,788.3038711026011,801.2272038045544,807.4161073467761,794.3264826973441
1731141352.3405037,788.7209995366725,804.2405380002566,807.4007009536457,795.0771092309496
1731141352.3417847,789.16313930576,806.6867491483197,807.3820879281022,795.8789956733035
1731141352.3423982,789.6284378735728,807.9043677468763,807.3624110323631,796.7884752658823
1731141352.3447556,790.1082285459372,807.9971200901749,807.3478386601313,797.8078646269001
1731141352.3456876,790.5905980147381,807.5288263836334,807.3448738070064,798.8108553582085
1731141352.3495903,791.0733806487792,807.0259586429421,807.3512785543876,799.5566688916563
1731141352.3534932,791.5801628977683,806.7160095916058,807.3476617620129,799.8917309373913
1731141352.357396,792.1599279020238,806.5707899475825,807.3028304954407,800.0993225685077
1731141352.358024,792.8488558473496,806.4747002111023,807.2033587066413,801.1002274130798
1731141352.3612988,793.5986887739949,806.3483920273718,807.0964367042101,804.0612090664325
1731141352.363601,794.2286118078661,806.178202359577,807.1010897350087,809.3369799181213
1731141352.3652017,794.4930898852554,805.9874151579214,807.3287621240597,815.5968282305677
1731141352.3691044,794.2948090610233,805.8007097632614,807.7062201359353,820.3857009066251
1731141352.3730073,793.8913107737053,805.6279706489147,807.8216776886624,822.0730505104677
1731141352.37365,793.8495834851619,805.4665600352921,807.0272156422758,821.345374566847
1731141352.37543,794.7484773913266,805.3101143084053,804.9226922558119,820.6170007625944
1731141352.3769102,796.9951440403732,805.1546508377209,801.9244909826525,821.9036607833206
1731141352.380813,801.0182670742779,804.9997038377966,799.3014254731366,825.2404876857489
1731141352.3824463,807.4973754494022,804.8466141332783,798.4520961648351,829.0941996080771
1731141352.3847158,816.9890638106876,804.6966642899904,800.0105855671013,832.2541341975755
1731141352.3886185,828.9308262927071,804.5503125279123,803.541610710253,835.2644308336347
1731141352.3892765,841.0007510606154,804.4073775912979,807.9131715019084,839.891113987296
1731141352.3925214,849.9255272681944,804.2675168434068,811.8490833710284,847.0811934519528
1731141352.3964243,853.5669181730367,804.13053165945,814.2922748326828,855.495692322259
1731141352.400327,852.6041859594555,803.9964077613621,814.6415891737416,862.2404037627742
1731141352.4012918,850.0995587152095,803.8652164150185,812.9786800133119,865.2072239171004
1731141352.40423,849.0530156664397,803.7370175520683,810.0699400579261,864.7722950405728
1731141352.4049022,850.0599623085939,803.6118242466152,806.845803471307,863.2762240582474
1731141352.4081326,851.2863392893697,803.4896157556951,803.5845409945192,862.9733978842668
1731141352.4103563,850.8605237530485,803.3703632823067,799.6128985204854,864.5181752888553
1731141352.4120357,849.3780085340214,803.2540451069708,794.09714591686,867.1846209400453
1731141352.4159384,849.8877834517066,803.1406476934221,787.3999620695106,870.0545698299775
1731141352.4198413,854.9874040303446,803.0301600740733,781.6349992262159,872.5882991722872
1731141352.4201372,863.5346830331753,802.9225688552048,779.5530293736224,874.0776252507868
1731141352.4205282,870.2575477860173,802.817856610327,782.4451862363313,873.0416280598838
1731141352.423744,869.2606629926385,802.7160027353829,788.828510818681,867.8011286081692
1731141352.4276466,858.9415781065414,802.6169848301444,795.1502016407331,858.0833726539372
1731141352.4315495,844.2427508536408,802.5207794457593,798.0641178371064,846.1458658597764
1731141352.4354525,834.0431518130267,802.4273620966001,796.5410055885843,836.075534864851
1731141352.4361544,835.3609756274054,802.3367069530178,792.2751253083035,831.4948519233648
1731141352.4389827,848.6198993512797,802.2487865941342,788.2531313281695,833.3882681951711
1731141352.4393551,867.3775870862415,802.1635719467777,786.6983222343825,839.7616915864193
1731141352.443258,882.4817255191333,802.0810323491135,787.8730003644555,847.3180071871495
1731141352.4452827,887.5111067879664,802.0011356352727,790.3951931934596,853.6164244484135
1731141352.4471607,881.8727462322162,801.9238481839103,792.572060478692,857.8947097817991
1731141352.4510636,870.0034650813781,801.8491349293034,793.617092063528,860.210053750984
1731141352.4517803,857.8512265029264,801.7769593583945,793.8884869878533,860.3002937036299
1731141352.4549663,849.2540552662452,801.7072835132025,794.1938979078351,857.6578071134795
1731141352.457828,844.4072208071608,801.6400680041714,794.9817291268964,852.6239360878777
1731141352.4588692,841.0051049073337,801.575272030569,796.1888161085227,846.8852541319541
1731141352.462772,836.9315557717298,801.5128534023905,797.7094340399128,842.3982687351073
1731141352.4666748,832.428443555482,801.4527685609474,799.7547846881129,839.7621826523372
1731141352.4674065,830.0715056240169,801.3949725982451,802.5638724180423,837.9304981546329
1731141352.4705777,832.5464605983392,801.3394192764765,805.7890279771466,835.7228366994607
1731141352.4744806,840.0202611489004,801.286061048714,808.3822562869526,833.4628258439781
1731141352.4766734,849.309532156867,801.2348490811129,809.3033569480083,832.7370397880883
1731141352.4783833,855.6209078570678,801.1857332763136,808.406845172491,834.2792853198331
1731141352.4802094,855.5988816947039,801.1386622973791,806.5777116448088,836.2467493786224
1731141352.4822862,849.4542920885278,801.0935835916144,804.9476653108125,835.1353017893998
1731141352.4830322,840.6842616893908,801.0504434141434,803.9919758745096,829.0040054121071
1731141352.486189,833.6331097743569,801.0091868522443,803.4059378285574,820.0277481406916
1731141352.4900918,830.6555910080169,800.9697578525341,802.7941324020899,813.5368092895741
1731141352.4939947,830.9344101963717,800.9320992526606,802.3352073678881,813.8369053460215
1731141352.4955187,831.7786171723183,800.8961528157939,802.6530600601983,820.308602082231
1731141352.4978974,831.2461952497493,800.8618592608922,804.0452311369207,827.3601524033847
1731141352.4986584,829.7782915593613,800.8291582795022,805.9741946311093,828.5278735146184
1731141352.5018003,829.3696491715482,800.7979885381257,807.465919636668,821.3765815121283
1731141352.505703,831.0590989080818,800.7682876857689,808.0444919344433,809.1675364925355
1731141352.509606,833.1588654235723,800.739992405678,808.1869594197616,798.10172029021
1731141352.5135088,832.057433114459,800.7130385386333,808.7515898638798,792.6781450922075
1731141352.5142844,825.114959582605,800.6873612383257,809.924212131194,792.9811741113973
1731141352.5143642,813.2319281143918,800.6628950211787,810.7730219409364,795.6227454120266
1731141352.5151358,800.8140598711491,800.6395735446682,809.9451797933123,796.8850444462075
1731141352.5174117,792.9159547022282,800.6173291235574,806.9480010271475,795.2771351224044
1731141352.5213144,791.6295704924776,800.5960923877337,802.858741791585,791.9175156842782
1731141352.5252173,794.510458986157,800.5757928157842,799.7330426918903,789.1587804769167
1731141352.52912,796.4020119672535,800.5563605800087,799.0904752499656,788.8417408468672
1731141352.5299103,793.4313655048054,800.53772881087,800.7167791214174,791.2682220493544
1731141352.5330229,786.1854447158084,800.5198335966155,802.8431894587235,795.2749981349333
1731141352.5332096,779.5752710668352,800.5026087661298,803.6029749198966,799.2178554828018
1731141352.5369256,779.3302064608704,800.485976171524,802.5068901405126,802.1546908937688
1731141352.5408285,787.573881426405,800.4698396801383,800.6188815018746,804.1978776880948
1731141352.5447311,800.6587548990736,800.4540965843918,799.3037407126264,805.5205287240758
1731141352.5455365,810.8897594355453,800.4386730030897,798.7923766170749,804.8796858804394
1731141352.548634,811.0811987980682,800.42356369236,798.0092590440344,799.4528986599252
1731141352.5500624,798.953457975508,800.4088242988388,795.8546427216535,786.8751765549815
1731141352.5520551,778.4947979604372,800.3944642862374,792.6383525989835,768.082498727583
1731141352.552537,757.443025954172,800.3802644843136,790.1490590629049,748.1974918433559
1731141352.5564396,742.605059245286,800.3656845549766,790.1690271313716,733.9614505684923
1731141352.5603426,736.1703845777812,800.3501142280121,792.7960628376269,729.2725859908512
1731141352.5611625,735.4705187835627,800.3335591678899,796.1650019730894,732.3981439430311
1731141352.5642452,736.0919813809472,800.3173410441649,797.8526709714072,737.3030699145196
1731141352.568148,735.6570573393802,800.3038130190909,796.7030918031978,738.1346745891657
1731141352.5709004,735.1491858298178,800.2941982225033,793.5041192708796,733.3150373882903
1731141352.572051,736.9340448924946,800.285203542627,790.0798115942558,726.2045556298473
1731141352.5759535,741.6176466174285,800.2677067013598,787.7571533667973,722.2154768829155
1731141352.5767884,746.8086497105335,800.232175495245,786.5481356861607,724.8699710650222
1731141352.5798566,748.927514661701,800.1818716344194,785.5892374933546,733.6295619659967
1731141352.5837593,746.3566377726354,800.1449709417543,784.2722253376126,744.5983866603993
1731141352.5849888,741.0731207754004,800.1665418862366,783.0184035269571,753.1108633137999
1731141352.5876622,737.3146148588198,800.2653198796286,783.0517936766503,756.2674625600239
1731141352.5897458,738.3941994471031,800.3713999845634,785.3996126092188,754.0155933675952
1731141352.5915651,744.3042649681497,800.3100661635892,790.0000102998142,748.6236955636458
1731141352.5924144,752.0515464958391,799.9163269568286,795.7026516296659,743.3122518936268
1731141352.5954678,758.3560283786511,799.2866162866087,801.145113649068,740.9003491806479
1731141352.5993707,762.3201956706647,798.9824007565911,805.6717624802665,742.9107197663047
1731141352.6032734,765.7019003493596,799.8636706847815,809.4381198613208,749.2066052382679
1731141352.6071763,770.6060552607526,802.4776340204824,812.6788043195238,758.0893601475464
1731141352.6080403,776.8369183170007,806.48606259228,814.9674386642133,766.7356050714282
1731141352.6085913,781.5248264275274,810.7179182791,815.290705456223,771.8988066696162
1731141352.6110792,781.5304356562448,813.7712232350078,812.9381844467878,770.9660591465091
1731141352.614982,776.4797487478639,814.579854472063,808.4174674937196,763.3674764875209
1731141352.6188848,769.5761003576306,812.6871879312625,803.5567408824436,751.6516376804448
1731141352.6199152,765.2801645253926,808.4265707071655,800.6186813825556,740.9525249654189
1731141352.6227877,765.8223854170545,803.0071621691391,801.0144139667633,736.3276660018402
1731141352.6236663,769.6613851464256,798.1199913718339,804.4883898389854,739.4303085833812
1731141352.6266904,773.2576795440508,795.0344002428453,809.2999509750964,747.1713231639638
1731141352.6274366,774.4257294661718,793.9143546795482,813.2576193565377,753.752911341616
1731141352.6305933,774.0126294852439,793.9989955425616,814.9248550036024,754.6624807205294
1731141352.634496,774.2849912275151,794.3591246880137,814.2334094584953,749.5947756507701
1731141352.638399,775.6812194985625,794.47120753553,812.1662476558497,742.2773139057635
1731141352.6392925,775.2897200038163,794.2798291991722,809.843382478745,737.6498392915827
1731141352.6423016,768.8313631877656,793.9545409177377,807.7573539408115,738.5844203186709
1731141352.6462045,754.6004968036555,793.6520944624197,805.6908933511696,744.2690233304503
1731141352.646282,735.9433696751865,793.4246202981838,803.2109951284237,751.0473215785306
1731141352.6501074,720.0571612372054,793.2463046887423,800.2140819027536,754.9861466010938
1731141352.65401,713.874268492949,793.0738102487434,797.1443703600755,754.4866952803825
1731141352.6548417,719.9259532317164,792.8832780229525,794.8817191912162,751.2577703031386
1731141352.6549184,734.8995068995769,792.674088581651,794.4074230871761,749.0042100536422
1731141352.657913,751.6735190088007,792.4559674307503,796.2649247182164,750.7458290378732
1731141352.6618156,763.4594489395653,792.2369826022685,799.956955086102,756.6992484806799
1731141352.6651275,767.4980088868189,792.0194233572967,803.7696707854708,764.2588287463958
1731141352.6657186,766.0684111764367,791.8016408411066,805.5205122409214,770.0242099547514
1731141352.6696217,764.2511845093286,791.5813009060463,804.02517684286,772.2884864991597
1731141352.6705444,766.0603438378961,791.3572112898264,800.2048457629604,772.1332027455343
1731141352.673524,771.7421406977656,791.129394455082,796.7259072221314,772.4319402012493
1731141352.6774273,778.1580163352164,790.8983613642603,796.194377466699,775.6772715261762
1731141352.6813295,781.7222082193778,790.6644962302288,799.2641676971148,782.3271178493186
1731141352.6839728,781.3016124201388,790.4278734799587,804.21959219959,790.725878340395
1731141352.6852326,778.6256934168878,790.1883734981054,808.3642761091508,798.2344061579088
1731141352.6861706,776.0605071178273,789.9458517453936,810.0187342144613,802.3719166668503
1731141352.6891356,774.048278595712,789.7002232319388,809.504603816639,801.2941279254312
1731141352.689768,770.8471511883613,789.4514606039683,808.4783794671333,794.0607547322338
1731141352.6930382,765.0022785159742,789.1995659734346,808.3862766044035,781.3804071887809
1731141352.6969411,758.1317233103224,788.9445607439777,809.404785934549,766.4294830322435
1731141352.7008438,754.8150387488032,788.6864889018967,810.6188891105462,754.3222473592872
1731141352.7017963,758.7813479612025,788.4253957003457,811.0446858315618,749.5507181437843
1731141352.7028182,768.4267892099225,788.1612574821912,810.4624788499692,752.9161340173459
1731141352.7047467,776.2815812001137,787.8939036415466,809.372496920138,760.7288639746405
1731141352.7086496,774.139935778515,787.6230465175174,808.2844511845375,767.4760327314774
1731141352.7125523,760.1561132959196,787.3485275948278,807.1296091358619,769.8955202757005
1731141352.7164552,741.492957159523,787.0707105251502,805.3643876905172,768.822955190922
1731141352.7174225,729.4514360504651,786.7906418657898,802.627843681811,767.2252604613752
1731141352.720358,730.8074987336726,786.5094350657272,799.3212503303868,766.5655193253214
1731141352.7216637,742.7603645901463,786.2267417478754,796.5903348157293,765.1871167891088
1731141352.7242608,755.7056023349836,785.9393221729714,795.7162535136198,760.2240391564467
1731141352.7246945,761.1126463188456,785.6419254035084,797.3700745465973,751.0235207926152
1731141352.7281637,757.7220696654067,785.332264513431,801.2308285958076,740.7192864161503
1731141352.7320664,751.4179802417127,785.0182882922702,806.156347016384,734.4515078117104
1731141352.733049,749.8005127792909,784.7202298618986,810.7236234221571,735.768118954268
1731141352.7359693,756.380261780562,784.4575408934794,813.783928415378,744.19095969958
1731141352.739872,768.6510350436891,784.2197029806385,814.7607996315618,755.7448868312341
1731141352.740509,780.6190777121886,783.9421069237624,813.6351933878319,765.7220504692198
1731141352.743775,787.2079706705208,783.5292389400904,810.7552393476055,771.3585995162696
1731141352.7476778,787.4153227776383,782.9556133504238,806.6768375055861,772.6436146846742
1731141352.7486746,784.6439803535152,782.4051389493455,802.1568552050322,771.3332660403362
1731141352.7515805,784.514862948836,782.3104704078044,798.231665196732,769.5364947233755
1731141352.7554834,791.5580729154394,783.142962368631,796.1507144640318,768.9786808210388
1731141352.7593544,806.4299039790902,784.9963014147062,796.9600024213188,770.9259745168033
1731141352.759386,825.0388473979855,787.2718970705719,800.8075543114345,776.1032941007999
1731141352.759621,840.2450001491821,788.7800207087893,806.4119312648035,784.2801475511524
1731141352.763289,845.5730239050268,788.2917830348213,811.2552352551357,793.9275254218769
1731141352.7643006,839.0329094684496,785.3388920619652,812.6906895751509,802.5885401489777
1731141352.7671916,824.6348726899214,780.9273169333411,809.4542181455446,808.075970518014
1731141352.7710946,810.3300500519086,777.6525502554666,802.5949370057972,809.8042626019385
1731141352.7749977,803.4994456248099,778.7373218746818,795.0865942448613,809.2509514913186
1731141352.7782,806.9704605316045,786.1716004153823,790.2657269909532,809.058624525397
1731141352.7789,818.1572868996951,799.0751609790607,790.0795514200636,811.245007233156
1731141352.7799263,831.4812400585455,813.6141846119765,794.2346405795632,815.6789294257024
1731141352.7828033,841.8698682627345,824.8197209892467,800.6642810210685,819.9557089599234
1731141352.7867055,846.8771954844303,829.2401073217125,806.8578010197504,821.0135038839437
1731141352.7906086,846.6808849927198,826.7319995144402,811.1525845203638,817.5684157047668
1731141352.7945116,842.9566004589132,820.3100569569872,813.2682877541172,811.5131588325045
1731141352.794547,837.8756377455655,814.2384509821143,813.9163164841378,806.861711593425
1731141352.7955527,833.5360805261728,811.5411161263385,813.872690678927,806.7483430477719
1731141352.7970452,831.4047151013175,812.346089768519,813.1830962178523,810.8778739228596
1731141352.7984142,831.5709553322394,813.9955432280898,811.0509093425723,815.7208417871767
1731141352.8023171,832.3055475095875,812.8886678399808,806.4981676140272,817.4261449814585
1731141352.8062198,830.6388576510996,806.9555300950332,799.3517114336377,814.9379908521755
1731141352.8101227,824.0632098541134,797.1306752309019,790.8522037817437,810.5856923548993
1731141352.8111787,812.4861953141199,786.7916159278489,783.3992885021199,807.7788845345589
1731141352.8140256,799.0377777251481,779.6029743579877,779.4942638869047,808.107932999342
1731141352.8158906,788.8067759138515,777.3796974087387,780.4860465063085,810.4973957599626
1731141352.8179283,785.9152202121144,779.4287146275767,785.932200950575,812.8559265946026
1731141352.8218312,790.6933081381679,783.556044336254,794.0403451912764,814.2589888267188
1731141352.825734,799.0211504158843,787.7032405451223,802.8516275618852,815.4628664824722
1731141352.8268046,804.6739638877718,790.9459827496617,811.1576917148005,817.4716214965815
1731141352.8294735,803.4039205798626,793.33905467614,818.3517903900795,819.8476224989578
1731141352.8296368,795.9987757619907,795.0834310733737,823.5222767737082,820.5836161637083
1731141352.8335395,787.9487630718754,795.9276217550527,825.0380409609454,817.7585554131066
1731141352.834736,785.6561320567608,795.3347881171726,821.5021784259053,811.5621090132338
1731141352.8374424,791.8008775219458,793.1733332876798,813.4444096507509,804.9845397561419
1731141352.8413453,803.347378919674,790.2266282421327,804.0316962463144,802.4916314736186
1731141352.8424306,813.7664665996537,788.0158208773857,797.6988450212162,807.3939398851486
1731141352.845248,817.7771477855969,788.0261513001907,797.4902697019331,819.551714944294
1731141352.849151,815.0235782266935,790.8830058317188,803.2146525743282,835.058110742761
1731141352.8530538,810.1048324905438,796.0167800579399,811.8882833777776,848.3796292239251
1731141352.8535814,809.2048913094295,801.970004519686,819.9522526518228,855.5950223156685
1731141352.8569565,815.837677949009,807.0791054344634,825.334520913356,856.3604175815235
1731141352.8580568,828.4602396518952,810.1180471641583,827.8899576427924,853.2588657009697
1731141352.8608594,841.2489916617627,810.6569352022534,828.4376843900219,849.4539208742922
1731141352.8644,847.4232005511517,809.1169176214347,827.7249116365157,846.759726416225
1731141352.864762,843.1477364657857,806.5572585774399,826.2046721168263,845.3203300743129
1731141352.868665,829.7440035326346,804.200375417989,824.3274219761736,844.4410057304351
1731141352.8724267,812.831526265308,802.8517343480404,822.6132960993822,843.4829104165451
1731141352.872568,798.8764765417818,802.5932789691225,821.3897658154464,842.2247530375428
1731141352.8736827,791.5062241049965,802.9775213090677,820.6275462071777,840.7612607923211
1731141352.8764706,790.2232556158359,803.4866306064868,820.0821337869779,839.2633490970017
1731141352.8803737,792.052426190091,803.8447793144339,819.5323234618803,837.8278428444448
1731141352.8842762,794.1606195359635,804.0358481736602,818.8931080738048,836.4593086436989
1731141352.8881793,795.2825922762045,804.1600294629012,818.187210096826,835.1199324702251
1731141352.8893087,795.532077699617,804.303178682795,817.4681667298318,833.7774501216962
1731141352.8912723,795.5167918876617,804.4908069315657,816.768871879884,832.4222825725602
1731141352.892082,795.6681818329686,804.7063972842307,816.0926346233377,831.0607249538193
1731141352.8959846,796.0695820093229,804.9256632525016,815.4279113071863,829.7020974779589
1731141352.8993266,796.601847763881,805.1361688059234,814.7639469806057,828.3513291935469
1731141352.8998876,797.1331107195178,805.3383696015087,814.0970145624444,827.0085106525648
1731141352.9037902,797.6084977658259,805.538009025797,813.4287078080306,825.671721415132
1731141352.9049346,798.040651002364,805.7395465911436,812.7618833202213,824.3394983969387
1731141352.9076931,798.463486916962,805.9441352217087,812.0981269529293,823.0116075063888
1731141352.9101176,798.8990326500835,806.1508172369528,811.4374583248216,821.6886038193895
1731141352.911596,799.3505999588996,806.3583563462824,810.7791819585894,820.3711458195137
1731141352.9154987,799.8115432488007,806.5661982945004,810.1226995012021,819.0596323797854
1731141352.9194016,800.275243152856,806.7744568660052,809.4677977047793,817.7542052778679
1731141352.9205608,800.7393786348957,806.9834899368808,808.8145309840654,816.4549072824886
1731141352.9233043,801.205074775973,807.1935642974759,808.1630028504526,815.1618083957717
1731141352.9272072,801.6743804952154,807.4047676526849,807.5132403762144,813.87503957157
1731141352.9289627,802.148604376005,807.6170808713395,806.8651875544007,812.5947655186268
1731141352.93111,802.628058961732,807.8304730630985,806.2187549966839,811.3211480645659
1731141352.9342532,803.1125699368035,808.0449476170282,805.5738637705582,810.0543280698406
1731141352.9350128,803.6019957931612,808.2605415325286,804.9304586725782,808.7944266719846
1731141352.9361868,804.0964276641851,808.4773096544836,804.2884966150992,807.5415548397452
1731141352.9389155,804.5961277576002,808.695313503142,803.6479266643249,806.2958218727825
1731141352.9428184,805.1013947548525,808.9146107411173,803.0086778536593,805.0573388619545
1731141352.9467213,805.6124813052891,809.1352330405283,802.3706673393194,803.8262160768306
1731141352.9478085,806.129582281184,809.3571575728843,801.7338324058887,802.6025544492497
1731141352.9506242,806.6528562184982,809.5803079969542,801.098168768946,801.3864347040922
1731141352.9518127,807.182446437313,809.8046299324988,800.4637307425422,800.1779141444483
1731141352.954527,807.7184971941456,810.0302346408614,799.830545960352,798.977044231746
1731141352.9584298,808.2611760035085,810.257493116225,799.19845690579,797.7839108190091
1731141352.9623325,808.810699622415,810.4868765172821,798.5670223732033,796.5986692281353
1731141352.9662354,809.3673305570827,810.7184369516456,797.9357008233327,795.4215169606231
1731141352.9666538,809.9313005051813,810.9512057867263,797.3044225121726,794.2525612539313
1731141352.9674387,810.502667478668,811.1832749685796,796.674234374926,793.0916345230363
1731141352.9691796,811.081224283046,811.4133495610819,796.0471769500558,791.9382567732155
1731141352.9701383,811.6666611318419,811.6434663938137,795.4245537906585,790.7919945755949
1731141352.974041,812.2590852861964,811.8804734322233,794.8039768638699,789.6532208907273
1731141352.977944,812.8596169702074,812.1324745957239,794.1778594933324,788.5237030446772
1731141352.9818466,813.4702963801265,812.3987273794102,793.5374682523728,787.4059362905213
1731141352.983065,814.0925226306115,812.6589870624704,792.8840189367902,786.3005278975451
1731141352.9854991,814.7243462769682,812.8770324141783,792.2400343533836,785.2028487891689
1731141352.9857495,815.359030922396,813.0319944451284,791.6448116754807,784.1028494700088
1731141352.9896524,815.9886600762561,813.1686261512141,791.1195435178531,782.9925079129291
1731141352.9935553,816.6142437234748,813.4179427747305,790.6126459403457,781.8802142221126
1731141352.997458,817.2562699793349,813.9170173477562,789.9788374279822,780.8004066126664
1731141352.9986908,817.9509997427092,814.6048863172509,789.0681498195006,779.7982239858096
1731141353.001361,818.7191209490084,815.0088722799377,787.9443702726285,778.8785665737431
1731141353.004106,819.5161021528493,814.2637381059103,787.0964907739952,777.9470848744672
1731141353.0043447,820.2134887658837,811.5243470662373,787.3555145241152,776.8202773425014
1731141353.0052636,820.6835282247765,806.5878379210855,789.335939896326,775.3881650967205
1731141353.0091665,821.0139417570199,800.2451081752506,792.7265278325735,773.9153731913351
1731141353.0130692,821.752550572025,794.0127973989911,796.183013100156,773.2877890762398
1731141353.0143168,823.9274694744972,789.3866526090021,798.1633587168714,774.9054159702602
1731141353.016972,828.511324867879,787.1285233964478,798.0472028045315,780.0422969223941
1731141353.0208747,835.2664115573821,787.0274132041185,796.5167084931661,788.8587334707684
1731141353.02319,841.7375803334934,788.214089900293,794.8953260368412,799.7107354549526
1731141353.0247777,843.8119724713007,789.8065304560433,794.100438670584,809.5380313648161
1731141353.0286806,838.367561179101,791.5258869609322,794.1222810391744,815.464024804083
1731141353.029943,826.3063114930684,793.8829396439851,794.3542356560263,816.6094806783134
1731141353.0325832,813.0740742333008,797.689895046298,794.3070988659542,814.644965686877
1731141353.036486,805.3942167601507,803.1228944580413,794.011006418506,812.4849962183774
1731141353.0390325,806.2701027064993,809.0563400228748,793.8632196965366,812.0630417724004
1731141353.0403888,812.2887117186881,813.3498241239413,794.2332763320727,812.9102768881647
1731141353.042035,815.834633583656,814.060957779302,795.2323960408435,812.5990145479062
1731141353.0442915,810.9030428708347,810.7577104461848,796.733728516443,808.6159781525208
1731141353.0455687,797.9830961200756,804.9319017117209,798.44703943467,800.1621049724052
1731141353.0481946,783.8787119196923,799.1448233300924,799.9079782395946,788.573074599553
1731141353.052097,776.3985203808487,795.4827756207385,800.4994870114183,776.3101541425831
1731141353.0560002,778.3004802048719,794.4336858610701,799.7033684439835,765.6699840491724
1731141353.059903,785.6443584357567,794.9752455935368,797.5242652490265,758.3677493435015
1731141353.060881,791.8138215113213,795.7033351373873,794.7174958061804,755.9307436460253
1731141353.061195,793.411056181794,796.0017317014834,792.492686689521,759.7290509024906
1731141353.0638058,792.742665789397,796.2752960733449,791.7904347958578,769.8614165439323
1731141353.0677087,794.9614455754497,797.1364999786722,792.647040014281,783.7516064132305
1731141353.0716114,802.744015499537,798.3980022511523,794.1723845394066,796.2924664161355
1731141353.0739589,813.2523114201955,798.924287890589,795.2212442241445,802.2803531603331
1731141353.0755143,819.7854303390867,797.6070692846438,795.2636607143845,799.6243708314918
1731141353.0768209,816.5363809735486,794.6058720495541,794.7332027368282,790.7812553448861
1731141353.079417,802.7010247396258,791.5919712211987,794.5283383901224,781.2114856665853
1731141353.0797262,783.1333025818304,790.5523330107535,795.1029597409992,776.0291780227371
1731141353.08332,765.4329311298249,792.0820541754493,796.0032020257399,777.2083253191581
1731141353.0872228,755.5972260792526,794.6920748185042,796.3014427370167,782.9607292776925
1731141353.0911255,754.9525671386627,795.829660763211,795.4924779652239,789.283263481629
1731141353.092447,760.0823402969052,793.8114955085346,793.972416380516,792.5292923553229
1731141353.0950284,765.6280730810338,789.1113818278724,792.6938577257121,791.5833760929501
1731141353.0985715,768.0835658349226,784.0461602834031,792.4309670077394,788.5162843767791
1731141353.0989313,767.9954582670094,781.1965326802351,793.3656979262369,787.2997959306135
1731141353.102834,768.9769109127209,781.763385416493,795.2176821839395,791.2346521030005
1731141353.106737,774.2622623741487,784.9575539099745,797.5681168736911,800.6994889425025
1731141353.108073,783.5630656064903,788.709028938402,800.0135913335913,812.7829889027324
1731141353.1088853,792.9216044631667,791.0817037373963,802.1779681326381,823.0553490718181
1731141353.1106396,797.8379324578257,791.3630165218244,803.8069210402527,828.1493287152175
1731141353.1145425,797.0889374623565,790.1370399151651,804.9564984279359,827.3419770660811
1731141353.117417,793.9363612435417,788.5076603059567,806.0348938359765,822.3101856832121
1731141353.1184452,793.6159071767528,787.3015873048923,807.5368363132882,815.6717345319552
1731141353.122348,799.1980481262809,786.9174423519102,809.6173273730014,809.5630858028145
1731141353.1236987,809.2398267291621,787.6582791288474,811.8266840964156,805.0374992359831
1731141353.126251,819.0003861260398,789.8171664327984,813.2368087786026,802.1874298781072
1731141353.1301537,823.9941410039003,793.176974629829,812.9590220076292,800.4422416342558
1731141353.1340566,822.9620738422276,796.5082212738228,810.8010215182253,798.7242954249361
1731141353.1362624,818.1752842752317,797.9466882652597,807.612445662641,795.6731431895716
1731141353.1379592,813.2968524369676,796.2893344421951,804.9375853350867,790.316980457189
1731141353.139325,810.7623725357888,792.1013263984164,804.0793312871219,783.0609237852613
1731141353.1418622,810.5879572242318,787.4464789329433,805.2533014228085,776.1443142639376
1731141353.1438117,811.0918515859798,784.3681575690932,807.5435694470965,772.7503758630437
1731141353.1457653,810.569751373614,783.5573866513821,809.693686075418,775.0496195970832
1731141353.1496675,808.5342637828982,784.3309162837938,811.0103954015265,782.6289344945379
1731141353.153571,805.7717557584875,785.572877433092,811.6005165741639,792.6316725419796
1731141353.154951,803.4776872978059,786.5655869349486,811.8543764799794,801.4583832410269
1731141353.1551075,802.320593136961,787.1741756687918,811.8071826208356,806.5813136403519
1731141353.157473,802.1526178761541,787.586596829578,811.0464871949006,807.2568244584871
1731141353.1613762,802.4827718719209,788.0082310654614,809.2167431779799,804.2178916046928
1731141353.1652792,803.2275061404176,788.522353235624,806.5675450835524,799.1845590605038
1731141353.1691818,805.0085907992983,789.1073058218815,803.9881621583181,794.5434592660629
1731141353.170577,808.5496163732911,789.7097229340974,802.5069756558642,792.7526543882811
1731141353.1730847,813.4782555264923,790.2959065357652,802.7220417980144,795.1248659939105
1731141353.1739533,817.6200624787306,790.8616496622325,804.5956592644483,800.5969581601961
1731141353.1769874,817.8608685084907,791.418041474722,807.6181832460785,805.7490851390667
1731141353.178738,812.4077703767075,791.9758116793852,811.0505840757274,806.7142426239883
1731141353.1808903,802.6235563683343,792.5388271483774,814.0732314516404,801.9843937983288
1731141353.1847932,792.4469178269737,793.1055854192293,815.9356210943337,793.928177853131
1731141353.186203,785.609808695592,793.6732124241317,816.2151990146997,787.4859251530111
1731141353.188696,783.2390638411413,794.2400388707673,815.0604424847741,786.7839556934122
1731141353.1925988,783.9018497584208,794.8059554384673,813.1749303514293,792.2903763144769
1731141353.1927986,785.4223221875932,795.3715899147752,811.4776632472576,800.7090501593526
1731141353.1965015,786.4393618221155,795.9374904952748,810.6345473741783,807.4413348794238
1731141353.2004044,786.7191583595088,796.5038222246594,810.7287376025006,809.4776446858078
1731141353.201829,786.6346294436077,797.070477810617,811.2287540135688,806.731964115749
1731141353.2043073,786.5786310736702,797.6373046009226,811.2750380134988,801.4684287544002
1731141353.20821,786.7045076177184,798.2042436922995,810.1809398425619,796.7384074368234
1731141353.211644,786.9659268710589,798.7713349048133,807.9028985032263,794.8192901104549
1731141353.212113,787.2593186477084,799.3386339273759,805.1590682734862,796.1982185108556
1731141353.2136643,787.5210421057363,799.9061147588069,803.0254075486758,799.4433604531637
1731141353.2160156,787.7442600306384,800.4736359517792,802.2049907055491,802.1665319642373
1731141353.2174551,787.9507182160768,801.0410393529231,802.4707465863786,802.6898787460135
1731141353.2199185,788.1607622640522,801.6083800441254,802.7138769604201,801.2681677315686
1731141353.2238214,788.3813272196085,802.1761282157597,801.6046051032199,799.758716265384
1731141353.227724,788.6091559445134,802.745027438928,798.4570732128069,799.8463018354644
1731141353.2304895,788.8385524616031,803.3153713521668,793.8059281807973,801.3239398641228
1731141353.231627,789.0662401023903,803.8859817037581,789.3873702869205,802.0364295738353
1731141353.233081,789.291938622994,804.4539745028969,787.4463448142801,799.6338294681218
1731141353.2355297,789.5167381860136,805.0166962119642,789.5658705730292,793.6108590089622
1731141353.2394326,789.741540300385,805.5758923041526,795.6060671153862,785.8423876903212
1731141353.2433355,789.9665035474159,806.1410096930523,803.5346749789287,779.1909359225435
1731141353.2472382,790.1912758725878,806.725683687187,810.4558939173378,775.4449499445674
1731141353.2485907,790.4154312216563,807.3334744311231,814.1947210203184,774.3417349206204
1731141353.2487073,790.6387231677074,807.9393220693124,814.2976819843594,774.3889641897767
1731141353.2493348,790.8610786549513,808.4879849575354,811.8406406769917,774.6004296350332
1731141353.2511413,791.0824367980143,808.9342143018522,808.4339981897746,775.4985072945248
1731141353.2550435,791.3025864892128,809.3214887024166,805.2807929024623,778.4717096920243
1731141353.258947,791.5211485775234,809.8355741932114,802.7993583919125,784.1567109419541
1731141353.2628496,791.7377952353609,810.7203335778045,800.7531434358107,791.4439137945707
1731141353.264333,791.9526397747811,811.9913759842507,798.6140794938964,798.0379726480062
1731141353.2667522,792.1664598640674,813.0831337330195,795.995774998757,801.9275047175564
1731141353.26818,792.3802384015119,812.8156228102723,793.062704780185,802.3300051364939
1731141353.2706552,792.5938068120454,810.0349180214224,790.70978272959,799.4721165295061
1731141353.2745578,792.8043777000416,804.6756898982904,790.2464446449476,793.9007904520269
1731141353.2784607,793.0069478610695,798.2671284558854,792.5824445622937,786.3361273801264
1731141353.2799592,793.1984603513039,793.1475686758753,797.4041664122939,778.1657111473103
1731141353.2823637,793.384658759949,790.9561872350013,803.0669370892563,771.7490235883903
1731141353.2835174,793.5832412261899,791.7915700654963,807.5123375516982,769.7768281841579
1731141353.2862663,793.813821657869,794.6816267284503,809.6637013386124,773.8182170617448
1731141353.2870257,794.0717896313412,798.6310705372306,810.2142185362635,782.9906753227568
1731141353.2901692,794.3027028031775,803.0985401372333,811.0824989697425,793.7918105554162
1731141353.294072,794.4151214421979,807.6055348117122,813.8523132501392,801.4957760242578
1731141353.2955852,794.3641540760544,811.2000140009004,818.3691261362707,802.4983388025199
1731141353.2979748,794.2778558288516,812.5867303545589,822.5962516675281,796.2271013392557
1731141353.3018775,794.4989367807415,810.925587384585,823.8748520960696,785.3703045985436
1731141353.3057804,795.3668242910211,806.5476241544901,820.6588426810813,774.284464155863
1731141353.305871,796.7063706976893,800.9048488969235,813.4710012585155,766.7056751384594
1731141353.309683,797.3585769379322,795.7843975777323,804.4891344230394,764.2691291225872
1731141353.311211,795.4335807359028,792.4201435264982,796.2378036313379,766.5673569962144
1731141353.313586,789.6988374277713,791.1130477863525,790.4348234960952,772.2730563988895
1731141353.317489,781.3108631993221,791.4616095765107,787.7033118503066,780.1935532614251
1731141353.318444,774.0403535608665,792.8300542628937,788.0072178943293,789.4350871447759
1731141353.3213918,772.0779058238533,794.6444835792778,791.0976989729307,798.8101097649468
1731141353.3247163,777.0258307439535,796.4551982151571,796.4375052121721,806.433818376982
1731141353.3252945,786.7925069667995,798.0042558512979,802.7676322612847,810.3743165328024
1731141353.3268373,797.3264376232603,799.4248827540335,807.9974945481505,810.134272776568
1731141353.3291974,805.4482318882239,801.3221370036313,809.9011912269762,807.5547354119586
1731141353.3331,810.2162878102982,804.3937517591321,807.3398460065113,805.8025257442321
1731141353.337003,811.9525902029688,808.7085408782851,801.1442659549659,806.7974976331259
1731141353.340906,810.5055960930629,813.2863298638655,793.9612868666627,809.2749943798935
1731141353.3424633,805.058609686306,816.500386724679,789.092825755604,809.5587098658145
1731141353.343562,795.9557087572217,817.0479671517311,788.9649517413126,804.7335517777839
1731141353.3448086,786.4310490193922,814.6447782780597,793.9949197020761,795.4891939423575
1731141353.3487115,781.6549364862594,809.8935448814487,802.4093535538188,786.0008289388885
1731141353.3526142,785.0305485024769,803.6445811975311,811.153568229466,780.8668384828902
1731141353.3533704,794.8054306721226,796.6299916067359,817.4418003102113,781.7374447945804
1731141353.3565173,804.4206133335823,789.6999195510278,820.0194865207263,786.3582199523158
1731141353.3580892,806.9098121917888,784.15953126595,819.3668852501032,790.4806640333143
1731141353.36042,800.000423061917,781.4858562753474,816.9076364322664,790.8332654146111
1731141353.3624072,787.8515436931849,782.3998375092004,814.038797161777,786.9951685662782
1731141353.364323,778.12384458711,786.1177321714396,811.7067891678741,781.2748989241564
1731141353.3682256,776.6946937554353,790.6140196505585,810.4879069121263,777.0507161962557
1731141353.3721282,783.861118093315,793.821848959476,810.6204619030291,776.634064830252
1731141353.3737152,794.4922905948084,794.8288232806138,811.7436875267103,779.7796395437288
1731141353.3760312,801.6971150832719,794.1835627948757,812.7503055322292,783.7310884336481
1731141353.379934,801.288838106306,793.2653699344008,812.2450273378163,784.980623941254
1731141353.3812523,794.0676852505521,793.3798954994874,809.4396295487564,781.8007768581889
1731141353.3838367,784.6853892799463,795.2191860026518,804.7189004606236,775.8527149981354
1731141353.3877397,778.2652189842064,798.7891633322067,799.3679390994407,771.5825296384609
1731141353.3882968,777.3004394973482,803.5009981300991,794.791266326284,773.5476463881212
1731141353.3893414,780.793514406993,808.2012969960169,791.9671818861545,783.2570676471178
1731141353.3916423,785.7488109667817,811.2783866837216,791.4090949799697,797.5741246278169
1731141353.3955452,789.4938911197131,811.1396190984104,793.2298830186747,809.9172646705281
1731141353.3994482,791.0675032924714,807.0520330209484,796.9278105679381,813.8210854046365
1731141353.400098,791.0480570311428,799.849423945571,801.154734105202,806.8229164130594
1731141353.4033508,790.5158775288394,791.8740262141805,804.0557537911468,792.2002348758484
1731141353.4049673,790.1960042868105,785.9748328395245,804.2532808835474,777.2901279105492
1731141353.4072535,790.2460625700324,784.0935772349104,801.754006080205,769.2972278613827
1731141353.4111564,790.4937721737814,786.3358548327251,797.936105913292,771.1724712147247
1731141353.415059,790.7367675031189,791.1153122090794,794.5409868472225,780.1562614550918
1731141353.4189434,790.8875355549076,796.2027016260193,792.510075174076,789.8835185843773
1731141353.4189622,790.9630637856939,799.928023513078,791.6616351368426,794.6319468562731
1731141353.4205933,791.0148082536712,801.8228383588279,791.4114873225236,792.8953002095634
1731141353.422865,791.0769629399276,802.504107952089,791.7437380242552,787.9571047647586
1731141353.4232233,791.1549816632368,803.064421860517,793.4117901964252,785.2121276890093
1731141353.4267678,791.2385940096583,804.3523847661686,797.1414886135576,788.2013820441506
1731141353.4306705,791.3172233416643,806.451274953499,802.6310327194225,796.1579675068497
1731141353.4345734,791.3868057827185,808.5957571197101,808.3545107751225,804.7320016561534
1731141353.4362192,791.4486529770195,809.6304218635877,812.381841764769,809.252977756186
1731141353.4377887,791.5056055899481,808.7847833568555,813.4888793312039,808.0506501034099
1731141353.4384763,791.5594255380505,806.216804498884,811.6997655993672,803.3891568848013
1731141353.442379,791.6103502693256,802.8608375117836,808.076523981442,799.4969493203172
1731141353.446282,791.6578557322696,799.6754989414136,804.1953341726953,799.4645897788629
1731141353.4501846,791.7014633490855,796.9471972976992,801.7015289545088,803.5090795334766
1731141353.4518454,791.7410618485778,794.2948628589025,801.9061047546926,809.6615804967375
1731141353.4540875,791.7768169463259,791.3910861031897,805.2708229746836,815.7128088520607
1731141353.4566343,791.8089551196016,788.721783153471,810.9799758153317,820.3786865833499
1731141353.4579904,791.8376245085648,787.5950153944331,817.0697942157271,822.8703723441798
1731141353.4581497,791.8628806686373,789.2246441967376,821.2949420486152,821.9401204849429
1731141353.461893,791.8847527864996,793.5624473519853,822.272634126726,815.9767779605835
1731141353.465796,791.9033254363648,798.8901906104325,820.1312099569471,804.3986290077909
1731141353.4674714,791.9187760581207,802.6502619734861,816.2510316729657,789.0033614756877
1731141353.469699,791.931318218104,802.9926509441513,812.3710823029414,773.8143132781482
1731141353.4736016,791.9410425218164,799.9183146684464,809.7061538276462,763.3145520200264
1731141353.4754796,791.9477510854782,795.227892253694,808.5341652038861,760.2929896959407
1731141353.4775045,791.9510031476904,791.4016932807837,808.3010396289188,764.655524810627
1731141353.4814072,791.9505736891249,790.2231300611828,808.0731391718051,773.6899728681078
1731141353.4830973,791.9472028203318,791.9463641144059,807.1604609924676,783.3834347093572
1731141353.48531,791.9429345793095,795.3202129919578,805.6699437481143,790.0477558148405
1731141353.4892128,791.9400112374625,798.3081424044803,804.5976379130879,791.6066298770634
1731141353.493076,791.9380158805686,799.1193613519863,805.1706394657216,788.137955939635
1731141353.4931157,791.931093229382,797.1012806841453,807.7070477945201,781.5432444108585
1731141353.4943247,791.9093919123073,793.0611234169356,810.881848640649,774.5525965218133
1731141353.4970186,791.868231556148,788.7900572211637,812.2561482464997,769.5844045467197
1731141353.4987233,791.8219180026583,786.0161510449683,809.9973735730728,768.0443677699052
1731141353.5009212,791.8082970761014,785.4482875081983,804.5495350669038,770.329464943203
1731141353.5048242,791.8651648878807,786.5642963867623,798.7378713793707,776.2637905427896
1731141353.5087268,791.9755653448473,788.2495315553899,795.9305393960619,785.3701242884575
1731141353.5126295,792.0204440332714,789.744405616282,797.5877397353526,796.6313017405314
1731141353.5131705,791.8179229306929,791.1652541305954,802.1912287211891,808.0813441147753
1731141353.5143497,791.3090979737099,793.2491261383232,806.4196619865714,817.0097977084553
1731141353.516533,790.821064009028,796.582020923581,807.541976143005,821.130266610539
1731141353.520435,791.1470341150738,800.9406231728569,805.1045594771938,819.9839574753495
1731141353.5243382,793.1453029159802,805.2755139221465,800.7817894724135,815.2692060428199
1731141353.5280025,796.9272491726339,808.3653940346726,796.8323322662494,809.5990229867259
1731141353.528241,801.3215278118998,809.6265000662576,794.5362590532967,804.7532984605596
1731141353.5299754,804.3860300476553,809.4211837503249,793.6848018580533,801.0757777675966
1731141353.5320158,804.8030510303603,808.652870634747,793.191233977221,798.4513034030938
1731141353.5321438,802.9224764373429,808.0831119543275,792.1305507776812,797.5457679879144
1731141353.5360467,800.4050538184553,807.9991601889764,790.4614430058247,799.6902192760876
1731141353.5399494,798.804557510605,808.3721008353455,789.0974742060638,805.3429392299332
1731141353.5438523,798.4651516430606,809.0437780713819,789.4059295069803,812.7815211129873
1731141353.5456014,798.6955773421115,809.5373966037001,792.420563501928,818.6648731371816
1731141353.547755,798.8645705693705,808.7914569598564,798.1277975914629,820.3206130149932
1731141353.5508611,799.2376980818975,805.5467279929674,805.1797876727642,817.849850456146
1731141353.551658,800.7378833716384,799.5296537337513,811.251659113021,814.1172625046546
1731141353.5555608,803.8488206200747,792.4717533540166,813.9874995164967,812.4302261550934
1731141353.5594635,807.6552158876847,787.7052699302411,812.1781421783265,813.699198315956
1731141353.561227,809.9955233866182,788.1740543274474,806.6111564300157,815.4673957926424
1731141353.562929,808.8996139894098,794.2381109841893,800.0343289208524,813.8418301101711
1731141353.5633664,804.3542255335209,803.0802184618016,795.9909406795288,806.9630117163346
1731141353.567269,798.864709052922,810.3429726910418,796.923075000719,797.1012144915056
1731141353.569707,796.0236059594404,812.8729587335954,802.5809070740472,789.2989344644409
1731141353.571172,797.9905402111854,810.6290357976088,809.8649149691997,787.3711517892326
1731141353.575075,803.8718522057067,806.500666287997,814.4617205072361,790.6151756824228
1731141353.5768535,810.2662422616322,804.2740740313614,813.3984833345306,794.2270425310253
1731141353.5789776,813.3903598884762,806.1199870022425,806.8540790209757,793.1935816183343
1731141353.5828805,811.0955445960255,811.1473130192645,797.9568070050068,786.3050515577244
1731141353.5867832,803.6314014318966,815.9012636457834,790.704935718327,776.9385408623224
1731141353.588552,793.2373786284204,816.5854451400634,787.5079995302062,770.2710458205672
1731141353.590686,783.1909947959068,811.6951742517203,788.0551512077666,769.5426424385716
1731141353.5924797,776.7049424929419,803.276090283109,790.1205757662281,774.279635500128
1731141353.5945888,775.866740843696,795.7375549992802,791.4670691783768,781.2969211698245
1731141353.597855,780.9679130949567,792.8631041056627,791.3607390128354,787.1274133150578
1731141353.5984917,790.5601989024314,795.1536854995733,790.7185618537502,789.9658156749331
1731141353.6023946,802.1002490433438,799.5623885005703,791.0093241343841,790.1137961118262
1731141353.6062973,812.6420146691208,801.8781381289182,792.8717076374918,789.1235869692139
1731141353.6073973,819.3209791870373,799.8914782337055,795.5028935373285,788.5102095577637
1731141353.6081054,819.9978932870883,794.8474544660965,797.242899597345,788.8965561823104
1731141353.6102002,814.3926872710053,790.1502470552693,796.8903864697824,789.9866235051701
1731141353.6141028,805.109331629883,788.5863143270071,794.7529462357808,791.1381430662996
1731141353.6180058,797.2403339740337,790.4527031978846,792.6423304131741,791.9403137202667
1731141353.621909,795.9313292743147,793.9458967934855,792.7980170588199,792.3812290366291
1731141353.6237316,803.0640800293853,797.0201713162221,796.4556017757789,792.6633782568697
1731141353.625811,815.43651786505,798.7579387543461,802.9708055220738,792.9688383657235
1731141353.6262429,826.1987917751766,799.1705182443578,810.039104495205,793.3613080845666
1731141353.6297145,829.1068516606376,798.1879531750772,814.9120805215521,793.8151797066953
1731141353.6327815,822.9029917406476,795.3697915928299,815.9225290813569,794.2829296931232
1731141353.6336167,812.554595068161,790.8178113752803,813.375427243584,794.7374828446002
1731141353.6375198,805.9847535195215,786.1690628765389,809.1846112453068,795.1775476407353
1731141353.6393576,808.3212307810313,784.216336607343,805.482536359275,795.6137665580393
1731141353.6414227,817.9918572220658,787.0473474361496,803.2419816351957,796.0552949082222
1731141353.6450882,827.9329726876274,794.2238904609851,801.9882966814674,796.504956657816
1731141353.6453254,831.1285015577482,802.723479725126,800.7711060852419,796.9611158558322
1731141353.6492283,825.954959364342,808.8500452364788,799.4336596533161,797.4212659576807
1731141353.653131,816.8678021989796,810.5397673576621,798.9355340207499,797.8841149764022
1731141353.6549835,810.0596297551888,808.2007876839276,800.4026750617335,798.3497212008207
1731141353.657034,808.1919662564485,803.6914701358446,803.8551953859389,798.8187061635871
1731141353.6609368,808.9377113881256,798.7279703057211,807.9105249526204,799.2915628747087
1731141353.6639335,808.2946397464191,794.2257913515676,810.7893038727155,799.7684375716367
1731141353.6648395,805.1280067927408,790.7879716700112,811.6521766497553,800.249251690336
1731141353.6677082,802.4445564419218,789.3061140708853,811.0074848735421,800.7338936723955
1731141353.6687424,804.2236757328891,790.7423732355194,809.9134800745613,801.2223198164518
1731141353.6706097,810.940951931533,795.27710287175,808.8945622337234,801.714551324408
1731141353.672645,818.1768897445654,801.7608292029392,807.6810485358188,802.2106279969927
1731141353.676548,819.8313566533683,808.0497415997473,805.9385604117497,802.7105750678061
1731141353.680451,813.1911499170153,811.9267369981628,804.094294099364,803.2144030504866
1731141353.6827793,801.3735628759416,811.9424734488896,803.2637106564681,803.7221276881432
1731141353.6843536,791.012084123786,807.8547902451429,804.1997356141877,804.233781501008
1731141353.6862357,787.2023159038853,800.7269487953861,806.2099524025773,804.7493923867493
1731141353.6882565,789.9098005675492,792.6796710605562,807.1540793541568,805.2689306376196
1731141353.6921592,794.5432374134817,786.1391203419629,804.7866421284549,805.7922692710866
1731141353.696062,795.8811022285922,782.7417490775107,798.5556658632452,806.3192348581604
1731141353.699965,792.098590859501,782.6077838363115,790.46990684804,806.8497922960893
1731141353.7016244,785.9570895397761,784.6292663810573,784.2478559534136,807.3842696180739
1731141353.7018616,782.5738715587026,787.5305122221891,783.2072143496248,807.9233479058602
1731141353.7026348,785.6254536294447,790.6955559594534,788.2734222932256,808.4675196550756
1731141353.7038677,794.7627505300885,794.0705659216374,797.4182774115608,809.0160986116094
1731141353.7077706,805.9807676075826,797.4930312436405,806.8854749111902,809.5666259747532
1731141353.7116733,814.4431071374089,800.3315479055321,813.3758807992259,810.1160620126551
1731141353.7155762,817.4569298728444,801.7996598319241,815.7256624631596,810.6643990311535
1731141353.7174876,815.4337939526395,801.5084999885875,815.0120707686569,811.2186551512494
1731141353.719479,810.6322113184888,799.7089282287402,813.2610615912295,811.791947452897
1731141353.7204697,805.3067756000455,797.1729541594098,811.9743093289943,812.3924619225771
1731141353.7233818,800.8142127059381,794.9718402612032,811.5508984844084,813.0049443828855
1731141353.727285,797.7307200845823,794.2047791968504,811.6454229104553,813.5816732579464
1731141353.731187,796.138861370519,795.5333961349949,811.792987121864,814.0685394996154
1731141353.7331135,795.7221995617696,798.639632293694,811.7628399103631,814.4746599820093
1731141353.7350905,795.9200351735611,802.1073065515914,811.5674323281315,814.9413616701308
1731141353.7375612,796.2268187408365,804.0760231534599,811.3154422008126,815.7072209813797
1731141353.7389932,796.3970047691922,803.3308780262292,811.0888298295995,816.8753288753112
1731141353.7393153,796.4243300785691,800.0099138775121,810.9068028763699,818.0379405639402
1731141353.7428958,796.4008463370011,795.4017272408379,810.7495749222396,818.0509456472132
1731141353.7467988,796.4005701799392,791.0817047994682,810.5929543458963,815.3393985653881
1731141353.7487395,796.4425848165496,788.1162455991388,810.4259678418217,808.8244659227324
1731141353.7507014,796.5101024726587,786.849163996351,810.2501773799138,798.9885607428322
1731141353.7546043,796.5812647536579,787.1934170365882,810.0715544757003,788.2078568716202
1731141353.7581606,796.6456117025112,788.9730967965995,809.8942323869074,779.7808783255184
1731141353.7585073,796.7040578016976,791.9620823881088,809.7189693100378,776.0736596514342
1731141353.76241,796.7617799922272,795.6670321299514,809.5445967601462,777.1075501583275
1731141353.7643657,796.8224984140089,799.2287304195129,809.3698459752989,780.747284766407
1731141353.7663128,796.8869279090825,801.7641334537252,809.1941953058158,784.3438899737844
1731141353.7702155,796.9539893209737,803.0181771458925,809.0177669344358,786.4305381903254
1731141353.7724876,797.0224500358518,803.7236588618089,808.8408794816594,787.1478049766326
1731141353.7741184,797.0917239381315,805.1395104091109,808.6637331043031,787.4282429040469
1731141353.777006,797.161810237208,807.9677637534891,808.4863499723413,788.1233174082213
1731141353.778021,797.2329004073277,811.578812445575,808.3086628465697,789.9382268805886
1731141353.7799916,797.3050880986291,814.3558775949746,808.1306102285606,793.7295373850026
1731141353.781924,797.3783045932154,814.9638269852143,807.9521689795984,800.1459120508531
1731141353.7858267,797.4523915640564,813.4194201226429,807.773332680017,808.5863322501418
1731141353.7897296,797.527187417032,810.9746034123449,807.5940808212009,816.7591863158804
1731141353.7936325,797.6025655513224,808.9277699712466,807.4143807920101,821.8760731573185
1731141353.7956176,797.6784280761473,807.4553817314998,807.2342340064487,822.7024504490537
1731141353.7958517,797.7546843369225,805.4930010222166,807.0537301114582,820.4449211328555
1731141353.7975354,797.8312363591006,801.7512835300865,806.8730316008445,817.472565995647
1731141353.801438,797.9079763900253,796.0341920148402,806.6922230243123,815.1545886807755
1731141353.805341,797.9847912062705,789.826096437781,806.5110718484639,813.0405630264133
1731141353.807414,798.061566667197,785.6453576758955,806.3289356599191,810.120095655854
1731141353.8092437,798.1381895588306,785.4923060572561,806.1451449645762,806.6703489015533
1731141353.8112438,798.2145471507326,789.357412592719,805.959934375727,804.6436823538916
1731141353.8131466,798.2905260766316,794.8469179046361,805.7752945840526,806.0909130307759
1731141353.8146968,798.3660116538085,798.3989741963003,805.5944010767133,811.0314181599848
1731141353.8170495,798.4408878464542,797.5131924289899,805.4185622355463,816.6744033001099
1731141353.8209522,798.5150375589562,792.5286254382356,805.2428327064963,818.7503187375323
1731141353.824855,798.5883429181147,786.5570694671212,805.0548971807267,814.0623083037067
1731141353.8268695,798.6606854047727,783.4550488789129,804.8431814093517,802.4932094612101
1731141353.8287578,798.7319458691347,785.3087180638264,804.6146269056753,787.1442136914774
1731141353.832661,798.8020045173319,791.3383694266306,804.4090701590986,772.6286772269931
1731141353.833542,798.8707409250003,798.8773038531357,804.2846980128372,762.7673109206198
1731141353.8365636,798.9380340851295,805.32867816337,804.2569814631886,759.1185452527875
1731141353.8404665,799.0037624720661,809.4514203088744,804.2170002719936,760.9008268272963
1731141353.8423405,799.0678041039712,811.3136897350047,803.9170229133764,765.8196954779703
1731141353.8424957,799.1300365972803,811.5204863366565,803.1226684404868,771.0315476283664
1731141353.8443692,799.1903372155837,810.6057741975256,801.8980452563292,773.9609369872397
1731141353.8482718,799.248582917653,808.8587000990368,800.7435825124626,773.1171098507851
1731141353.8521748,799.3046504073895,806.3295340142399,800.2719435320847,768.8399371426657
1731141353.8523877,799.3584161858971,802.876542195473,800.5672208397218,763.4041462099385
1731141353.8560777,799.4097566046578,798.4185032692815,800.8968906867486,759.9575157510171
1731141353.8581216,799.4585479188969,793.4099323634516,800.2559272669529,760.630572662097
1731141353.8599803,799.5046663408415,789.0854768149957,798.3688928295022,765.1096732888537
1731141353.8638833,799.5479880930384,786.9651535311096,796.1907110519932,770.9374168918295
1731141353.867786,799.5883894620089,787.784696104654,795.312600667902,775.4964991533657
1731141353.871233,799.6257468524204,790.761072664567,796.6944947371654,778.0834641425388
1731141353.8716888,799.6599368418022,794.0113332029315,799.8172872293381,780.2615522190166
1731141353.8737478,799.6908362357019,795.949770224333,802.9814718220453,784.22718741863
1731141353.8755918,799.7183221230982,796.5243190910661,804.4417278344713,790.7894877791166
1731141353.877267,799.7422719318992,797.1804027111414,803.4118972776181,798.8315226148894
1731141353.8794944,799.7625634845803,799.4956166981991,800.2744232295908,806.5367216168592
1731141353.883397,799.7790750544146,803.6085827222889,796.1231629736352,812.928167613038
1731141353.8873,799.7916854230274,807.8304850678637,792.204909749168,818.1542084482048
1731141353.8893738,799.8002739396148,809.8792691798468,789.6064811605305,822.4463694004453
1731141353.8900783,799.8047205807673,808.753720783403,789.0993758835049,825.1415422506553
1731141353.8912027,799.8049060081224,805.6085057975399,790.9423387271472,825.0971745262867
1731141353.8951058,799.8007116211128,802.7856447007772,794.6876087784378,822.2952991804603
1731141353.8990085,799.7920196061292,801.8018417708524,799.2354866432552,818.9403592894946
1731141353.9029114,799.778712990928,802.0887943370286,803.2404543731656,818.4746838265298
1731141353.9049995,799.760675717739,801.620895554968,805.6484932790312,822.7919412965778
1731141353.906814,799.7377927397239,798.8160528797215,806.0238105810084,829.9080697729719
1731141353.908924,799.709950118181,793.9644734237637,804.537667833562,834.4586228960034
1731141353.910717,799.6770350673241,789.0109650304754,801.7763226564748,831.2129131284204
1731141353.9121933,799.6389358996357,786.1035094203065,798.5574409476724,819.0981861121985
1731141353.91462,799.5955419074576,786.2718904768266,795.7487802719392,802.4702837655246
1731141353.9185226,799.5467433569371,789.1161176515234,793.981206266972,788.4190625772833
1731141353.920626,799.4924318411868,793.2619950108838,793.322811552947,782.1156508901839
1731141353.9224255,799.4325010452072,796.8913859907309,793.2129757707125,783.8130385162461
1731141353.9263282,799.3668474466541,798.1705699743181,792.8789862886324,789.6814470661249
1731141353.9277692,799.2953699388391,795.9459410066809,792.0279349480134,795.4625935286484
1731141353.930231,799.2179675848497,790.7526020931282,791.2215580411215,799.7501754589784
1731141353.934134,799.134536379329,785.3143544569157,791.4695238188177,804.3056167941731
1731141353.936252,799.0449685000599,783.5304893829194,793.2432260292388,811.4689372466399
1731141353.938037,798.9491585315204,788.0650379098383,795.756600603976,821.0860687628686
1731141353.9419396,798.847016953441,798.1556988776484,797.2902688795871,829.6065558720204
1731141353.9458425,798.7384810151984,809.5234452469475,796.4586356629154,832.1371286630233
1731141353.9466145,798.6235038121773,816.7687562526114,793.3930260921569,825.8884864578852
1731141353.9471197,798.5020086199174,816.6564683733852,789.7733671812823,812.4366265721087
1731141353.9497452,798.373828875554,809.9984944283511,787.6143669571625,797.1650851773453
1731141353.9518778,798.2387021078747,800.9474710761131,787.8145348353034,786.275130140709
1731141353.953648,798.0963982965822,794.349868966221,789.6699460375091,783.3258068463946
1731141353.9575508,797.9469744826774,792.9651024017901,791.6749071898595,787.4365289202476
1731141353.9614537,797.7909530728118,796.2220887276989,792.8258793042799,794.1444829802057
1731141353.9653563,797.6290635067285,801.0612872473409,793.3187477107161,798.2727349838857
1731141353.96546,797.4613437011903,804.0912909117588,794.1837729491406,797.0002004243876
1731141353.9675038,797.2860583062723,803.5910898205541,796.3219956847166,791.2831972255415
1731141353.9692593,797.0997633781033,800.1935621548664,799.7611015288937,784.867570588242
1731141353.9731622,796.899944287696,796.0713269086044,803.5961034810267,781.6731001322521
1731141353.9770648,796.6898056790967,793.3634309386941,806.5253686653424,783.3409226686015
1731141353.9809678,796.4811050437323,792.8828348484458,807.6000446386512,788.5278057557906
1731141353.982046,796.288315150801,793.8209310705911,806.7872136899532,794.2321298904292
1731141353.98313,796.1110973771936,794.5367866876783,805.0306799017529,797.9900739341832
1731141353.9843054,795.91505378435,793.897279551351,803.6982942451132,799.2847957589371
1731141353.9848704,795.6364409960713,792.2673010917113,803.709335112644,799.2946750438166
1731141353.988773,795.2357355667299,791.3944960016269,804.9814978111747,799.4479720158018
1731141353.9926765,794.7868510943259,793.1711054361004,806.6533865188812,800.0586167638425
1731141353.9965787,794.5191896171391,798.1535663782969,807.8430478701607,800.0515102077995
1731141353.998756,794.6875493628005,804.9873452322997,808.2307889194254,797.7962969253088
1731141354.0004818,795.2267071942427,811.1722094193416,808.0511405805439,792.2240211921143
1731141354.0031507,795.3950452217408,814.5356492932888,807.7108510186048,783.3764041976972
1731141354.0043845,793.8734444434839,814.355713283842,807.4696841573367,772.246913559996
