timestamps,eeg_1,eeg_2,eeg_3,eeg_4
1731653927.2267065,807.0582228470303,803.1130136560422,801.3383477286651,815.5319792679517
1731653927.2423334,807.4572167199316,802.7353897113863,801.418238921654,815.8819741358084
1731653927.2579603,807.4994364034535,802.5257394385021,801.4310188804619,816.0557047748819
1731653927.258016,807.1074060088006,802.5050953996523,801.3554616232431,816.0680753900986
1731653927.2735877,806.6291819615635,802.5360648633562,801.2387597703621,816.1529528130499
1731653927.2824233,806.6795534971201,802.4756189112835,801.1741559797349,816.5722320653547
1731653927.2892144,807.6081307719052,802.3505726795307,801.2373576503311,817.3049136803514
1731653927.292968,808.858143265322,802.3470741621991,801.4108609696771,817.855347574705
1731653927.3013334,808.8696471230049,802.5712766229691,801.5425159203785,817.4706905345172
1731653927.3048415,806.1751077645487,802.8127646633276,801.3988636374551,815.8831675669018
1731653927.3202436,801.4443385467981,802.6227613577552,800.8568668507265,814.1657931683443
1731653927.3204684,798.7242698422647,801.7607430439077,800.1628584750234,814.69204985221
1731653927.3279204,803.5540951396687,800.6705597492114,800.0096942694508,819.3660431547484
1731653927.3360956,817.7253525514641,800.4998509960903,801.1683100821193,826.814977770838
1731653927.3391538,834.5008439805482,802.4657500236023,803.7568401006575,831.1554261493272
1731653927.3407671,840.1175608174104,806.9030384434944,806.7383773038789,824.9289729615285
1731653927.3446667,823.4863301720052,812.6755338091289,808.3222201080705,805.5402772721749
1731653927.348566,787.7701595564175,817.4713559907038,807.2575242229416,780.205717547332
1731653927.3517225,752.8217388842065,818.9183744595703,804.0494732563257,763.7090432030662
1731653927.3524656,743.068891456708,815.8829537229001,800.9220338145665,768.4841124564025
1731653927.3563652,768.3550861797803,809.179443354001,800.3248004414637,793.9514891986146
1731653927.3580642,813.5950768784302,801.2802213157076,803.1094559740919,824.4440461189721
1731653927.3602643,847.7026916528014,795.1768621670675,807.8693454321858,839.092817639571
1731653927.3628726,846.5439232034006,792.9563411884217,811.9491838721289,827.1403784711575
1731653927.364164,812.099312576814,794.7726744455072,813.2417467846135,796.7836235103961
1731653927.3673496,771.8014639749018,798.7381490784946,811.3671504115533,769.8089849164741
1731653927.3680637,757.4333133336957,801.8930253926314,807.5169872576564,765.2327982373541
1731653927.371963,779.8874780500441,801.9001190059073,803.375894048158,784.4282711055754
1731653927.3758626,820.3902867216557,798.5998806781887,800.1143740490652,809.938480217066
1731653927.3769743,845.9522079729813,794.3809523826126,798.1328396261537,819.5971983533801
1731653927.3797622,836.6865375914418,792.8388928659768,797.4639323740419,804.8022616457939
1731653927.3829763,802.2613952924455,796.3647069485477,798.2254801051031,777.7923659234399
1731653927.3836615,773.5950510515777,804.3300380028581,800.6430820216041,761.6709906040223
1731653927.387561,776.8212675462912,813.3497612596982,804.7035265647368,771.4369045392931
1731653927.3914604,811.5060558374884,819.5352008625384,809.8807640498943,801.7980816084093
1731653927.39536,851.1733195616066,820.9858621219116,815.2442536423035,831.5486043275689
1731653927.3958845,865.1760603036282,818.626950924974,819.8317138635086,840.3432222152576
1731653927.397825,843.5262846091892,815.0421066551837,822.948511916986,824.033730381491
1731653927.3986037,804.7359155259068,812.5998318147208,824.2417240909596,796.8860083947607
1731653927.3992596,781.0162465706404,812.3742363367577,823.6819819396314,779.9456139193817
1731653927.403159,792.9438897087753,814.2320966132311,821.5908385643933,785.1690546627025
1731653927.4070585,833.3883656388209,817.3938028530431,818.6185946237956,807.2923831512542
1731653927.410958,873.0468718593064,820.7544417611199,815.4948178202181,828.9992478016238
1731653927.4142306,883.2150886817757,822.9454906709224,812.6264742170446,834.8742137459652
1731653927.4147947,857.9713194300782,822.5648680559393,809.9006548276609,823.154033836638
1731653927.4148574,818.2617901592433,818.7588968446732,806.9424137100697,806.205156887983
1731653927.418757,794.6584530214735,811.8171857568407,803.6276661490168,799.6653423775386
1731653927.4226563,802.7134562619361,803.2812840694305,800.3605647313791,809.3044965461853
1731653927.426556,830.8607875370133,795.4067110831473,797.8458652550402,826.4118531757017
1731653927.4298575,850.5171119692427,790.2611308612198,796.5795382305697,835.3157229459046
1731653927.4304554,839.866443950249,788.9139109768793,796.5120485754537,826.5524501855648
1731653927.4327772,801.8808159708839,791.063744668075,797.1170558558472,804.7685429037479
1731653927.4337049,762.1704701954735,795.2269157722197,797.7365438270464,785.0948698760996
1731653927.434355,748.6324391778102,799.3623498633935,797.9370142213695,781.1450855155657
1731653927.4382544,769.261082086762,801.6225831984995,797.7070248164108,794.2436722861557
1731653927.442154,805.7884904187708,800.9271024184238,797.4307568557458,812.279596528372
1731653927.4454846,828.1797120226814,797.2514490817927,797.6122442673399,819.0167333651524
1731653927.4460535,818.2932791743285,791.6700419731643,798.43472502633,806.6037092947959
1731653927.4499528,783.6570418236229,786.1117663412526,799.4531360963039,781.5724027370053
1731653927.452615,750.5649648641967,782.693127970012,799.7858285754629,759.7769216581116
1731653927.4538524,742.7755346185056,782.7220013888019,798.8360189799238,754.4716379331473
1731653927.457752,763.4919686197611,785.9239626779915,797.0069034346293,766.95821748778
1731653927.4611118,794.6427556606795,790.5680782583715,795.6710454656901,786.7425872659352
1731653927.461651,812.6678826586319,794.5951671512227,796.2053150651556,800.3077581111472
1731653927.465551,807.0575696869514,796.983140032101,798.8089885343236,801.1161336769338
1731653927.4677296,787.0194993117138,798.2756624525814,802.1674936300775,793.2961477591966
1731653927.4694502,772.2419031438227,799.8499597730129,804.3568349986151,787.0069161745743
1731653927.4715254,776.3109740397692,802.5702458425231,804.2904570277157,789.8191518645369
1731653927.4733498,796.2211256442093,805.9845250666395,802.5353181779432,800.9194718034438
1731653927.4767387,815.760014699145,808.7059383072785,800.887018746367,812.2993253014092
1731653927.4772494,819.3745072696339,809.5699041074816,801.1187422034698,815.635685356365
1731653927.4811487,805.008190608161,808.5418379430948,803.8799581237502,809.2461172088441
1731653927.4850483,785.4690861289919,806.6775283344008,808.4269014548996,799.4575948694479
1731653927.488948,777.3631247144693,805.3149000565817,813.126756591298,795.1883198286943
1731653927.4904356,786.9434656286094,805.254925255993,816.2083064395197,800.1640174173239
1731653927.4923658,804.765986801387,806.5215774707028,816.346377675388,809.3207600354192
1731653927.4928472,813.6073634439873,808.6790247265374,813.0393206670058,812.6024582827673
1731653927.4967468,803.0268239846005,811.2527204036063,806.8617156269713,803.2198392493696
1731653927.5006464,778.5196517320176,813.8643126546104,799.4769419089369,783.6362889667661
1731653927.5026815,757.718366651636,816.0758485571771,793.1749280175713,764.2904880022288
1731653927.5045457,756.6250643156784,817.2557278832188,789.9630724788033,755.9497385588884
1731653927.5079927,776.8491972013951,816.7520806765724,790.6670948925736,761.7738944695011
1731653927.5084453,804.0232302024681,814.3195299472831,794.6089519677215,775.395916659553
1731653927.5093458,818.7485403115737,810.419685073797,800.0497940123452,786.4197616105029
1731653927.5123448,811.5281426693921,806.0600351851047,805.0569826752308,788.7213531231602
1731653927.5162442,789.89959994829,802.2546029446768,808.2478418372077,784.7312501394326
1731653927.5201435,772.0726504014392,799.5602834894098,809.0960504072305,782.317733633092
1731653927.52362,772.1754917235853,798.049007576136,807.8521408815341,787.1561285598044
1731653927.524043,789.0383238192948,797.612586867906,805.2820002805763,797.2632098124134
1731653927.527943,807.5435854678061,798.1931973879543,802.3501412946913,804.411088024117
1731653927.528256,811.2578629875377,799.7156064844204,799.8967398764145,801.1504655952064
1731653927.5318422,795.9346501580272,801.8948017789962,798.388332220367,787.4230598799304
1731653927.5357418,773.0109377036388,804.2051889418448,797.8423252845323,771.2278449934354
1731653927.537634,760.4798120470475,806.0466395522253,797.9381353896531,762.8231922122799
1731653927.5392468,768.5569266009866,806.9213322157375,798.2210262110832,767.098736298234
1731653927.5396411,791.4853644409244,806.5277833211617,798.2930502925411,779.9970966173487
1731653927.5435407,811.9142435966354,804.8804747947154,797.9410120618461,791.6248408677441
1731653927.547166,814.4945348005238,802.5130995313893,797.1846951797601,793.6728040933017
1731653927.5474403,798.0619370048302,800.5467372717467,796.232508766474,785.5880011976017
1731653927.5513396,776.6422993586731,800.3091290757559,795.3561359423618,774.7997709217428
1731653927.554874,768.22022426905,802.5247027283729,794.7438210580531,770.7323422207278
1731653927.5552392,780.1683792963938,806.5868552751631,794.4161469943213,777.248362751011
1731653927.5591383,803.2180585872471,810.5576123954133,794.258870624987,789.644473841996
1731653927.563038,818.9622183878638,812.1040449260886,794.1561911175701,798.7484389869177
1731653927.5660765,814.6838919937368,809.8876135572015,794.1325751355987,798.7157573029152
1731653927.5669377,793.3362934886316,804.5178076205185,794.3900274120859,791.9186083942166
1731653927.570501,770.7754025800243,798.388512937298,795.2010973193433,786.8058158248119
1731653927.570837,762.9393428728379,794.412561810299,796.7379768731065,790.6313483595302
1731653927.5725863,773.5724900949899,794.4016242972665,798.9646605058043,803.2151253643135
1731653927.5747366,792.1448909113743,798.1091183018845,801.6389852392073,816.8668200798584
1731653927.5786362,803.1309741831391,803.5359385436058,804.3646075830861,822.4020880902793
1731653927.5825355,798.789423002179,808.239163241647,806.6403843793491,816.2712436354225
1731653927.5849867,785.0505493196824,810.7139623591623,807.9617360376385,803.1206858582095
1731653927.586128,775.9205733855769,810.9737770467832,808.049872479671,791.9591512508248
1731653927.5864353,781.2827912789344,810.1509386174599,807.1079675755894,789.2310808298226
1731653927.590335,798.4296331128376,809.6259403200238,805.8165218922097,794.3748411090879
1731653927.594234,814.4945789107776,810.3148906597214,804.9089407225867,801.174456340171
1731653927.5981336,817.658062197812,812.3845655733885,804.6069068385927,803.4112280012466
1731653927.6017551,807.4439627863236,815.3111034972338,804.4600755981755,799.9700040423834
1731653927.6020331,795.2049068440347,818.1216857197014,803.808387503842,795.3033066781197
1731653927.6038969,794.3596166976042,819.7298573147535,802.4376866902986,795.1742933643573
1731653927.6059325,808.684293592233,819.3065940051857,800.7764262321498,801.4429957479352
1731653927.6075387,828.5522369613427,816.603997397087,799.4829831683774,810.2731784502599
1731653927.609832,838.3902465857021,812.1135174228506,798.906395336955,815.2170765615996
1731653927.6137316,829.3961038531546,806.9300047291548,798.9291419770475,812.6011907310507
1731653927.617382,807.1365096496687,802.291462379319,799.2038309324533,804.6884789454505
1731653927.617631,787.5818039220347,799.0131432685389,799.4504519376776,797.8558254162422
1731653927.6215303,784.5059228419806,797.2263777389572,799.5745437309853,797.1987829640339
1731653927.622807,798.4924112639969,796.6478964277212,799.614445920126,802.115410785883
1731653927.62543,816.7447383625095,797.0905961596889,799.6396785857385,806.732537509256
1731653927.6293294,823.9754425850499,798.6305426512195,799.6890911188034,804.9550859047308
1731653927.6330092,815.2622410202755,801.2167000102718,799.7638672494483,795.9176984860378
1731653927.633229,800.0561975151904,804.2207862121817,799.8481918489373,785.200091100658
1731653927.6371284,794.0544247389981,806.6143509883767,799.9288007113009,780.7387862606341
1731653927.641028,805.8489178658232,807.7861113449811,800.0018045093744,786.8401313494745
1731653927.6417172,829.4194932377587,808.1861445605381,800.0697691944802,801.1907610584718
1731653927.6424909,848.5100881413879,808.9943884764117,800.1364294554309,817.021578211003
1731653927.6449275,849.3265845361171,810.9458360914489,800.2036869954511,828.1420373264143
1731653927.648636,831.545124196239,813.3582388623391,800.2714661166546,832.5106038661356
1731653927.6488268,808.9576307854246,814.3559655175237,800.3388875132182,832.0402736605521
1731653927.6527264,799.0054070454073,812.2808923180992,800.4052750899707,829.9467335205005
1731653927.656626,809.1600156790827,807.2219008800201,800.4704618265494,828.4041773995837
1731653927.660525,830.9387851726794,801.3908392613879,800.5346033490694,827.9314293359756
1731653927.6606274,846.592560611367,797.9019552077083,800.5978967851863,828.0606551651631
1731653927.6642632,843.3224799329857,798.7375099292433,800.6604350587969,828.2082081913197
1731653927.664425,823.6045009112684,803.369300813965,800.7222104208382,828.1105496602596
1731653927.6683245,803.271174166484,809.0914907883069,800.7831787558897,827.8081079266532
1731653927.6722238,798.9555159419147,812.8466390294428,800.8433076979027,827.4472751370402
1731653927.6761234,815.0215618396552,813.1667515970021,800.9025864321437,827.1287206998127
1731653927.677443,840.2624883467009,810.8003028872653,800.9610154477755,826.8706407119494
1731653927.6795375,856.671790069019,807.7328420616249,801.0186018382002,826.6444535919865
1731653927.6798902,853.1790866326019,805.599350500016,801.0753685400737,826.4193573210129
1731653927.680023,833.6510550162639,804.7768756195545,801.1313618668049,826.1828631512772
1731653927.6839223,813.1007464580881,804.6280715916429,801.1866299457906,825.938175746426
1731653927.687822,805.3225060964372,804.3694052960927,801.2411622903423,825.693259077899
1731653927.6917214,812.0627075251018,803.7403407486414,801.2948308566605,825.4531613692185
1731653927.6955173,822.6562877869821,803.064571283672,801.347424588697,825.218537720876
1731653927.6956208,824.2433121771703,802.837518158992,801.3988529969484,824.9877608793137
1731653927.698448,813.5161551393893,803.2283507608043,801.4494465932262,824.7592547441268
1731653927.6995203,799.6538509602232,803.8626003983976,801.5000447921169,824.532461749232
1731653927.70342,795.9766452630917,804.0700513223227,801.5514608489939,824.3076129717274
1731653927.7073193,807.7823341256131,803.4596935943408,801.6032751756801,824.085125583543
1731653927.7111442,826.9949213277241,802.3600435798103,801.6528204883614,823.8652265398409
1731653927.7112188,838.2226845601267,801.6871149261806,801.6960887936295,823.6479311290241
1731653927.7123954,831.1664638059096,802.2901814509644,801.7317912939009,823.4332064769671
1731653927.7151184,809.1640565466221,804.3235972180238,801.7668520946302,823.221095691138
1731653927.717358,786.8693529891174,807.1347977362635,801.8172524693076,823.0116719919114
1731653927.7190175,778.7982081951768,809.6168275062377,801.8968337824738,822.8048458282942
1731653927.7229173,787.871409503957,810.6149654942827,801.9943724337792,822.6002128923199
1731653927.7267714,803.3340748679525,809.1947832752434,802.0567245224697,822.3972226235725
1731653927.726817,809.9957728771154,804.9693135890341,802.0106844349183,822.1958068758146
1731653927.7307162,801.267040752289,798.6008345277859,801.8434139526487,821.997130797263
1731653927.7346158,784.9221956464336,792.0709093529509,801.703070388364,821.8035261814352
1731653927.7362683,776.425029150646,788.1007416973475,801.9027669410087,821.6166262456156
1731653927.7385151,785.3281177604633,788.7081635063676,802.7019378398277,821.434037171303
1731653927.7423985,806.4248610875644,793.8202257922555,803.9124598986966,821.2474489950172
1731653927.7424147,823.4560815179643,801.1005346035132,804.684507723438,821.0468413054309
1731653927.7463143,822.5114462578479,807.297425278145,803.8819704821212,820.8327526972066
1731653927.7473476,803.9382102397685,810.1866654804553,800.9523993420701,820.629472992773
1731653927.7502136,782.6292475203151,809.694035723012,796.6019221175865,820.4812040815206
1731653927.7541132,776.1501122474714,807.4684367780222,792.6545996303083,820.4141767765456
1731653927.7551785,790.3420477094099,805.4046530650626,791.1198403981296,820.3746301164483
1731653927.7580128,814.3414076192244,804.3402532025746,793.0335969985819,820.2007804596121
1731653927.7580254,829.3346710064569,803.8437809348995,797.7640493152325,819.7145780923689
1731653927.761912,823.9580263708355,803.0302733746523,803.2398371863176,818.9586466353369
1731653927.7658117,803.5489075745178,801.5446588429473,807.0517081039823,818.4261858460843
1731653927.7697113,785.5080714631329,799.8714910336801,807.8004602461078,818.9391505775136
1731653927.7736106,784.7758287325609,798.8544395172946,805.8276144372251,820.8817006444796
1731653927.7736523,801.7267681854775,799.0217887712083,802.852168907388,823.0371600770626
1731653927.7740886,822.416207790256,800.3622239436054,800.8099568878474,822.1598993093933
1731653927.7775102,830.4467787092259,802.6157447340353,800.727622385107,814.6747706669581
1731653927.7814095,820.2678170737084,805.5944727554188,802.340647474856,800.227958567673
1731653927.7823,801.1774700365854,809.1051015018598,804.5541022734733,783.9782465111691
1731653927.7853093,789.3112032759029,812.6110675163279,806.2772207450917,774.2759878107183
1731653927.789209,794.4669945826286,815.1863436915198,807.0229243854901,776.54749022618
1731653927.7892797,812.3387629223274,816.0552410101006,806.9588348782042,788.5768052413877
1731653927.7929988,828.1985169939439,815.304054200453,806.5486207256782,801.7376213445551
1731653927.7931082,829.0068357980406,813.9798259385756,806.1654835987779,807.5489084247671
1731653927.7970076,814.2127042705238,813.2722327498584,805.939022371932,804.2136694759138
1731653927.8009071,796.3456313291668,813.4083980144676,805.8224124199426,797.6625900302977
1731653927.8048065,790.6140176890457,813.3077418006812,805.7252714931822,796.1340027104602
1731653927.8049064,801.9136231281165,811.4306621017643,805.5959550380287,802.7949607634984
1731653927.808706,820.186143932223,807.1500944819771,805.432064349913,812.7191514894292
1731653927.8119092,828.338699479416,801.4497797691255,805.2539783956564,816.922873109581
1731653927.8126056,816.3801062510726,796.3225707333747,805.0791752568792,810.0796365404535
1731653927.816505,790.082294648348,793.3739877918847,804.9129848165173,795.3181236165574
1731653927.8172522,766.9247847635139,792.8024233414742,804.7521972924588,782.0093466134315
1731653927.8204043,762.5081440815692,793.5589231514558,804.5919477352847,778.4027643442292
1731653927.8205335,778.3379838810391,794.4429280168317,804.4297085255589,785.1921881051156
1731653927.824304,800.71305483126,795.102644132639,804.2655446732433,795.1713970953206
1731653927.8282034,811.5389612496471,796.0726139147903,804.1006034749969,799.1269572324934
1731653927.8308194,802.4176483085607,797.9219352557406,803.9357891665195,793.1927839739072
1731653927.832103,780.8194249829107,800.4103914683544,803.7713453862242,781.8412609152166
1731653927.8360026,763.5525420923516,802.4877085105979,803.6070886846506,774.1761868937662
1731653927.8361604,763.0057581848471,803.1215839133035,803.4427754965286,776.4861866750367
1731653927.839902,777.4216270481605,802.146767596708,803.2782964077874,787.0173087525924
1731653927.8438015,792.9897680560059,800.3336765485607,803.1136744387597,797.2221855534843
1731653927.8477013,795.7358845638535,798.6352268256408,802.9489812692814,798.5738312999198
1731653927.8497295,783.2200437948384,797.3493980318516,802.7842734585446,789.4816273380228
1731653927.8516004,766.4430733538926,796.0084388096636,802.6195799948811,776.6585627761926
1731653927.8517876,760.5225081264124,794.1040872965965,802.4549182873986,769.7368360367205
1731653927.8522046,771.8537379956884,791.9261723681185,802.2903030512645,773.4712150934386
1731653927.8555,792.3749745039037,790.6210201060536,802.1257323462711,783.9761733564306
1731653927.8593996,805.9592619475925,791.2773551407118,801.961167569793,792.2439582835958
1731653927.863299,802.0329678252413,793.8063286129234,801.7965472071736,792.0740336291977
1731653927.8671985,785.0226315238795,796.6790849554092,801.6318626839638,785.5328356208216
1731653927.8674147,770.9797993698535,797.8784722968796,801.467263233136,780.8885315801101
1731653927.8686397,773.4199844966711,796.3444277069755,801.3030701008736,784.5533776727865
1731653927.871098,790.3757809392333,792.7652316248741,801.1395567978236,794.2789316547937
1731653927.8749974,804.663563324592,789.1597825184045,800.9765050328725,800.2293915785589
1731653927.878897,798.3220840201453,787.6738555510046,800.8128857479967,793.6379894165559
1731653927.8827963,769.3002058041085,789.4607627187099,800.6472958068739,775.5827963607118
1731653927.8830416,735.5128120726206,794.1976434893353,800.4795180351672,757.7262082423048
1731653927.886696,721.6733181608843,800.2522775137707,800.3124266213377,753.6300869766164
1731653927.8871567,739.1736685480394,805.3176337910802,800.1519257623025,767.5831581407244
1731653927.88755,775.8024721107904,807.3852666451412,800.0024014366453,790.3947656742506
1731653927.8905954,804.5515098005642,805.7932246374788,799.8583454006797,806.0928288878608
1731653927.8944948,805.1481160497692,801.7532849960523,799.6992478825074,804.4673609794736
1731653927.8983943,780.8607396335444,797.797518845864,799.499513187785,789.2824657850651
1731653927.8986688,756.0818618941527,796.3004167217368,799.2588929408616,775.1326751601121
1731653927.902294,755.8385176528701,798.0545592047612,799.0363539331904,775.2006435644602
1731653927.9061933,784.1647878113474,801.9069265538664,798.9425194248877,790.0536782407803
1731653927.90646,820.0662366565323,805.6128706895513,799.0461527986743,807.1018185186373
1731653927.9100928,835.0250386006549,807.194083058229,799.2148625907023,811.3966613303724
1731653927.9139924,817.2774586856492,805.9372758762837,799.02898672855,798.6680332574388
1731653927.9142957,782.1642092129317,802.6064506417599,797.9744565266466,779.4809023023955
1731653927.9178915,759.8601017862098,798.9080381134169,795.9537153134888,770.9016242216999
1731653927.9217913,770.8298442543266,796.526253093545,793.7343323904158,782.4990773938005
1731653927.9221091,809.1025880127308,796.2228102651001,792.7504351592363,808.078122662691
1731653927.9253705,846.6204862908556,797.5130754247115,794.1912395982373,829.848508151961
1731653927.925691,855.0635348977497,799.1198366522808,798.0938811502298,831.9243979379152
1731653927.9295902,828.0824028447,799.8849878841366,803.2109357131967,812.7524813632542
1731653927.9299228,786.5434047453582,799.5099909803515,807.7254884937387,786.638387648238
1731653927.9334898,762.3272132817375,798.6654890158042,810.2675091361439,772.7448952377287
1731653927.9373894,773.1203837161165,798.48314039828,810.5780032153425,779.9642149656778
1731653927.9412887,808.4469696311244,799.8234923319594,809.4455724224888,799.9672422425633
1731653927.9442806,838.6831546696783,802.7769673711243,808.0078757750869,814.4985710099212
1731653927.9451883,839.883226790813,806.6519324180896,806.9450476044125,811.047060177938
1731653927.9455495,813.6852042433337,810.3990672997618,806.1696795770347,793.5862560635686
1731653927.949088,785.504602286149,813.1643334804809,805.1946273141338,779.0903115905113
1731653927.9529872,782.6598688859702,814.5974328899576,803.7659853033852,782.778147161315
1731653927.9568868,811.0569066611258,814.7608914421003,802.1535813536656,804.7574030876309
1731653927.9570613,849.9956620635969,813.8516348721748,800.8901644244839,829.441665649874
1731653927.9607863,869.1660553652384,812.0969811059103,800.3131829275644,838.1655707041198
1731653927.9611769,853.5134412464139,809.9123579576129,800.3981194855089,824.4203508528248
1731653927.9631908,815.5421143525327,808.0087317939442,800.9784882893767,799.1882967372144
1731653927.9646857,785.1461340413622,807.1341219466655,802.0028893083766,782.1260223431325
1731653927.9685853,785.3261434377355,807.5830158107851,803.487767838605,785.8333562005952
1731653927.9724846,813.6578918822145,808.9644898109718,805.2543219016383,805.9811965633079
1731653927.9763842,844.86885277516,810.5165348543516,806.8501178326784,825.3004142839402
1731653927.9768038,852.5218449606651,811.7069723423807,807.8278726435127,828.1016433834219
1731653927.9802835,831.6141038694258,812.5876727726913,808.0764494925827,813.2867892836429
1731653927.982101,802.8289935221339,813.6290544538232,807.8403073234383,795.0398323263556
1731653927.9841833,794.6728009378128,815.2238518436377,807.4650826413575,790.6441198202197
1731653927.9880826,818.6294620045861,817.261494428107,807.1661622781234,805.5888456296213
1731653927.9919822,858.4366929000905,819.0439299964999,806.9820938425183,828.3755805987361
1731653927.9920137,882.6431648937989,819.5654046609073,806.8557905799553,839.4763008518936
1731653927.9924307,870.1535017454253,818.0140141069767,806.7261788991652,827.3506208324874
1731653927.9958816,827.7813270233114,814.2784954538228,806.5691027098705,798.5895723671484
1731653927.9997811,785.3618145902178,809.2030369496575,806.3915195113689,773.7002237243374
1731653928.0010111,772.1633836144351,804.3769674216903,806.2094614062028,771.3739761774023
1731653928.0036807,793.6084355531154,801.4692562205413,806.0328583703206,793.5350884917476
1731653928.00758,827.3487391534705,801.4388288049528,805.8628166853653,823.3637305398917
1731653928.0080578,842.0838833657066,804.0940552617488,805.6959587977473,838.327698179392
1731653928.0114796,823.6482769373685,808.2556519306476,805.529089067508,827.9214678599828
1731653928.0153792,786.7026512323287,812.3589026381682,805.3610850702207,801.6997801665334
1731653928.0192783,762.4380789036512,815.0810453909056,805.1924148858192,781.1562508732725
1731653928.0199213,772.7805790925515,815.6889127670548,805.0239356638663,782.3747619632659
1731653928.023178,812.4663845982157,814.1089240960636,804.8561339574604,803.7109301483471
1731653928.023685,853.2979515366724,810.9039392608128,804.6890305882708,828.1090500710628
1731653928.026966,866.6459152783322,807.2345205135089,804.5224306132751,837.5149691628139
1731653928.0270777,845.9753569953035,804.6365029817403,804.356165542807,827.4038877172301
1731653928.030977,811.5784732378578,804.406658817584,804.190181026797,809.8527001925241
1731653928.0348766,793.8710883196966,806.7403497250032,804.0245033616104,802.9994921527117
1731653928.0387762,808.6010334980285,810.2424947768212,803.8591745672524,815.656030166009
1731653928.0388317,843.9432952758118,812.465253579898,803.6942139463248,839.7189930686877
1731653928.039312,870.085045201678,811.4342972284956,803.5296146060472,856.6510001427295
1731653928.0426755,863.6567564853674,807.1750920030023,803.3653577043999,852.7115816814021
1731653928.0465753,827.1284421482078,801.9625222733448,803.2014274204942,830.3736215772884
1731653928.0504746,787.3416681174468,798.8795503788773,803.0378194328764,806.5423750498342
1731653928.054374,774.3866541977526,799.688893303007,802.8745414246341,799.0966622628974
1731653928.054939,797.8764925358903,803.7031408346587,802.7116041351998,812.7237089764574
1731653928.057742,839.4256905074421,808.5414717723664,802.5490029867574,835.3263433081838
1731653928.0582736,866.9758615321587,812.0529694592112,802.3866999211278,847.6219039730296
1731653928.0619185,859.5755679646546,813.7557527788393,802.2246286490199,838.2186119507587
1731653928.062173,823.408902164815,814.7072018313846,802.0627459100396,812.4096725033909
1731653928.0660725,786.6703498251628,816.1627805257531,801.9011161010297,787.9066728885447
1731653928.069972,777.1423323363255,818.3386837304637,801.7399515540684,780.8940577059906
1731653928.070566,800.0787152025383,820.291228284742,801.5794915658009,793.4896990132487
1731653928.0738714,834.3166067409715,820.8028869132305,801.4196820804226,812.7352039393301
1731653928.076652,850.1443291196596,819.3320029347799,801.2598569788522,821.8941751800348
1731653928.0777707,834.363986218676,816.2343497274344,801.0988862080355,814.5592478966693
1731653928.0816703,801.5303008120916,812.289388773448,800.9361945425892,799.6860478787843
1731653928.08557,781.7211356343014,808.1662806422676,800.7733245861152,793.4512059620035
1731653928.086193,795.0528948038751,804.3070250170265,800.614492637572,805.0558783026228
1731653928.0894694,834.3332359877797,801.1044583336051,800.4639894900803,828.5053118453307
1731653928.093369,870.1798220979407,798.9486478015401,800.3200072740043,847.0335865820286
1731653928.0955622,874.1464186124048,798.0056113855051,800.1690882266331,846.2949924166368
1731653928.0968704,840.9918095718822,798.0282910503106,799.9899763005742,825.6607162645836
1731653928.0972683,792.4928236245127,798.4896460940635,799.7733954060652,798.8843451624444
1731653928.101168,760.1547900711616,798.9239150719786,799.5490522571366,783.7935327568865
1731653928.10182,760.7315159301425,799.1431057182613,799.3868781048666,788.9735298396131
1731653928.1050675,784.0567188327055,799.1964879961305,799.3346433251072,807.6822895871128
1731653928.1089668,802.9076217554726,799.2076363797953,799.3150820328984,823.7481685300697
1731653928.1128664,796.6747455928959,799.2558574497328,799.1061379703416,824.7473182429505
1731653928.1144724,768.9168022670161,799.3522013428309,798.5067684047219,811.6873278845435
1731653928.116766,743.7971385696721,799.4715774254255,797.5701834180115,797.1538941812496
1731653928.1174471,744.4344979603138,799.5890678717012,796.617721540436,793.6357160557056
1731653928.1206653,771.9111768547172,799.6954044448263,795.9335714204545,802.2420866192325
1731653928.124565,803.2033654078882,799.7938345862316,795.436033237395,811.6852903062843
1731653928.1284645,810.0178383198179,799.8909515125813,794.7271219795243,808.4255783451025
1731653928.1318226,782.6725401429355,799.9906612345151,793.5424526218244,789.1634290564311
1731653928.1323638,738.972475382267,800.0932680651301,792.1636053708587,764.8185948484844
1731653928.133074,710.5934612189212,800.1973317960287,791.3466687373101,752.3328937546062
1731653928.1333826,717.9228877512974,800.3015558835814,791.7813655196946,760.8505537172739
1731653928.1362634,753.6612164762256,800.4055092086273,793.5342411054457,783.6560926601003
1731653928.1401627,788.6047569970336,800.5093954678536,795.9282926405663,802.8375181167754
1731653928.1440625,795.3120855205292,800.6135572021332,797.9331138962843,803.3851275099016
1731653928.147962,770.5900803793418,800.7181755767816,798.7649118597193,785.4177176569357
1731653928.1487012,738.1326669066555,800.8232419904481,798.3063627444322,764.2661785400169
1731653928.1518612,728.7688558283825,800.9286646806166,797.1347851330229,757.9857960505227
1731653928.152293,754.5842537833544,801.0343673079956,796.195102795662,772.4843670629994
1731653928.1557608,798.4551585988011,801.1403225975363,796.3141524231274,796.5879389694376
1731653928.1596603,827.5828341750076,801.2465359426485,797.7971123429178,811.053574013063
1731653928.1635597,819.7156503834335,801.35301545983,800.2977983136481,804.0262558362036
1731653928.164328,780.7585764841863,801.4597532285478,803.0175595282263,780.459182657897
1731653928.166775,740.0319905239965,801.5667252109606,805.1067929295197,758.2410004661684
1731653928.1674592,727.4462326493391,801.673907252026,806.0394439192311,754.3703400168068
1731653928.1712031,750.6992641882038,801.7812979908579,805.7851956159343,772.018272688545
1731653928.1713588,790.1205646877136,801.8889305484153,804.7457431996362,798.3823809162271
1731653928.1752582,814.9593790144556,801.9968490707513,803.5222259028711,814.9086697717404
1731653928.1791575,808.2108007377735,802.1050414450172,802.6221761435013,811.8955823053776
1731653928.1799552,780.1201660440045,802.2133675416676,802.2481175075163,795.8759336897815
1731653928.1830573,759.2225819722344,802.3215794672587,802.289890363053,783.7017748838672
1731653928.1869566,767.9966441974627,802.4295250643323,802.4997846585326,788.0568801998248
1731653928.1901133,803.2473571735741,802.5374816318745,802.685735859853,806.4298270044302
1731653928.1908562,837.8391920023084,802.6463078556458,802.7859883755348,822.9322526306507
1731653928.1947558,842.7841123858075,802.7569523726395,802.8294889745108,821.6467427759911
1731653928.1955824,811.6511007715098,802.869180124992,802.8648173271037,800.446365870592
1731653928.1986551,767.1345629255308,802.9803303741592,802.9182257296405,773.7199473244038
1731653928.2017272,744.0887876328015,803.0859538351402,802.9898321773959,761.5514596284157
1731653928.2025547,762.3912430721814,803.1838956583719,803.0684039158422,774.0091820984236
1731653928.2064545,811.2405973445134,803.2804607098635,803.1448334576644,803.2198274791313
1731653928.2090237,857.4941603888542,803.3924635141811,803.2166125299862,829.655408914667
1731653928.2103536,871.5680971661693,803.5367315170062,803.2856347951549,837.5875009597648
1731653928.2112093,850.2581177721624,803.7057009550124,803.3545019310869,827.1663695942916
1731653928.2142532,818.0270576027078,803.8462061429046,803.424493803777,813.2481039571215
1731653928.2181528,805.6793275544478,803.8767577669299,803.4955220092628,812.0239021154922
1731653928.222052,824.1385807017961,803.7699436627989,803.5669649416461,826.7856690987401
1731653928.2259517,855.3737040275577,803.6686882717328,803.6383600319083,844.9774328821911
1731653928.2268364,868.1308476287502,803.9188460930341,803.7096020167718,849.0988654302743
1731653928.2279336,845.0896958916736,804.879962113897,803.7808047581075,832.2069993372252
1731653928.229851,798.4721760066495,806.5326928191164,803.852104415079,804.8310690150948
1731653928.2337506,760.9796651913983,808.1809795321985,803.9235602523183,787.2619516930334
1731653928.2366796,759.5204318360513,808.6446001564046,803.9951599897695,793.2731572878873
1731653928.2376502,793.3378231620387,807.0091818816745,804.0668681828323,818.4818512663226
1731653928.2415495,834.528414910601,803.4566482175305,804.1386641678293,843.0602963662361
1731653928.2424634,850.6380248177923,799.4646218189531,804.2105508944009,847.0590113348145
1731653928.2454493,830.8358059102367,797.0349030051827,804.2825409779333,826.2274100043213
1731653928.2468438,794.0073910237661,797.3578483196166,804.3546349164106,795.4029140005932
1731653928.2493486,771.9832007616601,799.8655796961071,804.426807933399,776.3947922520478
1731653928.253248,782.0642214403379,802.4884446150755,804.4990214437081,780.126833131984
1731653928.2571476,812.3192624191474,803.097808898006,804.5712654708817,797.9044109696817
1731653928.2580905,832.340300508185,801.1514138420116,804.6436098933272,809.2586862410585
1731653928.2610471,820.168986174684,798.2446766429163,804.7162046638751,799.7960853410424
1731653928.2649465,782.1169584525888,797.0021544509473,804.7891640052436,773.911682122225
1731653928.2657542,748.4507984385336,799.0576948811917,804.8623501789224,751.6446778052456
1731653928.268846,748.599140078346,803.7062362920855,804.9352375840529,752.4016634602118
1731653928.2716317,786.5852569384233,808.3749441918014,805.0071605171482,779.0599327925286
1731653928.2727456,836.8634595490876,810.6013390828992,805.0780928839654,815.2955721428568
1731653928.2737174,863.9658288418549,809.9101881558765,805.1495320024658,838.0521643116736
1731653928.2766447,850.259776900827,808.016458380018,805.224339951322,835.0349147327386
1731653928.2805443,809.6025901043067,807.2121365831395,805.3043903453263,813.3565007465214
1731653928.284444,775.8171181330029,808.3851063798033,805.3865301077519,792.7031799824463
1731653928.2846644,775.17836666521,810.3991760883897,805.4604908002536,788.8914853035898
1731653928.2883434,805.2740640824277,811.2710415008818,805.5143702174411,801.4168083885828
1731653928.2893443,837.5153001989927,809.961069240872,805.5497526640709,815.1125742440018
1731653928.292243,841.0842221145684,807.1673806755869,805.5972576483273,814.1494148696647
1731653928.2961426,808.4967205492331,804.5721613402816,805.7104328457962,796.3282021251525
1731653928.300042,761.9671166485382,803.4182385609819,805.9179899387553,775.6030880958725
1731653928.3035746,735.8328015719934,803.7422435681724,806.148090249239,770.7958590514172
1731653928.3039415,749.6230752001854,804.7605734535958,806.1962292181599,789.8816715926166
1731653928.3049717,793.211317034728,805.7444367097753,805.8368128072074,822.6681741975276
1731653928.306584,835.2398992752861,806.4104035025415,805.0932170682503,847.8135512176186
1731653928.3078413,847.6290087515277,806.5950867987789,804.4644640480828,848.7850652730467
1731653928.3117404,826.7596865874553,805.8461648202391,804.756076763777,826.3448889671253
1731653928.31564,794.8002803891643,803.5738230855309,806.3997566051971,797.7271135026838
1731653928.3195393,780.4193848593216,799.6556254622731,808.7337675626887,783.0401129596107
1731653928.3205986,794.7928092589588,794.8310407735617,810.0372466350842,789.7055192198311
1731653928.3224847,822.8537911755693,790.4665621370872,808.6253711118158,807.5057029604995
1731653928.323439,837.1485231820327,787.9114633416038,804.3151874204882,818.16285585591
1731653928.3273385,822.4986281016912,787.9404687168164,799.0030884380485,811.2848292757018
1731653928.3312378,790.2803316408884,790.5368301696388,795.6155951170772,793.2252129040709
1731653928.3351374,769.8467283345544,794.9482656005734,796.0159079564031,781.4859726165754
1731653928.3362255,784.0512838889241,799.8909897569955,799.4743490617502,789.5264334405034
1731653928.3390367,829.2577758658855,803.8933966963497,803.0452128017738,814.7918023624721
1731653928.341395,876.4754116690226,805.8049078661481,803.7103178203288,839.927434069307
1731653928.3415363,893.0513001157873,805.3480378232309,800.662982615441,846.268876409586
1731653928.3429365,867.9496720216935,803.389419161244,795.9197427108534,828.8154134801338
1731653928.346836,820.66154340118,801.599409908631,792.7708390442557,800.631227678776
1731653928.3507354,786.2936758577231,801.5157143953886,793.3229284008117,782.8106501373129
1731653928.351853,788.1300273514221,803.540599823824,797.0796453947992,787.6644539639075
1731653928.3546348,819.5074499017309,806.612148606519,801.5643637843784,808.6836165223035
1731653928.3585343,849.98647535958,808.8925850937788,804.2660983706784,825.8428305029146
1731653928.3603053,851.0344278658227,809.0594622297072,804.2294543167011,822.2693420084996
1731653928.362434,819.9562745037819,807.288259370992,802.1917451984589,798.526088720466
1731653928.3663332,782.0252920956582,805.2010588782196,799.5751553069057,772.4446874979342
1731653928.3674796,769.0816671956924,804.796597796685,797.4599771365263,764.5482345321687
1731653928.3702328,792.6630679616691,807.1126198441565,796.2722827769816,781.2593770695429
1731653928.3741324,834.1095614155365,811.5376659346687,796.0007251101712,809.7923082136657
1731653928.3764887,859.6509502991292,816.1643183556948,796.3826653623389,828.6397720182741
1731653928.3780315,847.7907504811523,818.821580894383,796.9016103497574,824.7019232977927
1731653928.3792157,806.5096400458186,818.0843114089831,796.8993255684884,803.0903853143091
1731653928.3819313,766.4338431815622,813.8138757062435,795.9769432626899,782.0734080529623
1731653928.3831067,755.748630776185,807.207767188222,794.3651291694034,777.7745048467433
1731653928.3858309,777.4923436085151,800.4605910892012,792.8142093682934,791.303602602193
1731653928.3897302,807.9844841822863,796.0288419619889,792.0378144548386,808.7514600748657
1731653928.3936298,817.6914016380734,795.5640502378237,792.2705901446591,813.7864987265705
1731653928.3975291,796.9084898079288,798.9485806930337,793.3970327746379,802.0976818280701
1731653928.3981256,764.3613088168588,804.1215338266651,795.4395156138204,785.3743778889872
1731653928.3987336,751.2921661331372,808.0687787504104,798.7257930724636,781.3730680446391
1731653928.4014287,774.4890963421499,808.5567558515061,803.3804629056799,798.4449453558324
1731653928.4053285,821.0135653071254,805.5245045980735,808.6101373737439,827.6185373208943
1731653928.4092276,857.4185406637602,801.1223948279122,812.6721423899428,849.0191974501492
1731653928.4114408,855.9320668065852,798.2720585575078,813.8762876146309,847.5137874993081
1731653928.4131272,816.452012242876,798.7112702525798,811.9142678800653,824.9137352705359
1731653928.4143608,766.901750729253,801.9081344630509,808.311360123603,798.8658761252004
1731653928.4170268,741.8063757271825,805.593980142822,805.4618003987403,789.1861478444579
1731653928.4170358,755.8938071273013,807.4649841778169,804.98967523861,802.3242953940514
1731653928.420926,793.2410302063789,806.7859341240278,806.8185502164498,826.230153421375
1731653928.4248257,820.4158834126611,804.779832317774,809.6503248692867,839.8923790386173
1731653928.4287252,813.3479715475039,803.6154943256944,812.2080623151775,830.2237687167295
1731653928.4299877,776.6714549682703,804.7980860325345,813.969504850786,802.8268793154602
1731653928.4326246,740.0273629635049,808.1304755660248,814.8400172087943,777.7828598873314
1731653928.435946,734.2232170234307,811.924823185216,814.4538282251935,773.6823928348166
1731653928.4365242,766.4357986345141,814.2012821996875,812.1583691393217,792.8032531711974
1731653928.4404235,814.3604987301736,813.9439219412751,807.8389723195985,819.4276363404165
1731653928.4443233,843.7919549231224,811.571470760921,802.6316571380189,832.492145472368
1731653928.4456148,835.3357690600925,808.4554593826683,798.5332260848138,822.132290501688
1731653928.4463933,798.9984591776057,805.9676013122198,797.0176236202394,796.7953105048454
1731653928.4482226,765.4615550089893,804.7024492353993,797.8317856170801,775.5566530322508
1731653928.4521222,761.4554381455764,804.2597141126811,799.083621424573,772.3283338691642
1731653928.4548562,789.0389618845393,803.628131934467,798.6362434109913,785.0068540365525
1731653928.4560215,825.2295624702093,801.9599911971227,795.7222147415413,798.308082430159
1731653928.4599211,841.9816014024291,799.3048962022855,791.5190562516856,797.6464356294664
1731653928.4612415,829.8683328812991,796.7537994439207,788.2594476700747,782.1952657542262
1731653928.4638207,805.5929567857288,795.7215224528882,787.5815806423001,765.9215366826822
1731653928.46772,796.9312262664115,796.8003630838137,789.3816952993475,765.619838309599
1731653928.4716196,817.9950265144031,799.159223885478,792.0079479964072,786.1815039972834
1731653928.4737663,856.1433366073743,801.1420158503381,793.582280143538,815.7510446819068
1731653928.4755192,881.8880619656703,801.6512574771152,793.393616987409,834.9196791782689
1731653928.4768689,873.4881482021938,801.1027688120453,792.3262618472892,832.2348104645977
1731653928.4794185,835.6114347109326,801.0689204133986,792.0951274692088,813.2627778527831
1731653928.4813454,796.5253879605095,802.916915738928,793.9491706451605,796.0293661725043
1731653928.483318,785.9528606204132,806.6361574975049,797.798201069306,796.7232152870192
1731653928.4872174,811.4151537207622,810.8010602792331,802.3062912231763,817.074417318167
1731653928.491117,852.1598002462044,813.5606057977983,805.7921862463791,843.2040730144948
1731653928.492496,875.6980096398188,813.7607079346428,807.2889876991939,856.5903908719771
1731653928.4926767,863.7144835245402,811.4438152224661,807.0889897377467,848.3552777429584
1731653928.4950166,826.3661572848473,807.6574083490093,806.4684519866947,825.661785856252
1731653928.498916,793.3094856287604,803.9415694346659,806.8014355213077,805.4382631616336
1731653928.5028155,788.9119200613012,801.7918339580635,808.6460933303299,800.782729222495
1731653928.5067153,812.2899801950613,802.1764492304846,811.4059133342759,811.1232238190837
1731653928.5081227,838.7563744993638,805.1606625978337,813.7859709775463,823.8641320201373
1731653928.5106144,841.131048271287,809.7795596665939,814.6930524011052,825.6485688688235
1731653928.511587,812.70542256697,814.2997876465047,813.8890019416754,813.5948785689554
1731653928.514514,772.6784602914637,816.874582321907,811.9198450615729,797.2988584101657
1731653928.5162976,749.9443149304295,816.3810702824838,809.4744683438753,790.2937151831596
1731653928.5184135,759.0497658979726,813.0179855984586,806.8170038923008,798.2733896996069
1731653928.5223129,788.2659703413702,808.2253587105298,803.8208068730767,813.8820540962854
1731653928.52375,809.5970499091496,803.8505513282786,800.5217914653044,822.5127727724617
1731653928.5262125,802.5712435218053,801.0703046443559,797.5881768953848,814.5698061807235
1731653928.530112,772.1591769833984,799.8537821882602,796.1472922825851,794.0693847705546
1731653928.5304973,745.5563468494988,799.3435447159266,796.9726235318772,776.0266599024358
1731653928.5340114,749.7991064754983,798.7454833398373,799.646414614992,774.239300161227
1731653928.5379107,788.3907613833121,797.9155003091244,802.4638616312701,789.4523236515845
1731653928.539377,836.5587066858076,797.2152662435274,803.3408972573166,808.0890338005661
1731653928.5418105,859.7337041518072,796.9640849899297,801.1540702171046,813.0999556919438
1731653928.5457098,840.6949721447829,797.1418400744918,796.4847416522035,798.1996804256404
1731653928.5494072,793.551655965265,797.5920189142715,791.1620127837834,773.6741830220369
1731653928.5496094,753.2507717438046,798.3414555867554,787.0054630914,758.7178905661259
1731653928.55125,748.7888052365166,799.5377540731141,784.8317911352256,766.2218802818769
1731653928.553509,781.0916419676569,801.0387125222567,784.4667910992315,792.1331199938631
1731653928.555004,822.8271156988611,802.221084880127,785.5274740384614,818.0491133232171
1731653928.5574083,840.3173660588182,802.4120490445371,788.0686390450005,825.3163489375431
1731653928.561308,820.3194011484974,801.5991415019935,792.4328810066332,809.6191208819981
1731653928.5652072,780.274264062431,800.6226211800307,798.5011610922496,784.3069305761843
1731653928.5683174,753.5910647922021,800.5233085835963,805.1587220536036,769.550061154136
1731653928.5691068,761.9172372270477,801.6473708479516,810.5995821632642,776.0229993815718
1731653928.570631,797.3899993988189,803.4093089308662,813.3125928183688,796.5119339871715
1731653928.5730064,829.6834518171299,804.893096296317,812.9725774662294,812.3478591170632
1731653928.5769055,831.7317160594863,805.5965286637216,810.5512679055327,809.2018111664645
1731653928.5808053,802.2747044432435,805.6307930501965,807.6290076853351,789.0717626571637
1731653928.5847049,766.4385520008427,805.3996035522821,805.4945559718111,768.6997972270404
1731653928.586202,754.4219117603822,805.2221813824157,804.6588404946207,765.9826312715956
1731653928.5862582,776.439231888288,805.1956296971377,804.9482748127017,785.5117646040522
1731653928.5872276,814.4535055739661,805.26534441028,805.8907315791752,814.6965570650597
1731653928.5886042,837.0639556996823,805.3470725165595,807.0481497978456,833.4112544391415
1731653928.5925038,825.3266557704684,805.3969268636256,808.1797390713882,829.6364817060071
1731653928.5964034,788.61665510166,805.4159415170334,809.2694584288403,808.8247140891002
1731653928.6003027,757.333001789514,805.4238585523225,810.4018109341412,789.3200577648008
1731653928.6018853,757.7967865034036,805.4361381345359,811.4697202871043,787.184116832487
1731653928.6042025,789.7786261246977,805.4567414651247,811.9163669016787,802.8021469576
1731653928.606138,825.7933106474795,805.4822100274407,810.8797567787816,820.6812084296821
1731653928.6081018,833.5337377209455,805.5080537232133,807.8428863432628,822.8721135444407
1731653928.6120012,803.0861251910864,805.5321406598063,803.3237596947044,804.6417027075842
1731653928.6159008,756.0388340165523,805.5546804900323,798.9045682822439,778.9321676212955
1731653928.6175122,728.5908168436467,805.5767543434496,796.3803948965754,765.7893456039317
1731653928.6198003,742.4837235879214,805.5991388719715,796.5908717889581,775.7984813995187
1731653928.6211543,787.500648623478,805.6219913313304,798.8105700462205,801.4369642625727
1731653928.6236997,829.5010233280007,805.6451006370579,801.1507511314505,823.3214566744449
1731653928.6250482,837.2662964137953,805.6682235311498,801.7063447187078,825.932671666195
1731653928.6275992,806.6750961601364,805.691246942438,799.7272554578755,809.854656743734
1731653928.6314988,763.1099709325058,805.7141765586082,796.0974515243828,790.6262118361276
1731653928.6331391,740.3668156937259,805.7370630654154,792.7910529712696,785.286830764505
1731653928.635398,753.2484678491252,805.7599519641544,791.5957209006939,797.8741821718763
1731653928.6392975,786.3523657835858,805.7828707438979,792.9490059141935,816.1636662590247
1731653928.6431973,808.2911745445914,805.8058224181806,795.752696932813,822.5529506778053
1731653928.6439583,799.1554079135219,805.8287622963664,798.3184743854272,809.7881109043554
1731653928.6470966,767.6950295415803,805.851579174335,799.6636727636973,787.8324218260269
1731653928.6487665,743.5770708613777,805.8741395348088,800.0844730942465,775.740260446151
1731653928.6509962,751.5416709781838,805.8964303742624,800.6018528107303,785.3925408445942
1731653928.6548955,789.6268879641636,805.9187260633304,801.8800598225877,810.9528570932565
1731653928.6561067,829.8696518197427,805.941563333454,803.62302049069,832.96210403381
1731653928.658795,840.8024247269424,805.9653010754292,804.9381911910972,833.6894115585623
1731653928.6626947,813.0911689188216,805.9893522106054,805.2556085251356,811.2607386079162
1731653928.6628685,767.4239757255357,806.0117699410619,804.9236486670995,781.3950103193717
1731653928.6643932,738.3655341796554,806.0302613095422,804.9378086536353,765.5787854622914
1731653928.666594,747.1290010922041,806.0450488353516,806.0507759361228,774.9332718894701
1731653928.6704936,784.9336760130274,806.0618718335173,808.0582318572393,802.0614017833335
1731653928.6743932,820.220868611022,806.0909492479678,809.8909281881463,826.9456825236078
1731653928.6782925,824.0683168385474,806.1380537268078,810.4285315929682,832.2944128704626
1731653928.6800203,793.540157003606,806.1902060251384,809.3378931965692,816.5408974648077
1731653928.681779,754.2282765690846,806.209644227508,807.2790048790459,794.5025424942218
1731653928.682192,739.8737028345909,806.1557956271278,805.4202051083414,785.289052467159
1731653928.6860917,765.3139972675388,806.0404082680707,804.735971149298,797.0149242821125
1731653928.689991,814.2921693959031,805.9795340296429,805.5705411247635,820.3562419405781
1731653928.691059,851.794338122588,806.1621540878474,807.5985083938107,836.0007218263839
1731653928.6938906,851.1699084329225,806.6690479704887,810.0518614614139,830.0611899186861
1731653928.6956472,814.671101677956,807.2021558294048,812.0709084586706,805.1874148325379
1731653928.69779,771.2536717851597,806.9855817427185,813.0749420244399,778.4606195002973
1731653928.7006888,753.4291253212997,805.1558314431697,812.9988706720853,767.6930672162342
1731653928.7016895,771.6764206561234,801.5945359337322,812.2394227735108,777.2243600672953
1731653928.7055893,807.0857668414916,797.5395117368697,811.3356103450769,794.9524185636453
1731653928.7094886,828.2458367766221,795.2100972499055,810.6271269410562,803.1975862793377
1731653928.7112744,818.3059321854946,796.4883296591194,810.1254216085173,794.2978564124129
1731653928.713388,789.4016090051747,801.6239368417342,809.5927410429217,777.5471147647512
1731653928.7172875,772.1742833548636,808.95996724374,808.6506259768362,771.306859178884
1731653928.7195992,789.2707102921572,815.8228491744613,806.8352911964456,786.8707093125496
1731653928.721187,835.2553106098185,819.8629889482025,803.720603893601,817.8507107396417
1731653928.7250865,879.804327280166,819.9878300609435,799.2330631389624,844.2365625679189
1731653928.7260113,891.5574092317846,816.5453397701846,794.0335703870405,847.9537811505004
1731653928.7269013,863.137430093432,810.9748140582983,789.599364026116,827.2317038625989
1731653928.728986,817.1176129690389,805.2594516875538,787.7029136671945,798.1325800660061
1731653928.7328854,788.1652149918293,801.291293319549,789.4061168694734,782.0372679968067
1731653928.7367847,795.7291647995837,800.1458766347412,794.190125957234,789.1492086249343
1731653928.7385094,829.3192802862005,801.4803120359898,799.9597140237545,811.1859677189487
1731653928.7406845,858.313817791585,803.531020080326,804.1345479757811,828.9499314870675
1731653928.7425284,858.1093887434671,804.0302367122557,805.1738748308487,828.3982319310676
1731653928.7445838,830.7427393243389,801.6977887459244,803.417184315132,811.9451007862617
1731653928.7484834,802.6623273841379,797.3104191672794,800.5905535693036,795.7605286820756
1731653928.752383,801.6595954229706,793.410026837384,798.4424644853173,795.55382807238
1731653928.7562823,832.635928064104,792.6513082934445,797.6885144647714,812.940963065129
1731653928.7574196,872.6873704934096,795.9154324242467,797.9886461629543,833.8460253088148
1731653928.758155,889.5460059625921,801.6224945617457,798.624865711504,840.1610187104774
1731653928.760182,868.0752914011882,806.8028132048001,799.1067161430703,824.9048441109616
1731653928.7609637,823.2040005364667,809.1125019158197,799.32892889496,798.4212929882252
1731653928.7640817,788.7972002109054,808.239453244556,799.4113731176951,780.5462007346536
1731653928.7679808,791.1843260431341,805.6918897878779,799.4937706997393,784.9917319290867
1731653928.7718804,828.3673567592356,803.3661373526393,799.6364145953613,808.5164850204632
1731653928.7737825,871.6512828765905,802.2504820286753,799.8275667720195,833.7217695756852
1731653928.77578,888.5777171700668,802.2037347098953,800.0317888913003,843.2740034021808
1731653928.7763298,868.688825694342,802.572074745324,800.2255713629058,833.8726425548297
1731653928.7796793,831.1654409023489,802.8392290435165,800.4052092699653,818.4015960170202
1731653928.7835789,808.2307527737116,802.8541676720564,800.5778179838028,814.573450991538
1731653928.7874784,818.2278276967589,802.7118671662661,800.750712211974,829.7039686324404
1731653928.7894094,850.6626073511776,802.5519586040482,800.9267167904476,854.3614095347725
1731653928.7913778,875.263483398696,802.4454542851577,801.1049566262551,870.0007793613213
1731653928.79524,867.1490248654458,802.3893171747562,801.283508009052,864.0630812897983
1731653928.7952774,827.3330084798963,802.3505193709491,801.4611934885863,840.1812072824283
1731653928.7959158,782.1652646396255,802.303759280041,801.6378874628623,815.4551451098657
1731653928.7991767,762.5390421900759,802.2428590659465,801.8139909407715,807.1868151145512
1731653928.8030765,779.6759070947712,802.1737189526976,801.989877081499,819.6168009119851
1731653928.8050363,816.7265688113971,802.1037437308837,802.1656694832726,841.0078664772328
1731653928.8069758,842.7187261573914,802.0363585807322,802.3413006085932,853.2314109306376
1731653928.8108754,837.4968487883027,801.9711386349511,802.5166541037572,846.1404981430219
1731653928.81415,807.3891707622467,801.9062702930581,802.6916575477444,825.1821769141486
1731653928.8147748,778.8680364605782,801.8404769889735,802.8663021450908,806.1654875066837
1731653928.8186743,775.6727731576302,801.7735120261012,803.0406226735993,801.6625818014539
1731653928.8206637,798.6959508611918,801.7057282409065,803.2146658743917,810.4824824571164
1731653928.8225737,825.5324381546809,801.6375197455395,803.3884513039711,819.0286221299083
1731653928.8264732,829.86364136537,801.569055909453,803.5619279076548,813.2614750358002
1731653928.8303728,804.1547371892367,801.5003041977415,803.7349600732264,791.0730169452861
1731653928.8308682,766.627754691543,801.4311610397066,803.9074022440316,764.6856763032973
1731653928.8330605,746.7679502807974,801.3615507930529,804.0792810571605,751.0972338865012
1731653928.834272,761.2124221304476,801.2914599053406,804.2509710221284,758.3713509563851
1731653928.8362906,799.5922707568438,801.2209340136808,804.4231020847051,778.898017601207
1731653928.8381715,832.0527073005271,801.1500586513758,804.5959761420867,795.2506054452425
1731653928.8420713,832.9101034448372,801.0789124600896,804.7686870253184,794.2054629137
1731653928.8459706,801.5106567253698,801.0074822329398,804.9388287292123,777.5879890300897
1731653928.8498702,762.9170877036248,800.9355861462585,805.1039964430335,760.7234679145031
1731653928.8519175,747.334659741435,800.8629244381855,805.2652770909184,759.417974533993
1731653928.851971,765.1622477735125,800.7893617356727,805.4302946820861,776.3417035305428
1731653928.8537698,798.6026359462643,800.7153463630376,805.6107926755955,798.5089556961293
1731653928.857669,816.8931376200721,800.6420418129342,805.81101986994,808.1121358662956
1731653928.8615687,802.2422492861581,800.5705962210499,806.0116003215564,797.4986523073368
1731653928.8654685,764.6927580793721,800.5004660664299,806.1663346659733,775.6539391436578
1731653928.8658204,733.7534744403899,800.4279750464785,806.2337053499255,760.9080539089068
1731653928.867545,734.128766265461,800.3475151170984,806.2432263046405,766.0573675675872
1731653928.8693676,765.671875141426,800.2571496731333,806.3461104919561,788.0479656361276
1731653928.8708808,803.7260590694592,800.1663151613875,806.7548840873479,810.4290463973927
1731653928.8732672,819.3042539003254,800.0972140042629,807.5096040206112,816.5752286705647
1731653928.8771667,802.6404165050965,800.0695202469893,808.1718668451151,803.1228745267271
1731653928.881066,770.8587205328707,800.0685412608327,807.7690489330444,782.6268145004528
1731653928.8831718,753.2328755143387,800.021315236739,805.3143402514718,772.8601740770914
1731653928.8849657,766.0600626545402,799.8263577985938,800.7359402398522,781.346755813326
1731653928.8888652,798.3188308098154,799.4663342523273,795.3822293017347,798.3581684917464
1731653928.889791,820.6468928540816,799.1540281519776,791.3749948721247,804.9527814525452
1731653928.8927646,810.4850625219285,799.3563723039318,790.1916922247444,789.7024599931755
1731653928.896664,772.2747897562228,800.5392030897369,791.7353078363627,759.8130373521399
1731653928.8987987,735.4499873083121,802.7034194013629,794.6709282610941,736.7070268057545
1731653928.9005637,731.3455093552706,805.1046534735328,797.5376724439301,739.2036932244026
1731653928.9007728,767.5932611904992,806.5562705780831,799.5343243557011,767.9438324049607
1731653928.9044633,820.8287385793052,806.2477011704999,800.4667221349487,803.8439625769878
1731653928.9083626,853.9841378656097,804.4696734311847,800.3042594309528,822.0846065147737
1731653928.9087012,844.8198824011749,802.5797598707658,799.0377546723378,810.7649862023158
1731653928.912262,803.1769068840421,802.1116072023476,796.9447074999949,779.6915404930327
1731653928.9144258,763.0895425828974,803.6861829529306,794.7722038970601,752.5373667711706
1731653928.9161615,755.8155257467404,806.6012455900063,793.4372236705397,748.6401549601582
1731653928.920061,785.2538573483986,809.3818130694052,793.4348632726383,768.735573288118
1731653928.9239604,825.4695519426916,810.7465440938137,794.5121333555608,795.5720063888397
1731653928.9276114,842.171428139914,810.2159721419246,795.9120249891962,808.3441153174775
1731653928.92786,820.5275218262261,808.0944035139697,796.9357882375539,799.0295843938671
1731653928.9300528,776.7669409958281,805.1382312668662,797.3184963840752,777.7730974862556
1731653928.9317596,744.5618987954831,802.2777029273342,797.1849899149512,763.7680696213343
1731653928.9356587,747.747178336879,800.4195965694834,796.7873422890294,769.6332728224644
1731653928.935725,781.6342770471454,800.184429055234,796.3346573935917,791.8571462585793
1731653928.9395585,817.7235199014224,801.6309813007495,795.9698698873103,814.4573996779233
1731653928.943458,827.5082676368332,804.2318014917977,795.7326227743797,822.3816544099822
1731653928.94568,805.7722773993796,807.2091307555604,795.4686251680885,813.6712630839046
1731653928.9465218,774.3773161546331,809.9657709394651,794.8904344435782,800.6024542943035
1731653928.9473574,763.4593107732474,812.2318668475327,793.9313792302744,798.9020267195151
1731653928.951257,785.5013707922124,813.8725778951227,793.1351119748747,813.8611766650488
1731653928.9551566,823.8597401195765,814.6808687627237,793.5823984788183,834.9514838646959
1731653928.959056,845.6269246323362,814.4483617271603,796.1910583250788,843.7852990991921
1731653928.9613068,828.5965927212008,813.2122405308972,800.880063987891,829.2334171244044
1731653928.9629557,780.332830461925,811.3244522742881,806.3511429285226,797.4132424144334
1731653928.965432,733.7270515448103,809.2040666402544,810.7663680337535,768.2632447749212
1731653928.966855,722.3426864676612,807.0425455820468,812.838932649677,761.1152673997746
1731653928.9706771,754.7696637970969,804.8158880258037,812.5418672506796,780.3272557242113
1731653928.9707544,807.9186579198821,802.6032023969422,811.0018504608828,812.0292382269929
1731653928.974654,844.6085008429887,800.8379823086302,809.7592462526502,834.6050070688481
1731653928.976934,842.0220328282194,800.1621449817093,809.9147908864353,834.9965798424922
1731653928.9785535,808.8157464765924,800.9671481742839,811.6107144145913,818.179644773291
1731653928.9824529,777.1786815291051,803.0394869830169,814.0197785546553,802.2388599981346
1731653928.984342,776.1033201484183,805.6269381412696,815.7663809299645,802.9747596851797
1731653928.9863524,807.6801909867082,807.8262309343977,815.5591000413924,820.7463087924285
1731653928.9902518,845.9651819028215,808.9233382694125,812.7743983831723,840.5828315970825
1731653928.9925609,859.1592453640262,808.4841968280772,807.7777751994619,845.4084996785766
1731653928.9941514,836.3030954455828,806.3594959252708,801.8524772305058,831.0052180682158
1731653928.9980507,796.1910515132435,802.838406641781,796.7031219289644,809.9168828283429
1731653929.0019505,771.536902202686,798.8544185720616,793.6714476784078,801.0622144366591
1731653929.0032525,782.0973343499932,795.8642059081475,793.0488881756381,813.9095125503826
1731653929.0056295,819.0187743370365,795.214748937693,793.9761604383724,840.3792026444802
1731653929.0058498,852.7588589638318,797.3249095229144,795.1193323963089,861.0215479469211
1731653929.008188,857.5524940773923,801.2979592422338,795.7085469303637,860.3812242163558
1731653929.0097494,832.2777341848728,805.3495940456755,796.1389656787582,839.1611539390632
1731653929.0136487,800.7364396067253,807.8515883694719,797.5978529496458,813.3744965869618
1731653929.0175483,791.1963928841866,808.290301454516,800.9521179049622,801.1541017177178
1731653929.021448,812.2768667062646,807.4394065686415,805.766386386639,808.1018159748439
1731653929.0221624,845.603848992203,806.6442475998069,810.2696509131667,823.4507307068187
1731653929.023815,861.6527041808719,806.8534005652999,812.3812684576494,830.2011090263064
1731653929.0253472,845.3481594111778,808.1876934062749,811.1079239412026,820.344950626037
1731653929.0292468,809.4911390982403,810.2180679903101,807.3253860929077,801.9257634489614
1731653929.0331464,784.4545219601781,812.4194578605232,803.348984166061,791.91129823392
1731653929.0370457,792.8106829826502,814.2815211274668,801.4997365679053,801.2094851046244
1731653929.039442,830.1636408727381,815.1994526972566,802.5746765037104,824.7620790997732
1731653929.0405817,868.0337221239498,814.6538002332927,805.2699510490995,845.0879081707429
1731653929.0409453,876.3861033733419,812.7667023515044,807.0403187660125,846.310754358617
1731653929.0410726,847.6448414557822,810.6073882686967,805.9103488291206,827.2049315513237
1731653929.0448449,803.0464155682122,809.5946768040072,802.0095311453437,802.6656872851801
1731653929.0487442,776.1769410582165,810.2429255738546,797.673680407615,792.1978102598946
1731653929.0526438,786.5425804363846,811.4078736798328,795.9214356058114,804.3596630196024
1731653929.055069,824.1300529300516,810.9948017814818,798.3357318514545,829.6024424700074
1731653929.0565434,857.4646348892345,807.7728523261128,803.8793170980509,847.5542713810287
1731653929.059983,858.9302914964073,802.7477438516196,809.4883374376956,843.2180331867484
1731653929.0604427,827.0651425301635,798.754300243525,811.9636912553576,819.1097712875059
1731653929.0643425,787.8264243310934,798.460552169678,809.7991183863305,793.4318391094946
1731653929.0682416,773.7841723679062,802.3998337608226,803.7859186277647,785.6736376182924
1731653929.070696,798.016583657074,808.6162958180482,796.2184471448377,801.2564729282119
1731653929.0721412,843.6005130966714,814.097916756822,789.4485143385654,827.5136769904605
1731653929.075534,876.8810878937911,816.740588167865,784.7760176161364,844.0074094852092
1731653929.0760407,873.739668439956,816.367503216662,782.2252959664845,838.7139282708888
1731653929.0788932,837.9992223460836,814.2949598078617,781.0961056953269,817.1482594963936
1731653929.07994,797.5260707691699,812.0712201152796,780.7445936745895,797.2957106274029
1731653929.0838397,781.3166846668937,810.423284523176,781.0314665771602,794.5585860430314
1731653929.086323,796.1454101025442,809.0451709329406,782.2153625104314,808.98552736293
1731653929.0877392,821.9503281333147,807.1663348318276,784.5322731597453,825.3677000734843
1731653929.0916386,829.895918654734,804.3696516624939,787.931177642573,826.3193077755908
1731653929.095538,807.9692190786952,801.0776598740254,792.1975009138853,807.507536118438
1731653929.0978034,772.2282927938772,798.4068825617201,797.1976239448544,782.0833640593243
1731653929.0994377,753.7435298172054,797.5016183406776,802.7877952954336,770.272692812176
1731653929.1019502,771.9569787692286,798.7782803022295,808.3528142798331,782.6032153705984
1731653929.103337,816.8941802238772,801.5622389625864,812.5395253976616,810.670017891921
1731653929.1072366,855.4518113973264,804.3561686689097,813.7654688171477,833.1411358463164
1731653929.1104865,857.0714017423943,805.6105082853862,811.3476028704717,832.234251947575
1731653929.1111362,818.0968722020364,804.5953468032272,806.3312412347327,807.4881712474773
1731653929.1150355,765.047295378899,801.8990557719744,801.1542313231683,775.9521398247812
1731653929.1167135,734.0357891880496,799.2025799236259,798.1984198084833,758.8153434261435
1731653929.1175773,742.8242439668063,798.3226352014663,798.2436945700898,765.2053816398455
1731653929.118935,777.9611315480755,800.0330050465792,799.992918000099,785.9756659773419
1731653929.1228347,807.2145356820495,803.511138477061,801.0525259120162,802.1917071522986
1731653929.126734,806.8333108792008,806.9366794018996,799.670912041938,801.1301831935117
1731653929.1306336,780.9150308848717,808.8276089599118,795.9878849621904,786.4895813454267
1731653929.1332042,756.77589132083,808.9802531455385,791.9351587676991,774.3804277283532
1731653929.1345332,760.5219161739432,808.2327693929826,789.937394923158,778.7063143588152
1731653929.1356237,793.8074073078261,807.4401770478556,791.4005055104584,798.5895175870397
1731653929.1384325,831.5835068592256,806.7741102416412,796.0030364863122,818.6921710950096
1731653929.142332,842.6882606106373,805.9433638349129,802.0962925694203,822.2003112342328
1731653929.145439,815.9587555392721,804.838411187236,807.7370032242031,805.4391305978548
1731653929.1462317,770.1504710172452,803.7400109876239,811.6179949032305,781.6756185251887
1731653929.1488314,739.4583448108301,802.9231216057099,813.4439380144179,770.6669191868895
1731653929.150131,746.387843477215,802.2614329315602,813.7308571777658,782.3858821460339
1731653929.1540306,783.954735271428,801.3495237517268,813.2942749052033,808.3476433495874
1731653929.154534,821.6271567244487,799.9465328142438,812.7753412114985,827.9406768106635
1731653929.15793,830.1760492557117,798.1818181316403,812.4438389124576,824.9143858489755
1731653929.1618297,805.1787177828688,796.3534603683466,812.2803428944446,800.6755722293295
1731653929.1644585,770.0077838613104,794.699394193983,812.1659293573335,773.4483807887782
1731653929.165729,756.0471114329948,793.5002177392755,812.0173343591322,763.8737677179109
1731653929.1696284,776.6249443869225,793.3425129949075,811.8199863072705,778.7362532107887
1731653929.173444,816.0911883590728,795.034382492405,811.5983789033895,805.9370974858717
1731653929.173528,842.7204916227191,798.9743033655695,811.378633407054,824.5368025452315
1731653929.1774275,834.662448429292,804.4253771783804,811.1712942548043,821.5504769548255
1731653929.1800854,797.9243155493323,809.4460150476294,810.9736357554335,802.0365531632674
1731653929.1803908,762.0340495181399,811.8102361022308,810.7789347416984,784.6121973577345
1731653929.1813269,756.7604812966088,810.4108879443402,810.5829502621153,786.1073334650282
1731653929.1852264,788.2125200067405,806.0899832509465,810.3851562203477,807.6101696070239
1731653929.189126,833.3973282440481,801.1495065497287,810.186949217193,833.138821148772
1731653929.1923544,858.0359757501951,797.8408077128906,809.9896764000312,842.2472191833649
1731653929.1930254,843.7944666189785,797.0244766621358,809.7938185054329,826.6080469008482
1731653929.1957123,802.9456024246805,798.0259340783944,809.5991800675894,797.074816694057
1731653929.1969247,768.1946249417643,799.5839715060381,809.4053934497505,775.2065289915322
1731653929.2008245,765.7881109496066,800.8607185422377,809.2122420215537,775.9899335204361
1731653929.2047238,794.1596834185124,801.6958736882317,809.0197027042237,795.9378015585426
1731653929.2086234,825.8525442997532,802.2396194503677,808.8278413797062,816.3721521435674
1731653929.2112646,830.8871963778741,802.6009514322099,808.636712782166,819.0512392882862
1731653929.2113397,801.938268602058,802.8049346046533,808.4463291465503,801.128844344728
1731653929.212523,760.599664747525,802.882091640562,808.256680492026,777.2484931909704
1731653929.2153432,739.8580054401612,802.8937981927625,808.067759136832,767.3274402157173
1731653929.2164223,757.1748428369101,802.8970889443124,807.8795550131834,780.1700130449422
1731653929.220322,800.0467060350884,802.9182372888597,807.6920242609204,806.2491985107148
1731653929.2242217,835.9647247081775,802.9560673387896,807.5050704717114,825.5039981659994
1731653929.2269664,838.9655088761783,802.9990489707865,807.31859132564,823.7860303219211
1731653929.2281208,811.0080008779638,803.0386344835883,807.1326040422233,804.4129959754384
1731653929.2301748,780.1126491480046,803.0729713354968,806.9473636501596,785.1990743428805
1731653929.2320204,776.3877265457979,803.1042640008847,806.7632884242405,783.3881991550779
1731653929.2359197,805.9641839610679,803.1350887728688,806.5805452295538,801.084782291281
1731653929.2398193,845.0391725327424,803.1665722997884,806.3984483455628,823.3569514254235
1731653929.2425935,859.3428070563197,803.1985129332741,806.2152997755853,830.5176345681077
1731653929.2437189,832.8033796335885,803.2302624992602,806.0294892158051,814.3403781187064
1731653929.2476182,781.5502112446136,803.261384340731,805.8419253054972,785.0057998858773
1731653929.2490847,741.8347413514166,803.2918041543319,805.6580293601293,763.4134327360124
1731653929.2502954,741.8436859033951,803.3216486097854,805.4858124757424,765.1754030244931
1731653929.2515178,779.9662549346663,803.3510506189533,805.3276349546957,788.8136161348366
1731653929.255417,826.5031576793633,803.3800619475562,805.1692441891028,817.157207799554
1731653929.2582204,847.2301589043163,803.4086665684295,804.9784082882328,830.748844677665
1731653929.2593167,830.0617750881593,803.4368289709595,804.7278357718924,822.7545755273727
1731653929.2632165,793.4662276358774,803.4645273079794,804.4412022356105,803.4908616624203
1731653929.2671158,769.8458258439558,803.4917593118716,804.2257900402082,790.8792445934557
1731653929.267995,777.7825489955553,803.518532808397,804.2258040622118,794.860788607334
1731653929.2710152,806.6052669181919,803.5448555380348,804.4567546018637,809.1129161358448
1731653929.2738476,826.3287097928163,803.5707310406849,804.5969811122435,817.1831454403385
1731653929.2749147,814.2092739555441,803.5961597156596,803.961252476682,807.5612571275574
1731653929.2788143,775.0071356880585,803.6211414338627,801.870916480571,784.454462482505
1731653929.2827137,737.8054795019126,803.6456771681178,798.2933336022735,764.9375896837857
1731653929.2852478,732.3951672694711,803.6697691707545,794.196074742061,764.9870342387877
1731653929.2866132,765.0641034186247,803.6934204286223,791.1533095816304,786.198476548223
1731653929.2869053,813.3902532185091,803.7166341960401,790.4280492237175,814.1166813863147
1731653929.2894745,843.751489635375,803.7394139089477,792.263545891736,829.439015219026
1731653929.2905128,837.3227840833109,803.7617633051909,795.8743143461686,823.0716271163632
1731653929.294412,804.0824415158207,803.7836864024673,799.9808794893204,803.0402937803076
1731653929.2983117,773.9583529402597,803.8051871588618,803.380424798164,787.6688018253977
1731653929.3022113,772.2856166010232,803.826269060985,805.2348055259807,790.390270889303
1731653929.3051016,799.3671381776409,803.846935284236,805.1498455764853,808.5254888436649
1731653929.3058157,830.7795690807657,803.8671899860357,803.2425727130326,825.396571751827
1731653929.3061106,838.1421703909624,803.8870403168659,800.1772642332597,824.2222816580716
1731653929.3100102,813.1505879299523,803.9064971268072,796.9761712504364,802.3690765251151
1731653929.3139098,774.9935079114539,803.9255715798065,794.5776005797127,774.1533567546744
1731653929.317809,755.0656255488395,803.9442671609579,793.4220835033259,759.8477653858803
1731653929.3202,771.4976775331221,803.9625725852494,793.3707818367069,769.7947494498804
1731653929.3207283,814.1010487921371,803.9804671103526,793.9524420442046,796.3113588278374
1731653929.321709,851.7779580333284,803.997946976967,794.6852926419376,819.6987732191307
1731653929.324726,856.6432889564205,804.0150625554796,795.2877551237378,823.5908716425698
1731653929.325608,825.9733144128177,804.0319263892949,795.7767322516128,807.6335381406429
1731653929.3295076,784.5093673243045,804.0486418247131,796.4644129115209,787.4072080796768
1731653929.3334072,764.8161875007893,804.0651506229683,797.7746223651573,781.371386947275
1731653929.3363557,781.121122074366,804.0811135971555,799.8834978894417,795.2266873947576
1731653929.3373065,818.0144071267252,804.0960415900735,802.4419694576255,816.7931950597825
1731653929.341206,843.61381340705,804.1098184670747,804.7096044304551,826.1723253038781
1731653929.343636,836.3472003767182,804.1233758644769,806.0958214330398,812.9556336650887
1731653929.3451056,802.8727983495205,804.1387401180355,806.6384843728158,785.8550078818084
1731653929.349005,772.1628867484366,804.1575503274903,806.890155936853,766.3272299540163
1731653929.3519826,770.9457783881544,804.1781737695985,807.2146531369378,771.3159049072516
1731653929.3529046,801.1708390261499,804.1937513925283,807.149203132331,799.372622698404
1731653929.355152,838.1366597177135,804.195248738117,805.5550166687195,831.4931225534177
1731653929.356804,850.6721558454025,804.181718035693,801.5900996709214,845.8463200010953
1731653929.3607037,826.7416625824491,804.1724224281027,795.7169519364605,834.419109889299
1731653929.3625462,783.4774647782574,804.2056769565366,789.8224728698141,808.3277956661645
1731653929.364603,753.248263148579,804.3084992694716,786.2406844774553,787.8896642816302
1731653929.3676095,756.9794422629634,804.442555292199,786.3709031035962,785.9122179470809
1731653929.3685026,786.809417792431,804.4738052329561,789.8756623358637,798.065007516075
1731653929.372402,812.9207570267331,804.242252964543,794.9491304866056,808.1134566533185
1731653929.3763015,809.231329231426,803.7657741420031,799.3751965452072,803.1273235301146
1731653929.380201,776.2858895359418,803.4675134215837,801.6569435978148,785.2844664737474
1731653929.3814564,741.5998615068638,804.1519573636488,801.5991627271054,770.0042908211129
1731653929.3832366,736.7590971715001,806.5061594046018,800.1456031491265,772.132300042786
1731653929.3841004,770.4109349526396,810.3504417429817,798.6843759773129,792.2221122136528
1731653929.388,819.8709031351771,814.3576504215216,798.2462177779558,814.844366973153
1731653929.3901043,848.6192195120789,816.7442338805301,799.0094864194339,820.7196166707608
1731653929.3918996,835.56609927318,816.4863142549067,800.347553372967,802.8893065530548
1731653929.3957987,792.1606294593224,813.9999839131449,801.3685979533258,773.4701483796572
1731653929.3988638,753.1581092076574,810.701461493581,801.6013799227983,754.826592699259
1731653929.3996985,748.3887571495808,807.8853763596834,801.3534733901148,761.7175052184581
1731653929.4003663,778.6913045574436,805.8967213956875,801.4690894327249,788.9259121629723
1731653929.4035978,815.9895779409148,804.2257668092649,802.6601981892395,815.0397509650127
1731653929.4074974,827.4504452850058,802.3314746769715,804.922276662853,819.83109115349
1731653929.411397,803.340855603653,800.3984226341325,807.4608614015934,800.9244109006077
1731653929.4144907,765.0564792073933,799.3116106698228,809.1287038305364,775.6294579559137
1731653929.4152963,746.7930037512593,799.8316373463201,809.0179285276129,766.3402594926254
1731653929.419196,766.6930883980582,801.7077176775111,806.8572768447766,781.9058109627547
1731653929.419277,811.6246429220449,803.5929733915817,803.1114413178792,810.4870911165456
1731653929.4230957,847.6125063275535,803.9429963374259,798.8539286490203,829.3222428011352
1731653929.4250567,846.7856191669584,802.1803019861303,795.4673915241771,822.8920634117698
1731653929.4269948,809.1874620279183,799.1398923915867,794.1657199941664,794.8764516613697
1731653929.4301178,762.7354553346923,796.4249787982784,795.4117932688043,764.9730807693744
1731653929.4308944,741.8171780940087,795.219720930544,798.5112810344499,753.6311278512612
1731653929.434794,761.1817650029269,795.5168169840749,801.7678146561844,766.7459581740565
1731653929.4381871,805.2290865564869,796.3186603434186,803.3419073633119,792.0362325240742
1731653929.4386933,840.9552682169442,796.5632655335912,802.413166987427,809.6351616578854
1731653929.4425929,844.3097644035792,796.0005601785106,799.8462522466299,808.26579104202
1731653929.445745,818.8986074402997,795.3808935107883,797.7687352856709,793.9455566082653
1731653929.4464924,791.9655146177129,795.9115054540712,798.2277049577851,784.2711506346631
1731653929.4503918,791.0931486804387,798.4519763804802,801.7977008922571,793.1967909980701
1731653929.454291,820.939910311442,802.9899909976681,807.0913409973325,818.9881700977124
1731653929.4570973,859.187314102233,808.6324520769109,811.5385845917732,845.2109321304348
1731653929.458191,874.8845886432048,814.0009786155905,812.9770032987217,853.7851071845685
1731653929.460009,854.0486114617588,817.7847988698384,811.0394980680138,839.471657258412
1731653929.461372,811.6551017005456,819.2491223307053,807.3796134033176,814.2661736613967
1731653929.4620905,780.1962502860331,818.538071827032,804.4945955557306,798.234608565701
1731653929.4659898,783.761739136111,816.5924080275664,803.9204917614345,803.8783096440053
1731653929.4698894,818.4524259778083,814.5948243472567,805.145035894792,826.2730308390937
1731653929.4737887,855.3361549490712,813.1839426327139,806.1332541263972,846.9933173500833
1731653929.4760077,864.0696418387486,812.0056882444277,805.0982295437882,849.0081156285789
1731653929.476999,837.9819532240911,810.0599185536879,802.0840359482909,830.6192609031531
1731653929.4776883,799.6048945068146,806.6701061865369,799.0324987651636,806.8858967398279
1731653929.481588,781.7044865859067,802.2793581597766,798.26847449301,797.1508920973746
1731653929.4854872,799.6075981890402,798.3177528013571,800.6764522856403,808.9622564049987
1731653929.4893868,838.1513725914282,796.1703590186312,805.0562905308624,831.7951588193287
1731653929.492626,864.2157213578022,796.1201504746981,809.0653373681697,845.733268859007
1731653929.493286,854.2303223316073,797.2147325573023,810.8202081439883,837.7955552539379
1731653929.4949176,813.7749373665586,798.1712285321706,809.8631856956955,812.4941754604062
1731653929.4949613,773.3013210738592,798.4620624388231,806.9765914138,788.2044116518842
1731653929.4971857,763.6288266140466,798.5809068363026,803.3368612790547,782.4502448791209
1731653929.5010853,791.096984873283,799.3316867309296,799.8118046407908,797.9911625725281
1731653929.5049846,832.5143959868354,800.950249362554,796.7791581468493,820.9654019546388
1731653929.508253,854.1875724282813,802.9502606389285,794.3126935468615,832.7122054953552
1731653929.5088842,839.6175068869162,804.721800518055,792.4275304744845,825.5582951245889
1731653929.5127838,802.9012313039739,806.0807467149483,791.2324307499575,809.1332454769237
1731653929.5138278,776.4505726868315,807.0992181470591,790.9753394753054,801.5145071424166
1731653929.516683,783.2783649060419,807.4663815406384,791.9590846121861,812.6903785321111
1731653929.520583,817.3326263960583,806.2673653149784,794.3006194399674,834.8834256364622
1731653929.52388,848.4954113311773,802.6888267379438,797.6460625499845,848.516933323043
1731653929.5244825,847.8521239484124,797.1481331072897,801.1040424910094,838.9365063589172
1731653929.5283816,811.9502477353342,791.7453772057069,803.5717758318305,809.5914709497748
1731653929.5299137,766.1253961311241,789.3757313264492,804.2997409523323,780.4029510117583
1731653929.5322812,744.577411806329,791.9465857102266,803.2929659867278,772.5082412917177
1731653929.5327382,763.538507793184,798.9563464712961,801.2610381141628,791.6894927504609
1731653929.5361807,808.8082893597516,807.521043327023,799.1970421472655,823.6767382851206
1731653929.5395072,847.1823138844221,813.9186383680379,797.911074518757,845.0106631897352
1731653929.54008,852.5718974695129,815.6524545512216,797.7587562776323,840.9979319160731
1731653929.5439796,826.196082503491,812.7056559133955,798.5654969682317,816.7959251702646
1731653929.5478792,794.8282707192724,807.2688438675076,799.6645859062122,793.0032100672051
1731653929.5516484,788.4800371891871,802.2731186186562,800.0902674580063,789.2962863706697
1731653929.5517786,815.5728857298433,799.7683807609566,799.0256165365398,809.1033577671061
1731653929.555134,855.8454089925716,800.1063115570928,796.3858166430584,837.346023005138
1731653929.555678,876.7590050756412,802.2161747486257,793.1099473376347,852.6567308769991
1731653929.5595777,859.9083666398742,804.5624586374197,790.7669101041924,843.990619591362
1731653929.563477,815.9487816765139,806.067817477408,790.5870088730967,818.5300436866148
1731653929.5648658,776.2172611560197,806.4462116176196,792.5933988562994,795.2588822708095
1731653929.5673766,768.1609261219951,805.8676823544032,795.5437857218334,790.0076705717552
1731653929.5705583,794.3391905852118,804.3911032033213,797.7812298397274,803.9349699380874
1731653929.5707612,831.4491680562243,801.7884191884142,798.3520052966464,824.0048104666131
1731653929.571276,849.7936515409507,798.015947472399,797.5513360696867,834.3845804158412
1731653929.5751755,837.4930882778602,793.9033787558257,796.5749347552957,829.39236997831
1731653929.579075,809.8673279205954,791.2652898389472,796.6799085603143,817.7084315619193
1731653929.5829744,796.1182470300295,792.0350038737225,798.5134550185263,814.6027815384411
1731653929.586388,814.0717144210548,796.9037182030869,801.9066382515638,828.6112923609238
1731653929.586874,854.1356890370422,804.5225365666694,805.9796018889433,853.7355529307863
1731653929.5894687,886.3703248216328,812.0237313128105,809.3834512791449,873.7959122472613
1731653929.5907736,885.1278562011347,816.6399761858047,810.7474647194149,875.4767101742126
1731653929.594673,850.678420615944,817.336288612987,809.3530027939643,859.2938291736067
1731653929.5985725,809.6561186438868,815.3231867854582,805.6677329007161,839.3679174286859
1731653929.5998182,793.8867244735285,813.1268103251077,801.2380242136618,832.0909796471624
1731653929.6020153,814.9833269546799,812.8994840735993,797.9024008581829,842.8571847125942
1731653929.602472,855.2900418218567,815.0938761598971,796.8844734469758,861.6199481433446
1731653929.6063714,882.28781099866,818.2626324194038,798.3692502602712,870.9833666384072
1731653929.608379,874.7442705663566,819.9838903710194,801.6612674134675,860.4600019587323
1731653929.610271,839.5369455931088,818.3099491182732,805.5838665742152,835.3198832838696
1731653929.6141706,805.4480864847548,812.9519912358762,808.8247490781708,812.4715100676808
1731653929.6176422,798.8519027422323,805.5923059002077,810.2423557889296,806.4029019965554
1731653929.61807,821.4333031367564,799.124480255178,809.249784977805,816.9407618507348
1731653929.6219697,848.8778315543562,796.1607740208767,806.171705470897,829.5758253129239
1731653929.625869,851.9116694707498,797.6249688063483,802.2521490564045,828.4040583696961
1731653929.6272893,821.8079313968365,802.3175511529403,799.1154017239866,810.4795774978932
1731653929.6297684,778.5126567941022,807.7606936202598,797.9003617394343,788.888881062194
1731653929.6332693,754.5070677011624,811.7057873358748,798.6141606881151,781.7189119059473
1731653929.633668,768.1631362496978,813.1945251165218,800.152283943361,796.437309855875
1731653929.6347704,808.8513275071928,812.5148990786836,800.9654010554282,823.0718124193728
1731653929.6375675,845.7205961194503,810.3924893234142,799.9137458245835,841.8181472246963
1731653929.6414669,852.1637293240295,807.339882594423,796.7971506256766,838.3338356817749
1731653929.6453664,825.3073732904941,803.7227612400557,792.36861500332,813.7843374739116
1731653929.6461997,785.0234696843918,800.237561791163,787.9899497045986,782.0024276944396
1731653929.6488962,755.4669699533213,798.0478231374215,785.1725849773107,757.821398138387
1731653929.649266,747.0895489498049,798.2220584009834,785.1098894656103,747.4758863482878
1731653929.653165,753.9008072891331,800.9074770358671,788.2320715912266,747.8455393446392
1731653929.657065,763.8317743669843,805.0381695954196,793.9331624371547,752.134823961501
1731653929.6609645,769.2069539939487,808.9345674763046,800.7185485163401,755.408948807319
1731653929.6645234,769.2996354176101,811.3306398555866,806.829661932955,756.3225618087657
1731653929.6648638,767.0088524503841,811.9912870803289,811.0159138624831,755.8182765865186
1731653929.6651096,765.0407749550789,811.5242141395215,812.9627201172507,755.202130752006
1731653929.6687634,764.3473187188456,810.7311021057216,813.1652514966821,755.1102465730861
1731653929.6697228,764.5379506932924,810.1024229836704,812.4642036827827,755.4900739475255
1731653929.6726627,764.8912127361236,809.7276235418742,811.6008962163316,756.0248483249187
1731653929.6765623,764.9948796894397,809.4806296454726,810.9841913481123,756.4818438933902
1731653929.6801505,764.8274449203922,809.2256423333831,810.6808899989302,756.8097867316301
1731653929.680462,764.548866074728,808.9088739119247,810.5585761081408,757.0674262388873
1731653929.6840198,764.2971921431928,808.5458260543691,810.4620378746943,757.3241139705736
1731653929.6843612,764.1148247698324,808.1722319259089,810.3136125129084,757.6104555112664
1731653929.6882608,763.9765843264828,807.8102326022868,810.1143723375523,757.9213138740761
1731653929.6921604,763.8440009984974,807.4623004324222,809.8975545939229,758.2394365133403
1731653929.6957774,763.6969563519084,807.1209066473289,809.6891345726551,758.5531834185589
1731653929.6960597,763.5358193250443,806.7789224510692,809.4956399049869,758.8606424812423
1731653929.6999593,763.3695655266596,806.4338387074257,809.3111368310934,759.1653223444814
1731653929.70293,763.2052953380994,806.0866928874492,809.1280427150767,759.4709163146642
1731653929.7038589,763.0449027437936,805.7393917949794,808.9428112016443,759.7789387065374
1731653929.704675,762.8868992059687,805.39301759709,808.755856044865,760.0890727553003
1731653929.7077582,762.7293137264945,805.0476147946699,808.569044476746,760.4004666455824
1731653929.7114043,762.5712433804705,804.7027467226362,808.3837115705821,760.7126272039364
1731653929.7116578,762.4128548026073,804.3580352776625,808.2001390418819,761.0255821325959
1731653929.715557,762.2547187395057,804.013356848134,808.0179890948866,761.3396263959065
1731653929.719457,762.097273761906,803.6687688505142,807.8368776622939,761.6550484460201
1731653929.72184,761.9406810687859,803.3243663748617,807.6566493664982,761.9720192286377
1731653929.7233562,761.7849389345031,802.9801965017136,807.4773524586483,762.2906209309307
1731653929.7270317,761.6300376225624,802.6362474729019,807.2991004525505,762.6109176954252
1731653929.7272558,761.476033658904,802.2924746365657,807.1219715106042,762.9329989028212
1731653929.7311552,761.3230397941006,801.9488300166281,806.945986927312,763.2569814736303
1731653929.7350547,761.1711817544023,801.6052875582815,806.7711370609958,763.5829920207876
1731653929.738954,761.0205691419422,801.261864960828,806.5974114537435,763.9111543583629
1731653929.7396274,760.8713006957942,800.9186277405829,806.4248119079035,764.241594949085
1731653929.7407503,760.7234966016786,800.5756450564747,806.2533500265519,764.5744605669942
1731653929.7426584,760.5773278102349,800.2328873198397,806.0830395923219,764.9099266620744
1731653929.7428536,760.4329998638295,799.8901294220399,805.9138915429314,765.2481714133168
1731653929.7467532,760.2906657216372,799.5470058345306,805.7459133509687,765.5893123100063
1731653929.7506526,760.1503073599123,799.2033407881128,805.5791108403585,765.9333515711681
1731653929.754552,760.0117176706881,798.859640746026,805.413489864323,766.2802224195996
1731653929.7582855,759.8747394359755,798.5172496119366,805.2490564206287,766.6300017016229
1731653929.7584517,759.7397524139776,798.1774935260189,805.0858152944046,766.9831990412112
1731653929.7596607,759.608028460681,797.8397175623039,804.9237686147403,767.3408028706464
1731653929.762351,759.4812634247685,797.4995980896321,804.7629164134524,767.7036936591898
1731653929.7662506,759.3598745909653,797.150549852178,804.6032605335832,768.0714378696167
1731653929.7701502,759.2409011894807,796.7902881157713,804.4448102130108,768.4413942758935
1731653929.773913,759.1180331508929,796.4298464165244,804.2875833189818,768.8098458734598
1731653929.7740495,758.9865490271218,796.0952026625715,804.1315957624255,769.176198574551
1731653929.7745795,758.852496563872,795.8093577007,803.9768389406951,769.5482108755625
1731653929.777949,758.7383978151092,795.555028887962,803.8232622029954,769.9420194314838
1731653929.778571,758.6725746711597,795.246601362416,803.6707925093777,770.3700196827954
1731653929.781849,758.6558838658424,794.7647779285213,803.5194120341387,770.818108621243
1731653929.785748,758.6242513809062,794.0879166636093,803.3692577640102,771.2312607516027
1731653929.7895396,758.4558980316389,793.4610445548487,803.2206274968847,771.5394619747485
1731653929.7896476,758.0720393722869,793.4180705615596,803.0737593836234,771.739845631355
1731653929.7935472,757.6086787938483,794.4758740546617,802.928405116328,771.9902096211085
1731653929.7974465,757.5040948343498,796.6180927566504,802.7835435046201,772.593145930764
1731653929.7974813,758.2630954039023,799.0762988260782,802.6378370569835,773.7489913861514
1731653929.801346,759.8122296074946,800.8085714272039,802.4911534587862,775.1308196397895
1731653929.8051667,760.8414992499827,801.3677585451495,802.3463527596728,775.6655538541738
1731653929.8052456,759.0741548274718,801.338724258824,802.2090945308491,774.1199486931639
1731653929.809145,753.3113381864401,801.8581953843653,802.0833181158564,770.7292175288798
1731653929.8095317,746.6577630260844,803.571438783176,801.9632245154714,768.9513414216061
1731653929.8130443,747.8800481751125,805.9136099258083,801.8287688824604,775.1710719143355
1731653929.8163912,766.9753374540817,807.3800901188812,801.6558539679926,794.6463130302045
1731653929.816944,805.4697560036118,806.6551869371154,801.4458487832754,825.5141543710555
1731653929.8207936,849.9614937515636,803.7365192035895,801.256975689685,856.6620378519384
1731653929.8208437,878.5275530737332,800.1359066331212,801.1938595687676,873.8773332225234
1731653929.824743,877.9099260393292,797.9445486577076,801.3132162834319,870.8794069386255
1731653929.8286424,856.2787305089162,798.4591487647017,801.4662584199123,855.501260196821
1731653929.832542,838.0316647097382,801.4067192273498,801.2067286195366,844.3214099775756
1731653929.8353014,843.4771126357773,805.2885500655326,799.9353598571239,849.3497784176441
1731653929.8364208,871.1048501688314,808.4624936130015,797.3008438523045,868.062255170558
1731653929.8364415,898.7371117261599,810.0866507622778,793.6346364694433,885.693709395949
1731653929.8403409,903.1876100024724,810.3185536359665,790.1197279053297,888.1465244233807
1731653929.8442404,881.3585475055952,809.8516151826244,788.4795173634453,874.4896638516345
1731653929.844484,854.0665791103964,809.3192888238356,790.1044418096047,858.1494797566669
1731653929.84814,848.7799998092916,808.9996043647806,794.88480950358,855.5466368361239
1731653929.852039,875.805326211251,808.867786857027,800.5720826099799,871.8112904122394
1731653929.8520477,918.3758648745081,808.7920889829421,803.5792938563451,895.8810696001976
1731653929.8542116,945.5474148752323,808.6796077382139,801.2103402290597,909.3941632473893
1731653929.855939,937.5960122458755,808.5129996826356,793.9080312933766,902.0533192985167
1731653929.8598385,902.7989673587675,808.3185010558033,785.579650113735,880.517331037112
1731653929.8637378,871.1926077625758,808.1247737417391,781.2646214403425,863.1661005148123
1731653929.8676374,869.9350831700207,807.9436427831796,783.6248770545377,864.9232435511391
1731653929.8676748,900.5517046332021,807.7723183804447,790.9886626237509,884.7471071679713
1731653929.871537,937.1553137827609,807.6034767983709,798.5956700614691,906.2366917414209
1731653929.873122,947.3736040687415,807.432424501721,802.0848753984819,910.891569493153
1731653929.8754363,918.8387489506468,807.2585335508201,800.4797091700448,893.1569926499786
1731653929.879336,869.5724929668629,807.0833181349617,796.501104637658,865.0394941501974
1731653929.8794365,833.8977022617206,806.9082692378564,794.2782466855843,846.6430125110206
1731653929.8832357,835.3751273779392,806.7339382511259,796.3983046036202,850.3438220145249
1731653929.8833015,868.5666832747145,806.5601301129515,802.373137086256,871.3608312413518
1731653929.8871348,904.1007903543173,806.3864530865311,809.271476088219,892.1895916458325
1731653929.8910344,912.6250994625111,806.2126788533475,813.7379661275666,897.0343189948189
1731653929.892032,888.0215957992416,806.0387961131936,813.9480099538209,884.2377786169517
1731653929.894934,851.0860098155828,805.864897751491,810.4119177453745,866.5291456517311
1731653929.8988333,831.1359360592705,805.6910646221475,805.4263653079367,859.2303637018769
1731653929.8989289,841.2568402410938,805.5173188804664,801.7185775274821,866.6925301165325
1731653929.9027328,867.8309436094667,805.3436388052579,801.0846873383998,878.5442136896601
1731653929.9066322,882.6306582653422,805.1699990887751,803.6333431322751,878.7880264849357
1731653929.9105318,866.8930619390255,804.9964067647247,807.8627072824534,859.8712956471234
1731653929.9109423,827.3360677766834,804.8229119695484,811.4411578773626,829.8682838126473
1731653929.914389,791.2490498278104,804.6495766202316,812.31511797891,806.8157775466988
1731653929.914431,784.852798109149,804.4764005619494,809.6515774181861,804.701163105517
1731653929.9145558,812.2174402940421,804.3032502399569,804.1805656826855,822.1730911300516
1731653929.918331,851.4364971006944,804.1298879531603,797.778079456863,842.9684600574519
1731653929.9222302,871.3309567762734,803.9561878802558,792.5394268566235,848.105930769583
1731653929.9261298,855.8084769551739,803.7824726632826,789.8731637041158,830.6662469301841
1731653929.9298525,816.5194459282958,803.609643246612,790.0612011954082,801.4802707460738
1731653929.9300292,783.323100330644,803.4386405999765,792.3671746137607,780.7670626157036
1731653929.9301827,779.964767269501,803.2691359586274,795.4836659086931,782.0161254474061
1731653929.9339287,804.789694806582,803.0983298257256,798.0865628177281,801.1092343692471
1731653929.9378283,832.4624585226419,802.9217495009843,799.3501418663521,819.7504076275512
1731653929.9417276,835.2736311783012,802.7375369367271,799.2635789062556,820.5053786292281
1731653929.9456272,806.3298523057779,802.5526246372208,798.5631583234414,801.054704060389
1731653929.9458098,765.5639694114412,802.3843291571837,798.2571749982814,776.0117854497959
1731653929.948763,743.8578647975152,802.2489756079558,799.0103500037281,765.0466776012883
1731653929.9493408,758.2485257823406,802.1369120215197,800.7761247076216,777.0802179248768
1731653929.9495268,798.0264839614371,801.992261209442,802.884107279184,803.111202456058
1731653929.953426,832.8545721630288,801.7333768889195,804.4896000062895,823.2093101320971
1731653929.9573257,836.7699254080212,801.3390249693956,805.1071068433987,822.1318171660919
1731653929.9612253,809.0186858144667,800.9645404381648,804.9232593476115,801.2305585652274
1731653929.961437,774.4814617620559,800.966080773582,804.6665079798709,777.0796584747663
1731653929.9651246,762.7378576350842,801.6979975277243,805.0288403932369,767.8569628871774
1731653929.9676728,782.9369398848361,803.1222710034292,805.9879139737064,778.6374618244199
1731653929.9690242,815.8197125703733,804.5620419341751,806.6175800513053,797.7659372630047
1731653929.9729238,829.9809060575936,804.9912969240071,805.732918243849,807.1904641651942
1731653929.976823,808.7379256914492,803.8245433732002,802.9989687757561,797.9078602482481
1731653929.977064,764.8830151338155,801.5993030528658,799.5503064934801,777.5507360130061
1731653929.980723,730.9374047998415,799.8874735201936,797.4087550905289,763.9789952215092
1731653929.9842932,733.0551542928989,800.3645417423467,797.9972556980213,770.4322482314122
1731653929.9846222,769.9586840941238,803.6578203597529,800.9367065525771,794.501437493443
1731653929.9865832,813.8309104175819,808.7890453168446,804.1986706505261,819.7619375247225
1731653929.9885216,832.3317037081989,813.6082882643167,805.5965783593481,828.6373767855713
1731653929.9924212,814.1269862723341,815.9358704631842,804.4585330336403,816.1839276193725
1731653929.992691,777.431794297732,814.6785191110739,802.1255986975189,793.7544739485905
1731653929.9963205,754.5099282571076,810.2635639180565,800.8602820160118,779.5083192665255
1731653930.00022,764.6963576743874,804.2554161910688,802.0623213574811,783.4130176576272
1731653930.0041196,798.3628879702305,798.563774578941,805.2524146719941,799.1403065057232
1731653930.0054934,825.3850022201136,794.7858537843478,808.5924598961026,809.7496106850175
1731653930.008019,820.9753534478878,793.8887776513556,810.3792897086482,802.5003760894281
1731653930.008318,786.9928812610744,796.0529699003832,810.1957143025978,780.3128740335898
1731653930.0119183,750.837941417756,800.5216361753563,808.8757673879118,760.1133109376958
1731653930.015818,743.0644994188826,805.6567733038354,807.5800157939467,759.2588106857048
1731653930.0192454,772.3867778223591,809.5175101003841,806.9378001092089,781.1441849947118
1731653930.0197177,818.4216622733227,810.8371486309404,806.8812499217835,811.771393288143
1731653930.023617,847.7288410170192,809.7279837379406,807.0238584863453,830.1624852292986
1731653930.023945,840.0290463289319,807.4966747149883,807.0684520560657,824.3639759175993
1731653930.0244036,803.6708730473018,805.6688234298834,806.9447356798195,800.3124827845704
1731653930.0275166,768.1864508738339,804.9932176144606,806.7264871909875,776.5218815337187
1731653930.031416,760.079047581389,805.1629254244092,806.504158256514,768.9610553507744
1731653930.0353155,781.494462329363,805.3383165376381,806.319116380858,778.5260030193765
1731653930.039215,809.2024574911289,804.9328309172006,806.1658611125373,791.4239341183128
1731653930.039572,814.6856378421172,804.0248541704897,806.0221997720794,791.9622700567172
1731653930.0431144,788.588564147448,803.1495347698379,805.8726274806356,776.6951546479445
1731653930.0433135,749.1473150526274,802.7238047985107,805.7141910955786,757.7706968747809
1731653930.047014,727.6203273114269,802.621091642882,805.5511647058034,752.624465949973
1731653930.0509136,742.7277348572942,802.2879383857344,805.3882444093272,768.76240201517
1731653930.0541978,784.9182941123045,801.3436417931084,805.22735923119,796.4618683124062
1731653930.054813,823.2005331816345,800.1361775237076,805.0680291495835,815.6866790380512
1731653930.0551991,829.2653739625222,799.6827743391307,804.9090241129439,811.9300396082648
1731653930.0587125,799.8812095091522,800.9502373097577,804.7495456645999,788.2979742263939
1731653930.062224,759.5688026098669,804.0830150594893,804.5894650293809,763.734193994004
1731653930.062612,740.8503718456288,808.2796332150438,804.429006823403,758.1459940527017
1731653930.0665114,757.5578445507442,812.3922999130391,804.2683920754351,776.0958688971026
1731653930.070411,793.1832528969255,815.619421587859,804.1076868926551,802.6410583573314
1731653930.0708263,814.5849414490386,817.6454972049453,803.9468343104128,815.3524942359275
1731653930.0743103,800.129128476063,818.2649772556639,803.7857452345716,802.8840799009754
1731653930.07821,758.6212212167037,817.1136027139349,803.6243579010049,774.5402543810881
1731653930.081134,722.8437152919345,813.9475759955293,803.4626459518838,752.7301645043391
1731653930.0821097,722.993166405268,809.1984691278357,803.3005982149903,754.661207567976
1731653930.0860088,762.066395135796,804.145257988091,803.138198407436,778.4812808871828
1731653930.0864532,813.2081934317621,800.4151939098037,802.975419182225,805.0106981620465
1731653930.08915,840.7804389565347,799.1791786434596,802.8122305138735,813.2561165145529
1731653930.0899084,828.005807152975,800.6186065193097,802.6486134188326,797.0164155234781
1731653930.093808,789.2939278536736,803.907760562155,802.4845653037703,769.4602208651481
1731653930.0977073,757.8198600672209,807.578759926935,802.3200842021175,752.365181392521
1731653930.1000445,758.6128185691331,810.06966411949,802.1551321223752,758.8594767035049
1731653930.1016068,788.9408947040688,810.3382984693752,801.9896047273727,783.4996095240148
1731653930.1020803,821.8043327795604,808.3722106630186,801.8233588723178,807.4187758813638
1731653930.1055064,829.3493821499895,805.2956040658753,801.6563332606222,813.997073476938
1731653930.1094058,806.50675269037,802.8557383809642,801.4887095864971,802.0845559603886
1731653930.113305,775.1008518932726,802.4540208976656,801.3209336478541,786.1365563038444
1731653930.117205,765.2240033302097,804.2919202042308,801.1533803451068,783.5730530809756
1731653930.1177073,789.6623503118847,807.2385326950126,800.9856774542762,800.001168723083
1731653930.118955,832.5651115446952,809.5783044264754,800.8162186721984,824.2833564679509
1731653930.1211042,861.474033144736,810.1607805449303,800.6428249486266,837.2225860095049
1731653930.1241024,852.94674494101,809.1383808483419,800.465116217541,826.8617306133988
1731653930.1250038,811.4142917813225,807.7404830154396,800.2874155849157,798.3662680043578
1731653930.1289034,766.2495751045501,807.2477501362661,800.118673427266,770.663233593137
1731653930.1328027,748.9848694703315,807.967188854606,799.9655775425628,762.2245021718088
1731653930.1333344,768.4978779936293,809.0200599806324,799.8198537419427,777.0101138075287
1731653930.1367023,804.2549509171389,809.0808647407436,799.6505961730315,801.7620705445091
1731653930.1378648,823.5855020220886,807.4274301534156,799.4197097543091,816.8986477652356
1731653930.140602,809.1306119707864,804.4890859343574,799.129477791973,812.1627561973794
1731653930.1445012,773.6356952637788,801.6006903571936,798.8781903358868,794.2418884275634
1731653930.1484008,749.4464461784377,800.2763424975617,798.861255344889,780.333426364534
1731653930.1489613,761.289751517431,801.4591597236991,799.2672254343946,783.3844189314843
1731653930.1523004,805.032835810145,805.0023658834158,800.1270199032784,801.4404081885147
1731653930.1561997,850.0167141281431,809.5377079833853,801.292593243754,819.6835239350785
1731653930.156775,862.9744675173673,812.9322931016724,802.6346756181065,823.0151102700507
1731653930.1590545,834.204771508439,813.3492891792819,804.2478031442851,808.5994938710567
1731653930.1600993,785.304976416953,810.4084084358357,806.3185837971457,788.1994848986594
1731653930.1639986,752.4956612094381,805.5923424265335,808.656605876938,778.5275407315664
1731653930.1645885,758.5293712259919,801.4208164776325,810.3886859293694,787.4342787441967
1731653930.1678982,795.1400000264887,799.8662071831905,810.325432777563,807.2013831304755
1731653930.1717978,830.086972090908,801.1690389368769,807.8744013567486,820.6935185620815
1731653930.1756852,833.5057494955347,803.9257235515016,803.7262910128491,815.641226763239
1731653930.175697,802.3605421812473,806.2748263982483,799.616798842873,795.2550858474516
1731653930.179597,762.7806269066632,807.159669524085,797.2597457751311,775.993128084207
1731653930.1802154,748.1511750680012,806.7432577366078,797.2846749120749,773.9608125764701
1731653930.1834962,771.224414680089,805.9044568752666,798.9918824927846,791.197006228811
1731653930.1873956,813.5921925920929,805.4729260457207,801.0250375342945,813.4302133320313
1731653930.1912951,841.0657732332671,805.8309499426762,802.3319203678761,821.3602341730425
1731653930.1940067,831.7296695829774,806.9380998295027,802.6626343741469,806.2888189525872
1731653930.194595,793.3096837175304,808.4411266452634,802.383423714339,777.3885091573899
1731653930.1951947,755.9784161811227,809.6924287620387,801.9803609543301,754.704567396693
1731653930.1958425,747.1463442248277,809.8682128350408,801.7221341391863,753.4015866230884
1731653930.199094,769.2638269104508,808.3813098392493,801.6274239248144,771.7994787081708
1731653930.2029936,798.8437714084604,805.3732882347664,801.5994522827486,792.930589799773
1731653930.2068932,807.2531943551244,801.791211145523,801.5534732186479,798.6087089003577
1731653930.2107923,785.5757257174727,798.8497619336039,801.4632462033568,784.5994012091757
1731653930.2114694,752.2860881489827,797.2835057522784,801.3441933878271,764.168540610324
1731653930.2135055,737.105569465706,797.0133268025924,801.22004308867,756.8116515734681
1731653930.214692,754.9462150677956,797.427579150499,801.1032750953523,771.5848072006994
1731653930.2185917,792.4024486423633,797.9155306646602,800.9937354425359,799.1792864349409
1731653930.222491,818.3543436704542,798.1892919452021,800.8859324548923,819.4273536504127
1731653930.2263906,809.6293441154183,798.2642181307964,800.7755073800106,817.7883916962793
1731653930.2270966,770.247646967059,798.2725698991092,800.6613078641923,796.9676272444298
1731653930.228959,728.6406195236652,798.312966386275,800.5442761572242,774.2829026769385
1731653930.2302902,715.5000616141036,798.4075395876688,800.425663060059,767.4207591592015
1731653930.232416,740.1416521539345,798.5315840825729,800.3060680244057,780.4965429085403
1731653930.2341895,783.878291702335,798.6556560433723,800.1854338439313,801.5988919743327
1731653930.238089,815.3118952441044,798.766658357376,800.0634545264979,813.4212398154175
1731653930.241989,815.3014980024261,798.8666992983725,799.9399057630233,807.9850264274779
1731653930.2427237,791.6373720514621,798.9631045430411,799.8147364029821,793.1799403411014
1731653930.245888,771.485602710342,799.0608654455272,799.6880018268097,785.6054100459996
1731653930.2497876,777.746791755857,799.1608523701276,799.5597725516644,795.7124824538369
1731653930.251326,809.037992410271,799.2616221306677,799.4300880829579,817.9432085796284
1731653930.253687,840.3195630648036,799.3616408420182,799.2989531499456,834.5268374132346
1731653930.2575865,844.0040999574553,799.4602964057808,799.1663462932604,830.0526967797729
1731653930.2583506,814.0574637603145,799.5577581554156,799.0322267306997,804.7440179698198
1731653930.261486,772.7801466208392,799.6544287460139,798.896552195015,775.3295272509482
1731653930.2639112,754.0588226390244,799.7505632898536,798.7593241860666,762.6023368156423
1731653930.2653854,776.2690936659402,799.8461982684497,798.620642886436,775.5626703872223
1731653930.269285,826.8234864383444,799.941257783393,798.4807021620577,804.6981945953431
1731653930.2702365,871.3346114964511,800.035669421619,798.3396453540264,829.6009089882955
1731653930.2731843,880.5410151274364,800.1294119805956,798.1973022306256,834.8039576717891
1731653930.2739775,853.3893976415765,800.2225048362011,798.0530311831232,821.3297181550953
1731653930.277084,817.2835842367815,800.314979993438,797.9060371128577,804.9113634367912
1731653930.2809834,805.0448698221112,800.4068645158776,797.7563353561463,802.5114478237076
1731653930.284883,827.594320508011,800.4981764556132,797.6058179120037,818.1876000598331
1731653930.2887824,865.1270137213648,800.5889246644862,797.4580074907203,839.8125426487618
1731653930.2891464,883.9948005196024,800.6791065415324,797.3151157954879,849.1459128720622
1731653930.289605,864.9711538247287,800.7687094767415,797.1731058762916,836.8292833005925
1731653930.292682,819.4830393363968,800.8577278848114,797.019287915924,810.1404426018997
1731653930.2965815,780.8407022763148,800.9461968166893,796.8393018455957,787.509207022658
1731653930.2988636,777.9223518476787,801.0342154492317,796.6357810136433,784.3673419033975
1731653930.3004808,812.4245436909422,801.1219108330635,796.4470388278712,801.4509988336135
1731653930.3043804,857.5119784949076,801.2093136230737,796.3385760272757,824.5322521481523
1731653930.3052316,878.7709442817988,801.2962091676306,796.3434903791142,835.6922918823564
1731653930.3080566,861.021739284906,801.3821480592256,796.3699872553339,827.3473139550352
1731653930.30828,819.9466069857002,801.4668128109608,796.1648167393816,807.9736569054445
1731653930.312179,789.2385218088277,801.5506802684407,795.453874257362,794.8304123934744
1731653930.316079,793.3228871500969,801.6354090863227,794.2718143167325,799.4173909692703
1731653930.3199785,827.5470044445632,801.7230241367419,793.231706468429,817.6637500127912
1731653930.3208587,862.0591062672916,801.8134873912192,793.3396263607945,833.2808723048234
1731653930.3238778,866.34578229084,801.9020458367213,795.2843872291913,831.7191578046975
1731653930.326967,834.3172048889103,801.9799153739318,798.7530859739126,812.9807458431259
1731653930.3277774,789.3612071853447,802.041729980372,802.483865882699,792.2821343004123
1731653930.3316767,765.3366065239109,802.0978960293071,805.1146968815758,787.739401268048
1731653930.3338158,779.1596798851704,802.1803818061069,806.0771649528929,805.1756857159846
1731653930.3355763,817.3322229071504,802.3247640432099,805.7315781759668,832.6716985801726
1731653930.3364856,847.2781538664715,802.5229697101666,804.72198187136,849.6023108660002
1731653930.339476,844.1302578656605,802.6760315863683,803.301963885613,843.0605724980553
1731653930.3433752,810.9576771614335,802.6139961900661,801.3255480292052,818.3165099115915
1731653930.3458772,775.7312635219145,802.2383292102155,798.8105056810743,794.5218622922174
1731653930.3472748,767.5774690888309,801.7346250221591,796.3473012930787,788.9147526507913
1731653930.3511744,792.280730889374,801.6538604868539,794.8313710564024,802.5643248092945
1731653930.3521128,827.687384691686,802.65981689934,794.7823427038895,819.7521159259281
1731653930.3550737,842.7144860478335,805.0191047912055,795.9844207003973,821.7012512930944
1731653930.3589733,823.5969538299314,808.2517823884681,797.8146787804101,803.0593283809121
1731653930.3628728,785.2144695017811,811.3272024746361,799.8543874879571,777.0668429707134
1731653930.364787,758.4801460017851,813.292309785445,802.0812917646724,764.9521081127011
1731653930.3667722,764.8969171393471,813.7643382201829,804.4425550707175,778.3881987784142
1731653930.3677397,799.3330242565604,812.8566827310793,806.3466440642552,809.4787789213249
1731653930.3687682,834.5219838340658,810.7253530019136,806.7808795449391,836.3907017686668
1731653930.3706715,843.0520453555297,807.3324494129117,805.1483699276249,840.0989885350466
1731653930.374571,818.9835974792039,802.7533026676005,802.1071116316872,818.936917895219
1731653930.378471,781.8675498975495,797.7026513349504,799.512410924666,789.457034032902
1731653930.3823702,760.153895440993,793.6347030691568,799.2848313294468,773.0714578203351
1731653930.3833668,767.7771899257054,792.1215073169795,802.0285215136639,779.4287766019008
1731653930.3836975,793.4301987641769,793.8822168198858,806.5302094727211,800.0416324685679
1731653930.3862698,811.437121674763,798.1961287579302,810.5407110720033,816.9550582883008
1731653930.3901691,804.784593214711,803.1856608905791,812.1781506219783,818.586425341068
1731653930.3940687,780.4660493359721,806.8244757424403,810.9029528812322,809.148010258107
1731653930.3979683,763.8999221195112,808.0034035600962,807.556233078933,804.0198084432039
1731653930.398994,777.03845670608,806.9546905272972,803.7443969225626,815.575196237499
1731653930.4018676,818.5112514109323,804.8107173838182,801.117611565385,841.7347675705144
1731653930.4026077,862.4249290883249,802.6980443743909,800.7971459529585,866.7602180535697
1731653930.4037204,877.3138235733479,801.06449877996,802.9433878376956,873.5098467836649
1731653930.4057672,850.6675206117994,799.684159106979,806.5786667785777,857.2113719295775
1731653930.4096668,799.7116643344668,798.2061011173005,809.9550484656287,829.6798240267667
1731653930.413566,759.2374073745667,796.698074019208,811.4878231507357,810.3754216228823
1731653930.4146209,755.1325744059822,795.7187585507507,810.689668786386,811.1517581994327
1731653930.4174657,784.3471456499161,795.9084178661782,808.3520404137014,826.9397778777059
1731653930.421365,817.8496252573108,797.4743434674858,805.8087176134677,840.1825575206443
1731653930.4215178,824.747925168495,799.9581698399116,803.9364964732239,835.5970011259515
1731653930.4252646,797.9671369253917,802.4084999709252,802.7262192546195,813.0896733842743
1731653930.4291642,760.1847911450618,803.8392054388621,801.6415274821228,788.111591082789
1731653930.430248,745.0695349291169,803.749977838488,800.2810134323339,779.2675214670744
1731653930.4330635,769.369103621488,802.4448919073499,798.7507274474398,793.4559526177795
1731653930.436963,818.6887899469727,800.9058471287393,797.5735135281406,820.437016533197
1731653930.4386728,858.2885268298955,800.1929672450808,797.3612629690945,840.7543131484803
1731653930.4404285,860.0567483055563,800.7327302117056,798.5235067117603,840.4508190080168
1731653930.440863,824.2653769282847,802.0743182383032,801.1051706146276,821.1895185823375
1731653930.444762,779.0349063531687,803.3930870651478,804.7132073844894,798.2495797004589
1731653930.4458747,757.9261236198832,804.3324527554915,808.5150473138171,788.1528864181689
1731653930.4486616,773.4504137449494,805.3615168666838,811.385782211879,795.6442403399624
1731653930.4525611,807.9396441379369,807.2261041389644,812.2910139900716,810.414484425939
1731653930.4564605,829.3763210302161,810.0011897624328,810.8227596219743,816.2879873906754
1731653930.4593384,818.9921753941286,812.748364004652,807.5509634203231,805.2834296249325
1731653930.46036,787.2783366997165,814.2321440008608,803.8159572337805,784.684584337406
1731653930.461502,764.8347103555114,814.0616945216967,800.978178177986,771.0872041206844
1731653930.4642596,776.0157499468108,813.1317353639771,799.6690208843848,776.4668829777019
1731653930.468159,817.8269879692018,812.8688073467813,799.6296371219086,797.9949165126962
1731653930.4720583,861.6614374113202,813.9267751942942,800.1592636088525,819.9885416041504
1731653930.4736247,876.0664566992122,815.5173588724489,800.6760187626244,826.2462047903161
1731653930.475958,851.6367976229636,816.0116991460391,800.962438103769,812.7585416093842
1731653930.477129,808.0669684796127,814.3332781759424,801.0772435523824,790.7982957353198
1731653930.4782486,778.1477551425711,810.9793120075686,801.1558793836459,778.0592460308884
1731653930.4798574,781.7233807697422,807.8193335243124,801.2804243183588,784.6984273238005
1731653930.483757,810.3879968541208,806.8153664899867,801.4581862435293,805.1449665301027
1731653930.4876566,835.242636793673,808.6448216041517,801.659599378711,822.3774991775686
1731653930.491556,831.5267248051149,812.2408364426984,801.8576759743235,821.6756039773079
1731653930.492756,799.7849114969596,815.5354821009234,802.0433923769443,802.86332325901
1731653930.4954555,765.6132161655648,816.8137478536254,802.2210903831063,780.7368576984978
1731653930.4971588,757.9125297022864,815.7071432639685,802.3981532798931,772.9695779573578
1731653930.4993548,783.9941871248245,813.1801060555745,802.5786688835242,785.4567487163836
1731653930.5032544,822.6958892599259,810.6042350959669,802.7627648825761,807.3980125931425
1731653930.507154,841.3764328044722,808.6660605177858,802.9487972761062,820.2233503580084
1731653930.508383,822.6101852928715,806.97323076828,803.1353976721646,812.8500845861163
1731653930.508577,778.5813328451638,804.6767904445642,803.3221807268549,790.6217975787036
1731653930.511053,741.5774494008024,801.5636952655334,803.5094336580332,770.7111625690185
1731653930.514953,738.452826444043,798.6091972893595,803.6975621362361,767.963723803393
1731653930.5160687,769.6648150488204,797.4112567949054,803.8867774671518,782.8880381933059
1731653930.5188525,809.6746039705165,798.9466204692476,804.0770827536354,801.6522895296422
1731653930.5227518,828.3122478069079,802.730999506695,804.2683963615003,808.0856543120882
1731653930.5240102,815.6287161065419,807.0836572020553,804.4606579820467,797.6719403925741
1731653930.5266514,789.6439439060175,810.1848740760205,804.6538619575617,781.5952454601211
1731653930.530551,780.4131728481392,811.0033417170345,804.8480387339638,777.069366655661
1731653930.5344503,803.7581204521047,809.494956233142,805.0432236495617,791.9601315138119
1731653930.534979,846.8456016697537,806.2546076756827,805.2394356230542,816.9489506151363
1731653930.53835,877.7753195328955,802.1798385345907,805.4366701793668,832.3105526142547
1731653930.539637,871.226664679873,798.3950686781245,805.6349066213786,823.9686572996317
1731653930.5422494,829.2034888053234,796.1759246149505,805.8341311187754,795.5643696617346
1731653930.5435295,780.2807513956515,796.5340549087766,806.0343705983373,766.4633653567672
1731653930.5461488,758.0526831576439,799.5573132769376,806.2357112315717,757.053818302994
1731653930.5500484,775.6846568141237,804.0426001230004,806.4382580978273,772.955934728869
1731653930.5538895,816.3719885181165,807.8899891865087,806.64201600985,800.7587108764884
1731653930.553948,847.1785761352423,809.1674395588442,806.8467580055778,818.8441157063469
1731653930.5552642,845.4446842925515,807.2095662053591,807.0520548545377,814.762839349217
1731653930.5578473,816.7130470766026,803.0335238239919,807.2576360346596,795.1039733166372
1731653930.5617468,789.4603189245867,798.7720947104393,807.4639975720631,779.6564574932523
1731653930.5656464,790.6417799076204,796.4485792302063,807.6727010381844,784.5630390708399
1731653930.5695455,822.2345270905131,796.87456071632,807.8855194395661,808.4855984336358
1731653930.5708911,858.6420992855392,799.407885345562,808.1021415554571,833.3957094249247
1731653930.5727997,867.5802083831514,802.6814022418498,808.3178583263915,839.3267561082098
1731653930.573445,837.2905191474782,805.6268833271309,808.5245669467976,820.7985526491985
1731653930.577345,787.421680119011,807.9053695645208,808.7180224809631,791.4445338488094
1731653930.578482,754.2690686682245,809.5022510661576,808.9090472786934,773.2581292444063
1731653930.5812442,762.1325036672974,810.1290563512996,809.1275435009951,779.3589704608065
1731653930.5851438,804.0375298692647,809.2402050166904,809.4035909560787,804.1504269148967
1731653930.5865183,847.5583120398387,806.7242591979735,809.7216714887157,828.474289824289
1731653930.5890431,860.9994403726354,803.4972496245704,809.975716903242,835.1644561966403
1731653930.59171,838.4736093131012,801.2391940357196,809.9815807598941,822.1879030901474
1731653930.5929427,803.3415149022793,801.3600689759268,809.5747118341018,802.9078253804005
1731653930.5968423,787.4922630240485,804.0578806411153,808.7130809960119,793.8320919155857
1731653930.6007416,804.0960888576307,808.2597739158876,807.4523512273693,800.4981483463031
1731653930.6021452,836.7240585770124,812.4384616875509,805.8169214565354,813.3508224129391
1731653930.6046412,853.6320856943911,815.5713035867017,803.7772445644409,816.7172140152776
1731653930.6085408,834.7825354115885,817.4903792418775,801.4252693733115,802.8719391640502
1731653930.61062,788.9705206540698,818.4792928179445,799.130341569578,779.1686145904558
1731653930.61244,747.2594859656704,818.6204813953364,797.4082620013135,762.3542313081549
