timestamps,eeg_1,eeg_2,eeg_3,eeg_4
1731015493.1896892,808.1811401777405,808.6150775833689,805.9517026159359,805.3501015914923
1731015493.19406,807.3961803589215,807.6713075338063,802.933989515944,803.1064965140976
1731015493.1957414,809.2632638905615,806.4012213977554,800.2250742690247,802.5729957795712
1731015493.1979702,814.6279417762076,805.0574704178904,798.3396794585899,804.2326732776702
1731015493.20188,821.8383039192616,804.4610558619231,797.8201945383925,806.8947959831604
1731015493.205333,827.6582404039059,805.374046685783,798.7938756419827,808.3995791922972
1731015493.20579,829.2722410480951,807.8202685170003,800.7579822107481,807.0972370806606
1731015493.2097,826.0670072996149,810.9646150048907,802.8625699268554,803.0652185654162
1731015493.21361,819.9542601529514,813.6409338086481,804.4183905216355,798.0966554519708
1731015493.2146292,814.0814760965001,815.0678162568048,805.1634178548663,794.4465726154222
1731015493.2175198,811.016925033,815.2165206419663,805.1708993297009,793.3805041102619
1731015493.2209773,811.7389852420519,814.662181080727,804.6773351156759,794.6814832231008
1731015493.2214298,815.8106108639847,814.1370248716294,804.0568351568234,797.3061500179297
1731015493.2253397,822.0407171566442,814.1161828743406,803.8163422294042,800.3505644068221
1731015493.2292497,828.8416928625642,814.6443599703459,804.36693562107,803.4152609590357
1731015493.2331595,834.2860359023392,815.4309964646947,805.6284235286231,806.2705251091182
1731015493.2335172,836.4551004343498,816.1021912065289,806.8643710978637,808.4526204809322
1731015493.236621,834.3316959666059,816.4338091023694,807.0597521067093,809.3601933597893
1731015493.2370696,828.6510053462532,816.4294432947312,805.6564728538143,808.7757144614418
1731015493.2409794,821.8117475529046,816.2302371336838,803.0447567422897,807.2344023618709
1731015493.2448895,816.6099196613663,815.9591561747527,800.3347248889627,805.7666080747135
1731015493.248799,814.5956973480382,815.6275692978306,798.545512290153,805.1196098095493
1731015493.252265,815.2608156954567,815.1697214746672,797.8855599269834,805.1018827115591
1731015493.2524047,816.6381976682287,814.5739353948271,797.7331983708076,804.6943676158478
1731015493.2527094,816.8043822052673,813.9930195670419,797.3093843968326,802.9567010882452
1731015493.2566192,815.1431263604431,813.6926570814887,796.4306401405552,799.9948633009926
1731015493.2605293,812.4991360433366,813.8001011294007,795.6679394091888,797.0689513186694
1731015493.264439,810.2328231789772,814.022869848167,795.7559239950033,795.6076213438058
1731015493.2679088,808.996442529064,813.635661680216,796.7636813618567,795.9215887551482
1731015493.2683492,808.2071673954632,811.8900455386613,797.7979698876743,796.7880683260082
1731015493.2712927,806.5934635398713,808.6372296128602,797.6041607197841,796.3606005321813
1731015493.272259,803.3211762930586,804.6897757762183,795.6512259024436,793.6738344899412
1731015493.2761693,798.7812870043089,801.5688213430284,792.8041287015817,789.4844874402797
1731015493.280079,794.4644735739473,800.7286452003558,790.9627818894072,785.7920431820095
1731015493.283553,792.0904114694733,802.7496775356313,791.8670930070415,784.4931397963175
1731015493.283989,792.6392902847582,807.0129785735359,795.9230072358381,786.2244885309582
1731015493.2878988,795.853793719364,812.0204210234747,801.8664898890833,790.1345002406327
1731015493.2901807,800.3934307283389,816.1127960805371,807.4545004290756,794.5437037971775
1731015493.2918088,804.4995416806327,818.1678201694814,810.6954044003128,797.9145801955701
1731015493.295719,806.8572370322562,817.9763144687624,810.8601104990635,799.5538902951591
1731015493.2991967,807.243274857708,816.2087548316445,808.7234375612609,799.8031731208015
1731015493.2996287,806.586846561145,814.0278392575144,805.9644356237458,799.7655222766662
1731015493.3035388,806.3692142339931,812.4985285266011,804.1318882245406,800.7153189453438
1731015493.3074486,807.7181429019611,812.0717608449349,803.8200835973215,803.3724867675118
1731015493.309069,810.7522298684046,812.468856331031,804.5473757609018,807.343261767893
1731015493.3113587,814.525918141885,813.0735165352061,805.3404143762768,811.121024265665
1731015493.3148408,817.5373093447577,813.5152953271431,805.5291763425384,812.8214360625087
1731015493.3152685,818.4980744520224,813.9132274449995,805.1493801264259,811.2843458379397
1731015493.3191786,817.0060554072833,814.5481907200179,804.7249674280696,806.7764789901697
1731015493.3230884,813.8227745792143,815.3121280424587,804.726785508812,800.7729215699013
1731015493.3269985,810.603570417309,815.5445444477951,805.209345569818,795.0508667590863
1731015493.3279564,809.1605314916018,814.5001221384863,805.873863469198,790.8540476430254
1731015493.3304846,810.5854212436207,812.0403020578796,806.3940196960175,788.6615229342405
1731015493.3309083,814.684626037325,808.8705309417005,806.6720812166409,788.4463577119512
1731015493.3348184,820.0712215186379,806.0502617673832,806.8517132018617,789.9728912592992
1731015493.3387282,824.9098672199007,804.1988325501959,807.1508653523958,792.894394249857
1731015493.3426385,827.879113712845,803.1188993684208,807.6629325543336,796.7541472247923
1731015493.3461285,828.7205050361426,802.1595032249306,808.2324875272748,801.0453924769073
1731015493.346548,828.0136560030643,800.9349344534637,808.4776569953746,805.3188692221148
1731015493.3468444,826.4013300487806,799.6965137857572,808.0048427236591,809.2407544983214
1731015493.350458,823.918584800185,799.0244196671141,806.7480708797503,812.5780146112552
1731015493.354368,819.9858927508898,799.1854949345416,805.2006235663753,815.1705775195805
1731015493.358278,814.0780964482501,799.8171612721195,804.284690248438,816.9412138376325
1731015493.3617723,806.5176490988181,800.2480503689911,804.8350083803824,817.9391842188007
1731015493.362188,798.7036499739172,800.1191515448977,807.0014229546556,818.3648872944875
1731015493.3657322,792.4945309993712,799.6856425941551,810.0128391284293,818.4911081282622
1731015493.366098,789.1256109806098,799.5357889773297,812.5409686260394,818.4354150365749
1731015493.3700078,788.4634689436896,800.061846205297,813.4839452222697,817.9035342723195
1731015493.3739178,789.2111775515889,801.2162536782197,812.6644115930991,816.1918257693345
1731015493.3774164,789.9565873030878,802.7052298407136,810.95879884704,812.6325956091603
1731015493.3778276,790.2397449581749,804.2876864613819,809.7486942250208,807.2365101074446
1731015493.3817377,790.7350738203477,805.8200941424438,810.0520389922174,800.9521238033532
1731015493.3846202,792.3654518449847,807.0889245187656,811.9174573594152,795.213699502462
1731015493.3856475,795.1384232922977,807.7521673560268,814.4791879349182,791.1398340370921
1731015493.3895576,797.8315946208396,807.5276698968661,816.5896175188697,789.1005981288704
1731015493.3930604,798.9380975513482,806.408050355345,817.5249964526108,788.9201581113709
1731015493.3934677,798.08339358086,804.6394780633686,817.252010117895,790.2544755657889
1731015493.3973775,796.5755658028116,802.5052954451783,816.1713328367623,792.5988620125901
1731015493.4012876,796.4493932675566,800.1869910066567,814.7111281496675,795.0402559136127
1731015493.403508,798.7173452467298,797.8555131571412,813.1741283723624,796.385945178398
1731015493.4051974,802.3154407535764,795.8566526507332,811.8615292114251,795.9357445898099
1731015493.4087043,804.7233601404733,794.7383745397854,811.1746799993838,794.2954782047068
1731015493.4091074,803.8658963515315,795.0166854756487,811.4799261269816,793.3067395225484
1731015493.4130173,799.8030962308256,796.8093597189265,812.8462497742893,794.8628109404057
1731015493.416927,794.818257331006,799.5908479267042,814.9198827766566,799.4423680439997
1731015493.4208372,791.7885255521921,802.2825639850662,817.0525099415154,805.5614966598109
1731015493.422396,792.1346183142457,803.7242448312553,818.5826184150648,810.6430569554892
1731015493.4243484,794.9717528577129,803.3348936248666,819.1108132415484,812.6620870944512
1731015493.4247472,798.0355707690146,801.5793372049903,818.6696518418734,811.3330371986282
1731015493.4286573,799.4863976535886,799.8717233116221,817.721745965556,808.0138847235121
1731015493.4325671,799.0910899567347,799.8504253192699,816.9383315315578,804.5300382339889
1731015493.4364767,797.977241772902,802.3970605172038,816.8223052516107,801.9339363707606
1731015493.4399922,797.4200609277176,807.0130949253091,817.3980288581707,800.1805042203181
1731015493.440387,797.8248355820721,811.9834981387979,818.1968114584298,798.8511951180859
1731015493.441077,798.6926168348618,815.2616659220784,818.5564528350495,798.11664359181
1731015493.4412837,799.3759697023495,815.5611532684507,818.0193930589638,798.9299027151878
1731015493.4442968,799.7771221155871,813.0227220956975,816.576729947396,802.1872483720956
1731015493.448207,800.3414999356639,809.0761641865894,814.6544754930123,807.5972515799174
1731015493.4521167,801.4736791320157,805.5859671595521,812.8965475798848,813.3202002731676
1731015493.455636,803.081635044334,803.8143601856231,811.8639397636007,816.7970037908788
1731015493.4560268,804.7855327760022,803.8674861642611,811.7807046479445,816.2076584051968
1731015493.4599366,806.5730896598421,804.9485378444762,812.4484489495308,811.5508395925171
1731015493.4601717,809.1097575846809,806.1257060709896,813.3755362089539,804.6878092331184
1731015493.4638467,813.1718213431774,806.9453647114881,814.0257366742832,798.4073630455598
1731015493.4677565,818.5941807497325,807.4462339524792,814.0151829887583,795.0825524976105
1731015493.47128,823.7822241673273,807.746466890787,813.1783485283686,795.6059148343222
1731015493.4716666,826.4643251924947,807.7539362001903,811.5768411380923,799.1027077646021
1731015493.4755764,825.2301362317306,807.3111894036674,809.5399419145888,803.5443126227087
1731015493.4758458,820.6141872814733,806.533643600949,807.6872981969459,806.9249122311787
1731015493.4790597,814.8342222617816,805.8739241476346,806.7913846895357,808.3439139662348
1731015493.4794865,810.4295673715762,805.7857724828608,807.4408785896595,808.3873455678649
1731015493.4833963,808.8832587398911,806.3454373938868,809.6730639670277,808.617865651746
1731015493.486924,810.1539239835996,807.2451527486699,812.8328947102598,810.4938548302445
1731015493.4873064,813.1782932748395,808.1409111379777,815.7905142389674,814.3525472152313
1731015493.4912164,816.6928057887169,808.9246610702561,817.4178903605862,819.0731608614941
1731015493.4951262,819.7286509077552,809.5933991310296,817.0714820379466,822.6707390307686
1731015493.4979477,821.6701500468513,809.9049627192171,814.8415023646085,823.4865030349608
1731015493.4990363,822.1890307381971,809.333435237224,811.4693270355327,821.1914325850566
1731015493.502568,821.2853895429272,807.5384414707621,808.001861267832,816.9146431348265
1731015493.502946,819.3204256734109,804.9280402705034,805.3618401825094,812.4582728655705
1731015493.5068562,816.8358415043942,802.6484982714699,804.0344819036404,809.2341719790631
1731015493.5106144,814.2449385596282,801.8252119397869,804.0066861974066,807.6683935656539
1731015493.510766,811.7232961524486,802.6516169733288,804.9561944805334,807.3346896809209
1731015493.514676,809.4240471169074,804.1733749199227,806.5205680709731,807.5093741835631
1731015493.5168352,807.6980554990051,805.0416028925881,808.4046213292661,807.6603016472723
1731015493.5182118,806.9081652374753,804.6351411493208,810.23856002571,807.6076991981579
1731015493.518586,806.912654754834,803.6009732141877,811.407541491122,807.4128010226892
1731015493.522496,806.8436879322296,803.3542722692,811.2110524963466,807.194771979065
1731015493.5264058,805.6968937823073,804.9557059581936,809.4125541601029,807.0208193438281
1731015493.530316,803.4127182190839,808.2680606730203,806.7180865358505,806.8930498421532
1731015493.533856,801.3962838080739,812.0084951124031,804.57607427841,806.7840253537054
1731015493.5342257,801.7065848487,814.5729864235428,804.2293784565743,806.670677559838
1731015493.5357232,805.3683041686099,814.9740105437525,805.7176767128724,806.5462103574106
1731015493.5381358,811.2497440548219,813.2836458596418,807.7178756645432,806.4150662050149
1731015493.5420456,816.6237594512489,810.4419444820653,808.4578803590829,806.2837458918907
1731015493.5453832,819.0838134086989,807.7149645296008,807.0279301055871,806.1555781385207
1731015493.5459557,818.2592372492264,806.1696242619448,804.0722310553728,806.0304537536423
1731015493.5494998,815.9096038812171,806.338796717592,801.3476214723614,805.9068593417809
1731015493.5498655,814.3536695216706,808.0609427325122,800.5181980586573,805.7836285211706
1731015493.5537755,814.5767247076978,810.4810534490615,802.0884031581702,805.6604774583902
1731015493.554611,815.5623659784619,812.2990304304462,805.1924538329567,805.5376833099183
1731015493.5576854,815.2812464695198,812.305722123774,808.2750674537778,805.4155953188191
1731015493.5615954,812.3724779578237,810.0041502242237,810.0801109301019,805.294379565558
1731015493.5651438,807.1176372597217,805.9322999082291,810.2548934712105,805.1740235101664
1731015493.5655053,801.1186826715762,801.4428066311162,809.2811524042007,805.0544488934241
1731015493.569415,796.2436537380098,798.0629208015179,807.9633069510419,804.9356000941107
1731015493.5733252,793.7914055651083,796.8150601089723,806.921458395062,804.8174667456707
1731015493.573499,794.2754350026652,797.8382029253551,806.3758969383515,804.7000653418627
1731015493.5772352,797.5267100551548,800.4310701194828,806.2234687998354,804.5834172550668
1731015493.580152,802.7263836538818,803.4359744510796,806.2418863140499,804.4675405203288
1731015493.5807877,808.4245556279214,805.7690152129811,806.2589408507711,804.3524496982624
1731015493.5811453,812.8871072468486,806.8646225100587,806.2119984127213,804.2381500798617
1731015493.585055,814.8104214449718,806.842657948567,806.1173003897828,804.1246227416682
1731015493.5889652,813.9101213590151,806.3342390525308,806.0124493158856,804.0118170939038
1731015493.5923867,810.8423402269582,806.0779440170512,805.91995481017,803.8996792772759
1731015493.592875,806.5309207499088,806.5242884292829,805.8415201234467,803.7882257635919
1731015493.5964315,801.5859348969475,807.6702031487706,805.7687576165256,803.6776143612421
1731015493.5967853,796.36009832576,809.182293365251,805.6941553228563,803.5681040269893
1731015493.600695,791.4212590526294,810.6724016516958,805.6152617648276,803.4598131847285
1731015493.604605,787.7224282225624,811.9112137031024,805.5333288468993,803.3523604538216
1731015493.6085148,786.1174139780944,812.856112114657,805.4504167105489,803.2447544881956
1731015493.6112745,786.6599696287036,813.5360158902663,805.3676452050548,803.1360239218932
1731015493.6120756,788.4221475384413,813.9349032840713,805.285030337163,803.0266535898367
1731015493.6124249,790.0685814987834,813.9777916856548,805.2021040615006,802.919808661732
1731015493.6149206,790.7037611567953,813.6009398218059,805.1184834733816,802.8202855937852
1731015493.616335,790.297229351709,812.8049299636178,805.0340625666555,802.7296989353613
1731015493.6202447,789.426946920451,811.6272956445209,804.948921874099,802.6399062373519
1731015493.6241546,788.6938641519167,810.0823638892653,804.8631732403691,802.5318877336479
1731015493.6277194,788.3756637882794,808.1614181061265,804.7768737407644,802.3889321056829
1731015493.6280646,788.5278009215108,805.9061815167732,804.6900233309464,802.2238969945788
1731015493.6301625,789.1940238202121,803.4740747965293,804.6026002922699,802.099460954065
1731015493.6319745,790.2808385051311,801.1370956228963,804.5145908885276,802.1022434730868
1731015493.6358843,791.1677095054845,799.2482219129988,804.42599743321,802.246031102915
1731015493.6397943,790.6767924269428,798.2091944889798,804.3368307047986,802.3470915724031
1731015493.6433637,787.8322438578443,798.3775637631846,804.2470992085208,802.0045623833655
1731015493.6437044,782.9394700853848,799.8498281311871,804.1568047078772,800.8192229264417
1731015493.6476142,777.9035081335902,802.2371706338787,804.065947667443,798.7878563074826
1731015493.6490502,775.2175441225148,804.6980863512088,803.9745397086732,796.5428029189775
1731015493.6496894,776.2942663428917,806.3454507218206,803.8826125259196,795.118874486544
1731015493.6515243,780.513943796172,806.7755826469801,803.7902076902199,795.3280935849236
1731015493.655434,785.771313309447,806.2677763055303,803.6973392347669,797.2155189477402
1731015493.6590073,789.9973944551571,805.4531817044256,803.6039483554905,800.0338532841647
1731015493.6593442,792.38274358868,804.7527332276621,803.5099054150947,802.7440290323707
1731015493.663254,793.4754614040747,804.1196296999913,803.4151184640522,804.6331466075984
1731015493.667164,794.3923738242669,803.317638674317,803.319731398449,805.6040613328307
1731015493.6679382,795.9805309686958,802.4207113026133,803.2242425198357,806.0118499204807
1731015493.671074,798.4792137617749,801.9941279069425,803.1292656685508,806.2650787744184
1731015493.6746514,801.6119493113769,802.7288596193374,803.0348071572577,806.5123658201419
1731015493.674984,804.7929643730172,804.8222723580357,802.9394674004357,806.6104058408052
1731015493.678894,807.3183409503948,807.6449013436609,802.8406280730176,806.3510259735629
1731015493.682804,808.5909636590615,810.0188382382671,802.7366605556722,805.7273865872792
1731015493.6844585,808.3677354045693,810.9556711607999,802.6306282111917,804.986646084017
1731015493.686714,806.9005033407889,810.3254268625127,802.5320872971316,804.431547436758
1731015493.686826,804.8717801324378,808.935973669223,802.4518622650813,804.1944597875116
1731015493.6902952,803.1502152630269,807.9256870352434,802.3881199520949,804.1990263744793
1731015493.6906238,802.4731719731052,807.9267228786282,802.3125953240528,804.286806511122
1731015493.6945338,803.1898791411062,808.6856716350051,802.1776583154679,804.3461866087204
1731015493.6984437,805.1949760612647,809.4674659738426,801.9630256189529,804.34992633787
1731015493.7023537,808.1005356323475,809.8637502984529,801.7512037684793,804.3222822285418
1731015493.705714,811.5184778526718,810.2216784498469,801.7736430879208,804.2939038949613
1731015493.7059393,815.2055952415486,811.2496456299544,802.3529661681404,804.2788441686691
1731015493.7062635,818.9472007505902,813.1702152705585,803.7254683674192,804.2751749261265
1731015493.7101736,822.3582077886674,815.2735667211836,805.8354341856834,804.275278538477
1731015493.7140834,824.9139454820821,816.3578589212663,808.2520576561619,804.27383979067
1731015493.7179935,826.2593241891302,815.6769148722387,810.2985643454547,804.269846725716
1731015493.7192268,826.4758392244594,813.5286937346356,811.3384351019255,804.264763240958
1731015493.7215831,826.0110634340497,810.9827562469567,811.0578443256289,804.2601970743657
1731015493.721903,825.3598757686781,809.054234316552,809.5986162858436,804.2568077037258
1731015493.7246015,824.8090688308589,808.085028485072,807.4918630600014,804.2544294694324
1731015493.7258134,824.4059164040764,807.8170310595546,805.4301355614347,804.252640066538
1731015493.7297232,824.0746772165896,807.9637356947592,803.9717917003354,804.2511652455272
1731015493.7336333,823.7371487691622,808.6378807849118,803.3189655425426,804.2499602393617
1731015493.737227,823.3639460205632,810.1587269609082,803.3182059171965,804.2491013616022
1731015493.737543,822.9653643731424,812.3945543617239,803.7186924142582,804.2486637453189
1731015493.7414532,822.5624390277011,814.3284972722422,804.5038567488004,804.2486695186523
1731015493.7434895,822.167723310412,814.4451874646567,805.9811862371982,804.2490986383979
1731015493.745363,821.7823028493108,811.8262444625717,808.4680747742317,804.2499198876249
1731015493.7492733,821.4016695527719,807.1115470796568,811.783989850965,804.2511111736368
1731015493.752871,821.0217385471956,802.425882392435,815.0149928807219,804.252662546158
1731015493.753183,820.6411686170482,800.1322686547238,816.8683592900917,804.2545699042396
1731015493.7539957,820.2606444373467,801.2532233459566,816.4596918849203,804.2568286338351
1731015493.757093,819.8813015494601,804.7449149559828,813.971995133903,804.2594311901939
1731015493.7610028,819.5037670095796,808.1832497587819,810.6572265802445,804.262367885192
1731015493.7623775,819.1280640587851,809.3418406750131,808.118961261517,804.2656285620086
1731015493.7649128,818.7539476886093,807.5112253912915,807.3598933987686,804.2692036130948
1731015493.7685149,818.3812157606579,803.7004653463508,808.2636251207376,804.2730840934887
1731015493.768823,818.0098153475266,799.7522672984132,809.8451781769758,804.277261383064
1731015493.7727327,817.6397947877362,797.1395251167843,811.015608126532,804.2817268524718
1731015493.7766428,817.2712194037626,796.2811930092206,811.2572875203714,804.2864716965435
1731015493.7805526,816.9041238731058,796.6887172595021,810.779599342862,804.2914868971977
1731015493.7812655,816.5385093190963,797.6192628707266,810.2102067002543,804.2967632800817
1731015493.7841587,816.1743608503126,798.6428083711729,810.1878895283771,804.3022917147994
1731015493.7844627,815.8116636641226,799.7458564256958,811.1159446409092,804.3080634793325
1731015493.7883725,815.4504112142015,801.0353137154399,813.0471199701434,804.3140705734324
1731015493.7887645,815.090608289925,802.3979858549206,815.5882927656739,804.3203054860669
1731015493.7922826,814.7322700183861,803.4302321926097,817.8918121070029,804.3267600146393
1731015493.7961924,814.3754118303649,803.6822521488332,818.9287337903216,804.3334235721185
1731015493.7998028,814.0200269282024,803.0078641703944,818.056876059683,804.3402827552318
1731015493.8001025,813.6660629871144,801.7455181596646,815.5406128007183,804.3473244799051
1731015493.8001533,813.3134299777983,800.582845983911,812.5543621602957,804.3545428690401
1731015493.8040123,812.9620701654568,800.1661695181936,810.5341674290203,804.3619448668036
1731015493.8079224,812.612072353572,800.6836647694898,810.2954835108449,804.3695447343247
1731015493.8118322,812.263723594732,801.6876823058776,811.5923010737201,804.3773406827215
1731015493.8154469,811.9173401685,802.2987144830022,813.45645054786,804.385283919879
1731015493.8157425,811.572830417993,801.7075649843874,814.9951600253926,804.3932750484064
1731015493.8190413,811.2292690543322,799.699060836245,815.9587647261844,804.4012293385714
1731015493.819652,810.8851169692662,796.8924652135929,816.6649588658331,804.4092073602494
1731015493.8235333,810.5396234138504,794.5519415094218,817.4821192131594,804.4175077827119
1731015493.823562,810.1949407892254,794.0499280252387,818.4111147137418,804.4265372632019
1731015493.827472,809.856823253021,796.2183652665383,819.0862897019905,804.436350883705
1731015493.8310907,809.5310152768755,800.8514940120037,819.0615368917948,804.446094211026
1731015493.831382,809.2148635414122,806.5920110331916,818.0562970371018,804.4540276662046
1731015493.835292,808.8900121725753,811.3614039111093,816.0294111456948,804.4588705658203
1731015493.837929,808.5282454788464,813.2882148818865,813.1995618255999,804.4622626201142
1731015493.839202,808.1194503470873,811.7200652357519,810.1096512180823,804.4702500918229
1731015493.8431118,807.7104691383506,807.6521661541337,807.6054862223504,804.4903519690896
1731015493.8467343,807.4130466043251,803.1561922547689,806.526909878216,804.5226372738845
1731015493.8470218,807.3290498727672,800.1224204191061,807.178541551352,804.5499306642216
1731015493.8509316,807.3941719389879,799.2227340898896,808.9963434396271,804.5405071483431
1731015493.8548417,807.2660925126777,799.841481476478,810.8109268346968,804.4767844931654
1731015493.856817,806.46939346827,800.8959760209553,811.6287554466311,804.4054316176329
1731015493.858302,804.8340251287639,801.7519433641297,811.3343399612376,804.4725855945283
1731015493.8587515,802.8531162155293,802.4911524315398,810.703588228477,804.8915013709809
1731015493.8623786,801.4747858306172,803.4853124835199,810.6915297885059,805.821942640879
1731015493.8626616,801.3746793150793,804.8423695044668,811.6067169711156,807.2163209754383
1731015493.8665717,802.3580898785284,806.2636781014616,812.8843911419128,808.7440455548883
1731015493.8704815,803.4501730496537,807.3328816980626,813.6051442172335,809.8704634307724
1731015493.8743916,803.5730527845895,807.8569352350709,813.2238460638345,810.062368645908
1731015493.8757048,802.234526243573,807.9616277509135,811.8562310708415,809.0256251045661
1731015493.8780224,799.7692525472957,807.9812154089169,810.0001489830075,806.8811097576037
1731015493.8783014,797.0969144101977,808.3267365934222,808.1263457717926,804.185264884505
1731015493.8822114,795.2322220456799,809.3789782399142,806.5619204103718,801.7184832718901
1731015493.8861213,794.8010078584642,811.3292164393232,805.624370834595,800.0926948392456
1731015493.890031,795.7634536442146,813.9890081303361,805.6656583341527,799.4080309264816
1731015493.8930705,797.4819346054974,816.7436566851698,806.8748164439453,799.2046494121215
1731015493.8936665,799.1089450827243,818.7784976510009,809.0496228551306,798.7488452447056
1731015493.8939412,800.0478382866313,819.4838730905304,811.6167025407732,797.461529219365
1731015493.8945928,800.1720291009823,818.7791798533892,813.914599525287,795.2371104722631
1731015493.8978512,799.6951913790477,817.1358899721038,815.5009837138376,792.5001152741831
1731015493.9017613,798.8898996375785,815.274697397088,816.2617093976041,790.0025643998438
1731015493.9056711,797.9494877213646,813.7286178746384,816.3031452135859,788.5137338764182
1731015493.9093103,797.0808931025547,812.5719751477063,815.7653441863932,788.6083852424941
1731015493.9095807,796.6340130011175,811.5181259575294,814.7010686987625,790.6203913183244
1731015493.9134803,797.0208560106176,810.305458745605,813.0889467944269,794.6008045831759
1731015493.913491,798.4088454143165,809.0295989864865,810.9635964982348,800.1215597860858
1731015493.9174008,800.450837779287,808.1070285317682,808.5682908785254,806.0948835917183
1731015493.921311,802.3620911145291,807.8996595190587,806.3919952649318,811.0171320291628
1731015493.9249544,803.3983862183426,808.3683511838655,805.0009421311906,813.7357366449813
1731015493.9252207,803.4234426332623,809.0931217181591,804.7210397292939,814.2001970364593
1731015493.9278393,803.1019857551297,809.6246199147329,805.3721452608565,813.4641475781174
1731015493.9291308,803.4963558915915,809.8226271508505,806.2732295986798,812.8123358328203
1731015493.9323685,805.3090515840693,809.9037429875335,806.5898813960464,812.7121651769763
1731015493.9330406,808.3070474619699,810.227851116114,805.8592920434577,812.4710448179895
1731015493.9369507,811.3449396271524,811.0391633741103,804.3504620834857,810.8612707342146
1731015493.9405982,812.9954093217658,812.3113130213654,802.9492116372624,807.1993586603593
1731015493.9408605,812.4112671292047,813.7182897798411,802.5580141743252,802.099846551497
1731015493.9447706,809.8982386218336,814.7379172912979,803.4245564885114,797.4249450810289
1731015493.9486804,806.8139310305099,814.9045659760794,804.9779925535254,795.4465548204136
1731015493.9512565,804.7829548558536,814.1124354843095,806.3368803104156,797.6232053315762
1731015493.9525905,804.6860525707857,812.7259329706941,806.9821399110373,803.5994186887112
1731015493.956242,806.1259700619834,811.3308120025772,806.9777662276063,811.0261780071446
1731015493.9565003,807.7942068807833,810.2762865378883,806.6941254138304,816.4906121886826
1731015493.9604104,808.4682050990317,809.3947934631956,806.4443355503993,817.2470872929995
1731015493.962608,807.8368898217815,808.1593900850486,806.3350647614686,812.8419041241852
1731015493.9643204,806.5093568155282,806.1595477944052,806.3220744423464,805.5715014961951
1731015493.9682302,805.295761049363,803.5196674567095,806.3253540018804,799.2893082696025
1731015493.9701445,804.4773659647858,800.9607073543119,806.2999750119326,797.1502593736423
1731015493.9718862,803.7229583477,799.4752667390097,806.2443054561876,799.725228608966
1731015493.9721403,802.6436320085463,799.8016244200311,806.1763834693677,804.7947828285891
1731015493.97605,801.3549931712716,801.9612170371062,806.1114379801645,808.9742282991136
1731015493.9799602,800.4333518346792,805.1161215365709,806.0539709979432,809.9585993281164
1731015493.98387,800.2962798934478,807.8996366810325,806.0010535216885,807.7423777405381
1731015493.98753,800.6692152415256,809.1243320018283,805.9483843624639,804.0766843367059
1731015493.98778,800.7564588977904,808.4737615465503,805.893751565024,800.8835605313507
1731015493.989032,800.0231240603964,806.6914408110451,805.8372148414646,799.0466957804242
1731015493.99169,798.8295564701455,805.0611331292051,805.7797647153913,798.3878794533327
1731015493.9956,798.2334251337768,804.4860338505378,805.7221648050105,798.4336266727001
1731015493.997377,799.0336786096778,804.8344105948914,805.6645963021573,798.9855689949512
1731015493.9995098,800.8583084567417,805.0892548078297,805.6068694681842,800.0139771930021
1731015494.003174,802.1410818234452,804.2350330639802,805.5487466302395,801.292851491361
1731015494.00342,801.1579392325469,802.1743389813092,805.4901110048481,802.3910913978339
1731015494.0073297,797.4333729570446,799.8691060793093,805.4309634137139,803.0059442665672
1731015494.00792,792.4396287732358,798.5418510965085,805.371347073711,803.1670830334563
1731015494.0112398,788.9378999051836,798.6476014583164,805.3112892955786,803.1138595751961
1731015494.0151496,789.3102818492345,799.5794105457574,805.2507884476147,803.064529477394
1731015494.018818,794.055660964285,800.3669825193108,805.1898295349006,803.1043685211743
1731015494.0190597,801.5435953853224,800.6414869503898,805.1284006009363,803.2122623074204
1731015494.0229695,809.1253025604506,800.9058582759898,805.0664936182409,803.3358772491613
1731015494.0268078,814.646917183877,801.907034151321,805.0040916981818,803.4425889331417
1731015494.0268795,817.2615756375835,803.8141218780968,804.9411593907846,803.528768553388
1731015494.0307894,817.2570969434507,806.0172253488092,804.8776572344717,803.6055631675396
1731015494.0321455,815.4747436766595,807.655568094271,804.8135869429764,803.683520764261
1731015494.034462,812.9185141730155,808.2769407163194,804.7490371869196,803.766346134151
1731015494.0346994,810.5555447163276,808.0167170166692,804.6841621784515,803.8524895721256
1731015494.0386093,809.0474681389861,807.2634523631982,804.6190355699636,803.9391118067734
1731015494.042519,808.5087800365368,806.2867686955036,804.5534279495888,804.0245936325713
1731015494.0456955,808.5893632379011,805.24436717324,804.486730874758,804.1088522832223
1731015494.0464292,808.8318558651943,804.4817666984692,804.4183324381569,804.1925176095399
1731015494.0501058,808.9642321545008,804.6504052196185,804.3484973342553,804.2761328754553
1731015494.0503392,808.9464320399533,806.3204648066421,804.2791417373463,804.3598650810112
1731015494.054249,808.8573861398496,809.3315695599972,804.2132390237961,804.4436146563136
1731015494.058159,808.7759828838862,812.5421713059063,804.151910502084,804.5272280801776
1731015494.0620692,808.7311917836802,814.4182637338018,804.0903793803084,804.6106230044412
1731015494.0645835,808.7122260045791,814.1402917555978,804.0172229508967,804.6938001328054
1731015494.06575,808.6978849717036,812.302840293546,803.9225735858794,804.7768011644404
1731015494.065979,808.6757169549708,810.5112849323777,803.8157969858529,804.8596679642976
1731015494.0669143,808.6448034220701,810.1423677848644,803.7413029094037,804.9424192389339
1731015494.0698893,808.6097543892577,811.326836959226,803.772509389553,805.0250376745204
1731015494.073799,808.5746748819245,813.0127403529267,803.9806197237658,805.1074676679322
1731015494.077709,808.5408879552729,813.9471859466188,804.4176034015488,805.1896424640572
1731015494.0813937,808.5076947800904,813.6017668844964,805.147552997742,805.2715553799676
1731015494.0816188,808.4739650224276,812.2623857568366,806.2563096758214,805.3533416033034
1731015494.0834713,808.439090192637,810.4233264888832,807.7237960231761,805.4352684731731
1731015494.0855289,808.4030673706084,808.2563250686693,809.2285973572021,805.5175242554868
1731015494.089439,808.3661569635424,805.6744089198145,810.1621215230005,805.5998417779707
1731015494.0933487,808.3285717397292,802.7853674868962,809.9954001192938,805.6812834196722
1731015494.0970376,808.2903742685769,800.1541583885703,808.7395209331102,805.7607142538349
1731015494.0972586,808.2515280365475,798.5721778305341,807.0516701149922,805.8381892212292
1731015494.1011686,808.2119811627232,798.5555161820671,805.8263444251648,805.9164508590999
1731015494.101683,808.1717089417225,800.0200050406179,805.5931393002725,806.0005070344325
1731015494.1023593,808.1307102416691,802.3752969966606,806.2228175738969,806.0933551773816
1731015494.1050785,808.0889895139271,804.9151999113601,807.1478649826679,806.1889559183533
1731015494.1089883,808.0465541819642,807.180750803001,807.8403039461011,806.2690190886756
1731015494.1126816,808.0034321686476,809.0519203650755,808.1197693498805,806.3133241665868
1731015494.1128983,807.9596853906344,810.5733055705301,808.1149235334118,806.3265037859994
1731015494.1168084,807.915382154761,811.7229393150225,808.0398502150042,806.3641247105007
1731015494.1207182,807.870515245655,812.33206034332,808.0243557890025,806.5190069883967
1731015494.1212473,807.8249188870168,812.1869034036022,808.0848586510123,806.8342664560555
1731015494.1246283,807.7783082379576,811.1847201149799,808.1800682128173,807.1702644628535
1731015494.1283257,807.7305474888923,809.4227427855233,808.2701119504799,807.1515161776911
1731015494.128538,807.682058914851,807.2089245151751,808.340782998392,806.3576718674581
1731015494.1324482,807.6339639006109,805.0321353840875,808.3978345442212,804.7458567854751
1731015494.136358,807.5873948090224,803.4785832746351,808.4520262614262,802.9273306930311
1731015494.1364515,807.5418782363532,803.0489089629517,808.509559231248,801.8600445022487
1731015494.140135,807.4939084208434,803.905080609903,808.5708100352614,802.1339424871037
1731015494.140268,807.4380371449327,805.6932570420931,808.6334251192152,803.5988590922753
1731015494.1439695,807.3722341352131,807.612220686273,808.6953565318876,805.6896407293967
1731015494.144178,807.3053908940851,808.7663714261241,808.7559758583834,807.9720302016564
1731015494.148088,807.2589042379889,808.6337830579547,808.8156661579317,810.3099587353295
1731015494.1519978,807.2521879899417,807.3603504140862,808.8750146864218,812.6019592136832
1731015494.155908,807.2718666017101,805.6851381145699,808.9343384211362,814.4423214420761
1731015494.1590228,807.2478243737935,804.5512283497009,808.993649086663,815.0500203499257
1731015494.1596134,807.0801356918168,804.6461676159446,809.0528289645518,813.620676291673
1731015494.159818,806.7455744959346,806.1013855412418,809.1117875170455,810.0050048359268
1731015494.1637278,806.435515581339,808.4372769059362,809.1705119620648,805.2781334955123
1731015494.1676378,806.5697266735301,810.7343221170598,809.2290406173676,801.5975179402384
1731015494.1712203,807.5115886448597,811.9768947275055,809.2874194625781,801.1304762817549
1731015494.1715477,809.0341063707461,811.4769009334216,809.345678277357,804.6220385338484
1731015494.1752574,810.0041250207378,809.2182792109742,809.4038299975418,810.6496313289865
1731015494.1754577,808.8599456394146,805.9476659118665,809.4618810641646,816.2328965091983
1731015494.1779108,804.7909934487225,802.9255504149852,809.519841412593,818.4861329618099
1731015494.1793675,798.6487381406968,801.4068258165763,809.5777292225255,816.2197108720587
1731015494.1832776,792.6621032169373,802.0598864212877,809.6355693923113,810.438277135606
1731015494.1871874,789.0736802217086,804.5979935526927,809.6933855913893,803.5009782623257
1731015494.1909013,788.7534338535598,807.8450781653606,809.7511882059586,797.6532264772623
1731015494.1910975,790.8253917991877,810.2745584388125,809.8089671044231,793.9784811838069
1731015494.195007,793.4912126734376,810.7930001786445,809.8667038998364,792.336635895522
1731015494.1967986,795.3148331566908,809.3318995759444,809.9244112955979,792.0275216428348
1731015494.1989174,795.9690362310561,806.8432609634016,809.9821788344206,792.4582765768565
1731015494.2028272,795.9924241003462,804.643410246249,810.0401677020287,793.3131049000286
1731015494.2059891,795.9505332773326,803.5290738809861,810.098494832271,794.3099848347512
1731015494.2065454,795.8092866143356,803.3058188192233,810.1570278734142,794.9929469083103
1731015494.2067373,795.0172544582388,803.0664097131144,810.2152706458711,794.8489419014406
1731015494.210647,793.1267949497691,801.9537728470297,810.2726255189751,793.6125751058559
1731015494.2145572,790.3829538434669,799.7897685967871,810.3291512562307,791.4442575831725
1731015494.2156866,787.8291776669889,797.1576819585636,810.386371914304,788.8957739017329
1731015494.218467,786.8716483694637,795.0245165839683,810.4470285830963,786.8232693507779
1731015494.2221892,788.5547137051325,794.2661597783147,810.5127322789912,786.2920709254347
1731015494.2223773,792.9232391631961,795.3475311297454,810.5801450481852,788.2572187685828
1731015494.226287,798.8338748063385,798.1855834050059,810.639286189996,792.9293029279348
1731015494.230197,804.401360868469,802.1578879861336,810.6792380933731,799.2535991114617
1731015494.2341068,807.9085234522828,806.2674894360139,810.7027521475951,805.1598751477695
1731015494.2345743,808.66862447299,809.4573256656972,810.7402643558935,808.6882670874905
1731015494.237833,807.3103612364465,810.973957328268,810.8419659759268,809.2200724273396
1731015494.2380168,805.3172778945884,810.6323410974866,811.0297385582609,807.7994758951834
1731015494.240758,804.1244089820156,808.870551733571,811.2237173521439,806.2584817189118
1731015494.241927,804.3349407539972,806.5513688101086,811.2086317748507,805.8707781756347
1731015494.2458367,805.53477031862,804.560439115001,810.7129340043429,806.6097640640904
1731015494.2497468,806.8046651529385,803.3913328947424,809.5824911783701,807.5007314326771
1731015494.2534623,807.5507908485059,802.9929845113503,807.9087311522155,807.6216384916821
1731015494.253477,808.0135721881496,803.0060492797079,805.9907461343006,806.844218218198
1731015494.2536566,809.0386116189043,803.1719100604895,804.1900658633484,805.7528990033752
1731015494.2575667,811.3022557418916,803.5130231941669,802.844571343185,804.9608143545205
1731015494.2614765,814.669332745814,804.131610579815,802.2859189995688,804.5558079453122
1731015494.2653866,818.2418895039804,804.9253946568655,802.8201444601948,804.2162297592167
1731015494.2691207,821.0101362895767,805.6240249949851,804.5450730734512,803.825272859662
1731015494.2692964,822.4662080158688,806.130303126016,807.0943112818653,803.8635096763637
1731015494.27235,822.6443679117202,806.7064768550924,809.5730069688485,805.0491413554405
1731015494.2732065,821.6899370695999,807.6747538287156,810.8803131818884,807.4956071214544
1731015494.2755268,819.54639694884,808.9101933865887,810.3210848741112,810.2632225076711
1731015494.2771163,816.1693115775463,809.7574151124481,808.1160809418727,811.9016261689256
1731015494.2810264,812.036276198502,809.6071482164359,805.3889730917239,811.6081000301333
1731015494.284765,808.3170107029667,808.616109512329,803.5422047005046,809.9294110761149
1731015494.2849362,806.3356717777939,807.8001495511388,803.4221611075823,808.2743917183652
1731015494.2888465,806.655143767521,808.3000192481057,804.8895612606739,807.619475398862
1731015494.291238,808.5742830068162,810.427864400272,807.0947466410651,807.6089177163448
1731015494.292756,810.5782586245119,813.3300713801545,809.1519827537032,806.9412192524048
1731015494.296666,811.466714667941,815.5639694953327,810.5927437753757,804.7312241680686
1731015494.3004088,811.2164916764016,816.1255415159826,811.2778352944116,801.5686740317911
1731015494.300576,810.8078633988501,815.1286792530677,811.0393440691952,799.2189808071365
1731015494.304486,811.1960810336258,813.6316983246186,809.5687677145986,799.1708122030568
1731015494.308396,812.4304285920165,812.7681789057629,806.7329959105181,801.3393961148174
1731015494.3101258,813.7360863253722,812.878367867993,802.9969774356159,804.1067521789835
1731015494.310295,814.3595432103828,813.3372329481114,799.4991938680265,805.636259946897
1731015494.312306,814.2381335226158,813.1895656136475,797.6318301023415,805.2448640171255
1731015494.316053,813.8729533836105,811.9920854783561,798.3638219539849,803.659481552482
1731015494.3162158,813.718874194276,810.0842795999395,801.7070369886574,802.1344378831712
1731015494.3201258,813.8249085284733,808.0831310440583,806.6408836370795,801.4300830531655
1731015494.3240356,813.9765855744886,806.1892900962181,811.5754914570442,801.5148723903231
1731015494.3279457,813.9974013193691,804.0873697616765,815.1310599172543,801.9427124440351
1731015494.3290138,813.8696927976156,801.5819348342542,816.7817045826124,802.3271660094767
1731015494.3316967,813.6711520790877,799.2827315482155,816.9569880773599,802.5356041566286
1731015494.3318555,813.4771245231094,798.5204627170218,816.5601369466195,802.6230423805538
1731015494.3357656,813.3165587124558,800.4100725329328,816.2907023994882,802.6893721058535
1731015494.3396754,813.1809176796222,804.846227976753,816.2779636880381,802.7909034435806
1731015494.3435855,813.0510586998257,810.3364165162636,816.2255120562882,802.9298832344757
1731015494.3450642,812.9152921809232,814.8348928150899,815.824915226173,803.0838701892535
1731015494.3473406,812.7724469814714,816.8811481000566,815.0318773215953,803.233819421438
1731015494.3474956,812.6266023554305,816.1839063578738,814.0302603382987,803.3740421519701
1731015494.3479016,812.4815382709874,813.3909503855987,813.0489014925365,803.508144630204
1731015494.3514054,812.3385350783292,809.4816235439836,812.2808802185431,803.6414757275179
1731015494.3553154,812.1969885563763,805.3666943610473,811.9434925929958,803.7767920752334
1731015494.3592253,812.0558511297572,801.8616803853564,812.2976982551346,803.9140145047833
1731015494.362985,811.9145278856965,799.7309842577679,813.4813885446189,804.0518952186711
1731015494.363135,811.772978507806,799.4679111800899,815.2511181159015,804.1894646513715
1731015494.3667896,811.6314141136838,800.8826828973147,816.8897201091172,804.3264796402533
1731015494.3670452,811.4900090247099,802.9571989123048,817.4344325372374,804.463162082694
1731015494.3709552,811.3487985848091,804.3264719463273,816.1181667508653,804.5997953751711
1731015494.3748653,811.2077208086225,804.1809673001276,812.7609729998438,804.7365113643841
1731015494.3786285,811.0666949510452,802.8874170060456,807.9198554113128,804.8732926065454
1731015494.3787751,810.9256689360062,801.7404571662528,802.7654832754298,805.0100675253738
1731015494.379833,810.7846250664221,801.9620328619724,798.7235302435707,805.1467886454382
1731015494.3826847,810.643561842463,803.7415710736998,796.9241708646878,805.283455433381
1731015494.385677,810.5024693800461,806.1137775999513,797.6093429250698,805.4200944338668
1731015494.386595,810.3613089912229,807.7605059630416,799.8412807608967,805.5567230188975
1731015494.3905048,810.2200089398237,808.0306374718075,801.8620730445659,805.6933199449086
1731015494.3942726,810.0784925206501,807.3278183083173,802.0718485029129,805.8298250469866
1731015494.394415,809.9367412703331,806.6396608288698,800.0545270963852,805.9661867540598
1731015494.3983247,809.7948535816214,806.7429234866655,796.9102075951611,806.1024480375668
1731015494.4022348,809.653011590791,807.7780931479035,794.6091858941751,806.2388025877643
1731015494.404565,809.5112837895051,809.378787587651,794.8134196901353,806.3755063048045
1731015494.4061446,809.3693314160244,811.0032998262594,797.9773211501714,806.5125833934055
1731015494.4099164,809.2263166191486,812.1087872453643,803.2519929985613,806.6494812162674
1731015494.4100547,809.0814130433408,812.1917796312822,809.086623289714,806.7851060667007
1731015494.4139645,808.9349758540636,810.926127574735,813.9981980364093,806.9186921352523
1731015494.4146016,808.7895454521375,808.4242546967841,817.0392018580382,807.0513455675666
1731015494.4178746,808.6490053915434,805.3610732007137,817.8633399248378,807.1869148225197
1731015494.4217844,808.514670113231,802.7377817665466,816.5965700570049,807.3300285165363
1731015494.423453,808.3799167438442,801.3940653828939,813.7327715190282,807.4803951339004
1731015494.4255605,808.2292324855375,801.6186056415038,810.0692255062868,807.6266901498037
1731015494.4256945,808.0489173101294,803.1038430711621,806.5459550266181,807.7483628820519
1731015494.4296043,807.8493369133192,805.1849549427944,803.9304542106264,807.8332220847883
1731015494.4335144,807.6816747709063,807.1318311367095,802.5026095012474,807.9061053535282
1731015494.4374242,807.61745983334,808.3589191513314,801.9886620234761,808.0414684238364
1731015494.4412043,807.6710231898041,808.5829124084961,801.8292768473837,808.3196766200367
1731015494.4413342,807.701200557079,807.9473473458019,801.5840029281004,808.7140536014357
1731015494.4423409,807.4054882364651,806.9929194622349,801.1556376016318,808.9754854812918
1731015494.4452443,806.5311590934108,806.3605611961809,800.693581431398,808.6620276669782
1731015494.449154,805.2638447053489,806.3700897785058,800.3367833072898,807.4103444107586
1731015494.4493704,804.4533373672226,806.8381166913265,800.0850360007929,805.2984833183707
1731015494.4530642,805.2617845305379,807.35040271094,799.9210600880305,802.9658892876822
1731015494.4568484,808.2991547072725,807.7597850596559,800.0248626227491,801.3588118573815
1731015494.456974,812.9411170470554,808.403056992656,800.8149858607003,801.3033252334726
1731015494.460884,817.4973691797705,809.7614316167924,802.7180737735229,803.1206095561139
1731015494.4612288,820.1638506022892,811.8479035751061,805.8314592446209,806.3758503529092
1731015494.464794,820.0360682311317,813.935898991749,809.7488696196839,809.9239729131992
1731015494.468704,817.480223531822,814.9738296340912,813.6893086996025,812.4221603313604
1731015494.4724922,813.7216915240425,814.3758845269707,816.8455916923152,813.1343635893769
1731015494.4726138,810.0676818238553,812.4800175666871,818.7390251902693,812.4712382791431
1731015494.476524,807.3140805882197,810.2495975965855,819.3926307915159,811.7799441195599
1731015494.4801166,805.6045135864928,808.5088304209488,819.2529358374748,812.4308796925062
1731015494.4804337,804.634750737779,807.4293688750984,818.9171177418059,814.7882651540654
1731015494.4841392,803.9325051629088,806.7009357249955,818.816644680766,817.7837551368528
1731015494.4843438,803.0465959576433,806.1313657477504,819.0382741470823,819.4654167729683
1731015494.488136,801.6652690046793,806.0210513061153,819.3852710184431,818.2612615076507
1731015494.4882536,799.7351747262675,806.8991771300866,819.6068518606644,814.1261796903451
1731015494.4921637,797.5484929632277,808.8304242661914,819.5786545422599,808.684884933424
1731015494.4960735,795.6827954196194,810.9407745274573,819.26178299771,804.1727795369649
1731015494.4990046,794.7522298991661,811.6959538985453,818.5054793337505,801.9673707418776
1731015494.4999835,795.0804970155648,809.8638204374548,816.9637559555388,801.8658477520493
1731015494.50378,796.4730467324822,805.470685477832,814.3189609902744,802.5742942633615
1731015494.5038934,798.2191961933556,799.9665671845881,810.6703086327542,802.8190088174542
1731015494.5078034,799.3703811646894,795.395017080039,806.6947867391806,802.132519335585
1731015494.5117133,799.2292994217032,793.1602660086578,803.3398217548071,800.9107666326133
1731015494.515623,797.8197174634013,793.3035342116497,801.2637281828828,800.0135086459815
1731015494.5178924,795.996631364784,794.7675247975981,800.5234762530521,800.3000107309366
1731015494.5189078,795.0006381920037,796.3396203103105,800.7750802398652,802.2106778218869
1731015494.519424,795.6637845396723,797.4862150853726,801.7188124805491,805.3980273395533
1731015494.5195332,797.8205072691666,798.4690350585915,803.2705287145654,808.619385707894
1731015494.5234432,800.3969018927545,799.7680071593304,805.2689029306615,810.1961969032875
1731015494.527353,802.1301458193738,801.3985263507257,807.0980297624476,808.9729890676116
1731015494.531263,802.3474031514901,802.7616698214161,807.7880158203144,805.1573904469179
1731015494.535068,801.2141277901449,803.1669519720435,806.7052134779968,800.3283948076364
1731015494.5351727,799.3758867890178,802.5369596466811,804.2781476200902,796.4870811137912
1731015494.5367804,797.4483793412231,801.6081620296336,802.0142954765324,794.8027609431842
1731015494.539083,795.8372196815651,801.3952677637467,801.6106506476798,794.984404551018
1731015494.5429933,794.9204462407439,802.3893946919084,803.7826670072868,795.7466881993583
1731015494.546903,795.2035902404533,804.2275856736829,807.7510744347853,795.9986751416017
1731015494.550712,797.0863979198585,806.1129422080588,811.7988466032697,795.7880381298315
1731015494.550813,800.3273131631064,807.5299398108148,814.4120490083227,796.1771774908735
1731015494.5536766,803.7302307362775,808.5405675895427,815.0800445263102,798.1023444783267
1731015494.5547228,805.5521679149854,809.421358331324,814.2220182615275,801.2142855565285
1731015494.555668,804.5520417168494,810.0970869052513,812.502026879371,803.8292213891633
1731015494.5586329,800.925686022481,810.0204848278161,810.2508623951355,804.1747427522106
1731015494.562543,796.2927491091313,808.6617399368204,807.485564271177,801.8937799522437
1731015494.566356,792.641779644752,806.1273363945443,804.3904994992242,798.4492062530302
1731015494.5664527,791.0662288101564,803.2829488101603,801.6725941916559,796.0130565045815
1731015494.5703626,791.3021340952793,801.2401772419014,800.3143021763865,795.7585535865655
1731015494.5742726,792.314244577511,800.6739479680073,800.8403679522447,796.9709361770078
1731015494.574556,793.27128871001,801.5571885528939,802.768371328246,797.6635899829333
1731015494.5781825,794.0766052227931,803.4482836910631,804.8553572182872,796.1457881237307
1731015494.5819998,795.1858300134918,805.9442488408549,806.0350378142368,792.2907858087849
1731015494.5820923,797.0590430867846,808.8435988248837,806.2281509517694,787.58856158587
1731015494.5860023,799.7406546559147,811.9539646989564,806.2708321956379,784.0742334364044
1731015494.5884454,802.8041934206684,814.8670473522116,807.0404778542279,783.0524567811525
1731015494.5899124,805.5895714878061,817.0094830202619,808.620955826591,784.544815403026
1731015494.593444,807.5184295232657,817.9386424262425,810.2636299876843,787.6621325407523
1731015494.5938222,808.3093723039335,817.5976045587663,811.1038699793552,791.3666265284443
1731015494.5976436,808.0348288230809,816.328550680509,810.9242602015298,794.9688968419294
1731015494.5977323,807.0546765747689,814.702021667466,810.3125086889604,798.1445546149804
1731015494.601642,805.8729302497081,813.3194471606084,810.1516492417676,800.7007150666967
1731015494.6055522,804.9436491001362,812.6296143980126,810.8919150974709,802.4028898959428
1731015494.609462,804.4931410851145,812.7201926973188,812.1379454651727,803.0012010911985
1731015494.612332,804.4958354028864,813.1652645719589,812.8338277601919,802.4256385717104
1731015494.6132877,804.8705998232994,813.1376599986163,811.9623878359782,800.9974930088937
1731015494.613372,805.7127305661062,811.8604145809179,809.3354450555161,799.408729071412
1731015494.617282,807.2305480500042,809.1456258865483,805.9084725227264,798.3167879782444
1731015494.621192,809.3208541723391,805.6133251111079,803.3078376285787,797.7924883974067
1731015494.623214,811.2067189498207,802.3949359039729,802.8378097829196,797.1842118277654
1731015494.6251018,811.6695394951261,800.5055511805916,804.6654316688359,795.6886560383228
1731015494.6289315,809.8667403127836,800.2833991134543,807.7409190384034,793.1625770794802
1731015494.629012,806.0625058916874,801.2247914051018,810.4379892191846,790.3433156360321
1731015494.6312196,801.5779289585457,802.2976760841265,811.4396356352778,788.2346608623276
1731015494.632922,797.9679793833603,802.5462619020069,810.3736369690852,787.3426952160769
1731015494.6368318,796.1240529694389,801.6249921416251,807.9535374602958,787.5829846875426
1731015494.6407418,795.9792777687751,799.9335715974516,805.6140559596629,788.8360639882803
1731015494.6445756,796.8599187791382,798.280982751099,804.7966149039843,791.3391697084855
1731015494.6446517,798.0028070511844,797.3195269736768,806.2142340725882,795.3313277945292
1731015494.6485617,798.8316571351443,797.1296819948984,809.50521327249,800.3243122827374
1731015494.6501076,799.0115597047053,797.2165160636008,813.4798014591521,804.9133838844407
1731015494.6524715,798.5100937977485,796.9023687225565,816.7507097182155,807.5463702254445
1731015494.6563816,797.7005659256973,795.8487304315641,818.2989295772751,807.6757733636621
1731015494.6579828,797.2957265403168,794.359260471482,817.7002781144348,806.2551577750914
1731015494.6602194,797.9777410367521,793.2572915285522,815.0940794815646,805.0624429061945
1731015494.6602914,799.9341087012717,793.4143519342731,811.0980040848474,805.3543172480427
1731015494.6642015,802.7094176111472,795.2449324490631,806.6955751024395,806.9670517417352
1731015494.668111,805.5540469842153,798.5019688395942,802.9785507268662,808.6361805039168
1731015494.6689954,807.9752356036394,802.4807888424871,800.7601086961948,809.2704880860318
1731015494.6720214,809.970619903127,806.434184391926,800.2986213120907,809.0561581553258
1731015494.6758635,811.7328486581414,809.8658331012065,801.3370566622685,809.3737505876957
1731015494.6759312,813.167104908078,812.5188921794812,803.3627192520055,811.5660728163339
1731015494.6798413,813.7682972593603,814.1753182720714,805.7971397604659,815.671308028444
1731015494.683751,813.0257664563438,814.5561919337722,807.9993720411684,820.2878238669931
1731015494.6876612,810.9691109893208,813.5011459995567,809.2965295735804,823.6689631448071
1731015494.6878834,808.3289564752673,811.3005822949224,809.2942437355094,825.0065121462454
1731015494.691507,806.1668673784553,808.8340457205886,808.3423476840993,824.7844800865746
1731015494.691571,805.2868900523063,807.2594475837819,807.6463157714176,824.0722112235037
1731015494.6927514,805.8472505708876,807.3696665431268,808.6438656357724,823.5913241154565
1731015494.6954813,807.361971889741,809.0789960617064,811.9266182187365,823.3988977778931
1731015494.699391,809.017387219386,811.4775987372363,816.5673730771471,823.2439515822591
1731015494.703301,810.1028912042082,813.4535462926792,820.5487088944727,822.9979212353961
1731015494.7067711,810.3377305254354,814.3973295784804,822.0973222837665,822.6557276725932
1731015494.7071514,809.932891947478,814.4382842560892,820.9017339622072,822.0165928487887
1731015494.7072108,809.3838963532395,814.0947347617972,818.2349950410451,820.5697311719867
1731015494.7111208,809.1730451274591,813.7328821086958,815.9128711702359,817.9019801743628
1731015494.715031,809.5873392388116,813.3418561215151,814.9733480012346,814.3440057296
1731015494.7189407,810.6928763634061,812.7798634687088,815.1316892636218,811.1940106505581
1731015494.7227952,812.3601698941806,812.1910494863688,815.3469041059917,810.1081828400514
1731015494.7228506,814.2856769133483,812.1348892867398,814.8932340094817,811.9483146600055
1731015494.7256591,816.0754851302196,813.2230015087567,813.9692651994816,815.9248134883652
1731015494.7267606,817.4091827386933,815.5128247607786,813.3619699797349,819.768244015631
1731015494.7275202,818.1307009953645,818.1914643634082,813.5533330258164,820.9461641986389
1731015494.7306707,818.1201297872478,819.9170395072006,814.1487442649506,818.164917710381
1731015494.7345805,817.0830518153706,819.6475327365594,814.1937618602932,812.1630094873144
1731015494.738439,814.6123437411707,817.3364966191566,813.1032538343825,805.286384112677
1731015494.7384906,810.6530021439859,813.9542300019885,811.3198802186033,800.1553786971011
1731015494.7424004,805.9744165951272,810.8525111085205,810.0349028537422,798.2841784335292
1731015494.744547,802.0401756011835,809.0035864377625,810.1663726550206,799.4546469255862
1731015494.7463105,800.1429543868585,808.6523867403557,811.4842085079559,802.110430651249
1731015494.7502203,800.4455251154441,809.4901385298299,812.6548107657167,804.4250391970382
1731015494.7540832,801.8094722156184,811.0419379526113,812.199992421568,805.3405516508144
1731015494.7541304,802.6530832218416,812.9057501382435,809.6359309596216,804.935629682256
1731015494.7580402,802.1422133361577,814.7337587044309,805.9306422140347,803.9872149644891
1731015494.7619505,800.7210713637953,816.1126888737117,802.9144868220278,803.2208057821199
1731015494.762289,799.6218924204535,816.5623096250065,802.0253435867357,802.8892601793453
1731015494.763435,799.8837390296645,815.7365279280235,803.2737636887512,802.8540395655575
1731015494.76586,801.694786548094,813.711753961145,805.2020659747354,802.8786502332235
1731015494.769727,804.4208068936504,811.1200305338235,805.904977817733,802.8269695388274
1731015494.76977,807.1066362418316,808.93549011686,804.3758455585572,802.6893492296634
1731015494.77368,809.0584624861665,807.9721134200299,801.1805009781106,802.5159712832697
1731015494.77759,810.2404049794386,808.4311823133837,797.9788316224812,802.3511960898843
1731015494.7815,811.3140652202871,809.8542429936402,796.3093604710834,802.2091036886527
1731015494.7823226,813.2055383130096,811.4945883293161,796.5922881081588,802.0819405402422
1731015494.7853713,816.3325059897035,812.7383374600684,798.0545756243987,801.9574051411689
1731015494.78541,820.0133543591983,813.2220908368432,799.488978613459,801.8289234426123
1731015494.7893198,822.6656679013064,812.6998657203455,800.1364016016108,801.6964879178845
1731015494.7932298,822.8645405559402,811.0038356325291,800.0295278796599,801.562915534049
1731015494.7970576,820.4882599882768,808.2494656499903,799.7073503619616,801.430474524716
1731015494.7971396,816.8847221537284,805.0174855419963,799.7133224860858,801.2997771765132
1731015494.801015,813.8257860866358,802.1720244530129,800.3019486739444,801.1703381412489
1731015494.8010497,812.2565447855213,800.3734622253284,801.4256223596552,801.0414995643823
1731015494.8012106,811.9671874995524,799.7177083564936,802.8095547792947,800.9129360427572
1731015494.8049595,812.1930350823318,799.8094706971369,803.9960159602166,800.7846643621511
1731015494.8088696,812.325100494406,800.1335034774048,804.4534444956965,800.6568354765759
1731015494.8127794,812.1746625941167,800.3662984513572,803.8565338774488,800.5295630163957
1731015494.816659,811.8427366524821,800.4398033383754,802.4006814602386,800.4028721858156
1731015494.8166895,811.4888962396311,800.4288294358548,800.8264497548546,800.2767273845842
1731015494.8200984,811.1972562120096,800.4197742621383,799.9945122477734,800.1510728778533
1731015494.8205993,810.9666475355918,800.4490309635078,800.287430015012,800.0258585814291
1731015494.8245094,810.7598864779882,800.5084340767521,801.3700350589046,799.9010607715807
1731015494.8284194,810.5475207343713,800.5756612050629,802.5377500052044,799.7767088870598
1731015494.8318264,810.3218226746762,800.6362174323566,803.2842417502895,799.6528973791284
1731015494.8323028,810.0892360483724,800.6880171414834,803.5543262341366,799.5297328381145
1731015494.8323293,809.8582762603482,800.7356072913655,803.580547780616,799.4071929447881
1731015494.836239,809.6330352344349,800.783542757671,803.6012659773744,799.2849791508329
1731015494.8389862,809.4131531282665,800.8335348696611,803.7173276972131,799.1625701765142
1731015494.8401492,809.1965871588438,800.8850029177928,803.9103632749037,799.0396686064764
1731015494.8440592,808.9818525783455,800.9367435796028,804.1231842141601,798.9169152384426
1731015494.8479466,808.768636510575,800.9880377026308,804.3179594935863,798.7961882934933
1731015494.8479693,808.5573288657937,801.0388236928178,804.4889195489253,798.6795011004244
1731015494.8518791,808.3483809236736,801.0893613675516,804.6477168832266,798.5662407850884
1731015494.8557887,808.1419906606625,801.1398868200027,804.8062263704411,798.4505611533742
1731015494.8578742,807.9381251278649,801.1904790515168,804.9690067444703,798.3229246455637
1731015494.859699,807.7366736108684,801.2411009612698,805.1346297887458,798.1790568383394
1731015494.8635907,807.5375611253086,801.2916897270545,805.2999921058191,798.0331323704551
1731015494.8636088,807.3407738679007,801.342212059089,805.4632152359746,797.9216459557176
1731015494.8665953,807.1463311887859,801.3926699173918,805.6241270823316,797.8800117711966
1731015494.867519,806.9542527812735,801.4430812623718,805.7834029613085,797.8898152883834
1731015494.8714287,806.7645449927418,801.4934617143489,805.9416672444146,797.8347236734248
1731015494.8753388,806.577203569666,801.5438175804067,806.0991393912697,797.5414241163459
1731015494.876762,806.3922195502392,801.5941481237313,806.2557351369476,796.9613033110061
1731015494.8792346,806.2095794970999,801.6444515122621,806.4113000561098,796.4229430897047
1731015494.8792486,806.0292620394432,801.6947307398574,806.5657540310459,796.7053420384765
1731015494.8831587,805.8512406607472,801.7449971666541,806.7191071164331,798.658427921991
1731015494.8870685,805.6755006442261,801.7952684101723,806.8714102572599,802.4567675297463
1731015494.8909786,805.5020630762804,801.8455575062848,807.0227089542298,807.1105396618392
1731015494.8948786,805.330987797208,801.8958564316166,807.1730273242943,810.8719050800662
1731015494.8948884,805.1623215474922,801.946129003822,807.3223751367631,812.3802403806566
1731015494.89565,804.99599386785,801.9963352073196,807.470759809265,811.5849829021467
1731015494.8987985,804.8317433438177,802.0464933140129,807.6181921631987,809.6292871979933
1731015494.9013638,804.6692221805193,802.096739965193,807.764685448758,807.8536633322216
1731015494.9027083,804.5083638253727,802.1472984105264,807.9102532621974,806.871424454874
1731015494.9066184,804.3498280978749,802.198279284467,808.0549115239659,806.5073423991605
1731015494.9105225,804.1949794370266,802.2493813120674,808.198684271982,806.483197059169
1731015494.9105282,804.0448105076899,802.2997942142139,808.341606119613,806.9978358885439
1731015494.9144382,803.897976972515,802.3487132253372,808.4837114965438,808.5124803781491
1731015494.9145377,803.7496214595651,802.3965288823516,808.6250088734245,810.9450126488296
1731015494.918348,803.593743928182,802.4458591929383,808.7654583864704,813.1887398485235
1731015494.922258,803.4303791881636,802.5007174921634,808.9049905375163,813.6457709746186
1731015494.9261663,803.2735310018385,802.5625613933677,809.0435933960831,811.478328759314
1731015494.9261682,803.1493526083971,802.6248562240115,809.1814322143106,807.4948632073239
1731015494.930078,803.0743415791297,802.6721689312503,809.3188703403198,803.7982237470612
1731015494.9334257,803.0189242205154,802.6913763330787,809.456229979436,802.3688240438888
1731015494.933988,802.890566471926,802.6955547343664,809.5932954683959,803.6851612169615
1731015494.936133,802.5886530827657,802.7450762323101,809.7289396101854,806.4741533277737
1731015494.937898,802.1520600189087,802.939018035184,809.8615795321919,808.7680759452134
1731015494.941808,801.9247735853886,803.373000935395,809.9908998179662,809.4137089195741
1731015494.9418104,802.5747807447162,804.1147694884156,810.1200192358982,808.8647259117689
1731015494.9457178,804.8464485311907,805.2340477282271,810.2555402820332,808.7016616414966
1731015494.949628,809.1088088012731,806.7912740259617,810.4026027126944,810.3315362494012
1731015494.9523134,814.9163055872463,808.6686046857125,810.5555096818529,813.9032983016707
1731015494.9535377,820.8559021605222,810.3794689463753,810.6916966168138,818.2084651634698
1731015494.9574478,824.9341301372388,811.1798399842571,810.7822953130442,821.5117442475137
1731015494.9574544,825.5190895932672,810.5475588020962,810.826106807092,822.586073383066
1731015494.9613576,822.3742858537361,808.6438425376881,810.8891305845376,821.2129531509403
1731015494.9652677,817.0421012762727,806.2936014184531,811.1010376652475,817.96427200708
1731015494.9691775,812.1777273356855,804.4543385490902,811.561152852699,813.6708403035718
1731015494.9709015,810.1771112870543,803.6350421305284,812.1845884169369,809.1069889719987
1731015494.9712014,811.9295424749329,803.7617448547093,812.6459015059481,805.0369254024205
1731015494.9730875,816.4013758209859,804.5362199231369,812.5768720364744,802.3067332340439
1731015494.9730985,821.2356896287725,805.8624496543642,811.9260667568904,801.6140126978714
1731015494.9769974,824.0205253600219,807.8897362494557,811.1460519424268,803.0035026521092
1731015494.9809074,823.542003122882,810.6487118841148,810.9926883507904,805.5686748501342
1731015494.9848173,820.3132861145749,813.6910481345865,812.073280982018,807.7793754211868
1731015494.988727,816.0669965435083,816.1452732446921,814.4512794369103,808.3064551251366
1731015494.988742,812.5789840919211,817.1852833626702,817.5107501055608,806.7305852191516
1731015494.9900892,810.6561972695471,816.5140568969867,820.1263526971876,803.6202181693682
1731015494.9926372,809.9424890297315,814.4754908595235,821.0977311254953,800.0348870290402
1731015494.9965472,809.5181274744617,811.7644676691887,819.7119702652626,796.9457348668378
1731015495.000457,808.6963066463427,809.0318120294155,816.1619469353524,794.9613568773225
1731015495.004367,807.4102297792099,806.6961787396264,811.5339233942644,794.3361386508608
1731015495.0043862,806.0459224639338,805.0243899463298,807.3201464161289,795.0333631855295
1731015495.00567,805.0342008156728,804.2827731954685,804.747813262653,796.7617665783471
1731015495.0082767,804.5862509603345,804.7185615773977,804.3180503505969,799.0769042838938
1731015495.0089772,804.6710813807068,806.3303479502919,805.7352107757023,801.5588271891568
1731015495.012187,805.0522449602206,808.6490348122301,808.1348332391335,803.9023014460392
1731015495.0160968,805.2332895441435,810.8195818979,810.4367368604958,805.8172386461235
1731015495.020007,804.4371224201602,812.0404714418439,811.716705006131,806.917498253722
1731015495.02003,801.890460543069,812.0652252347705,811.5180633326119,806.8696978820557
1731015495.023917,797.4392608827887,811.3496587980303,809.9799358736313,805.7436196297738
1731015495.0278268,792.0703357366591,810.7067231370285,807.6900594876337,804.1329533215855
1731015495.0278647,787.7578561532096,810.7640001610788,805.349296025119,802.792284216479
1731015495.0317369,786.4826242182733,811.669151140078,803.4977370325346,802.1254222566123
1731015495.035647,788.993646734898,813.2032961365343,802.4811453129319,802.0346711073626
1731015495.035674,794.2304887272076,815.0601287098275,802.5699579108261,802.1771284357186
1731015495.0395567,799.9053443623227,816.9598200983171,803.9784218869963,802.2786290268812
1731015495.040439,803.8575322248934,818.5458685709623,806.6732613610991,802.2528122629891
1731015495.0434666,805.196538813298,819.3055857504119,810.1563568759956,802.1437555536872
1731015495.0467527,804.4576586597568,818.7326779525797,813.5126808871072,802.0226762263947
1731015495.0473766,802.8107342770397,816.6695439355412,815.7995517601672,801.9275038933378
1731015495.0512865,801.0786843026523,813.5518862493153,816.5347292142872,801.8580089947673
1731015495.051318,799.3606881595546,810.3351858527607,815.9355809192554,801.7976505162247
1731015495.0551963,797.4493110505766,808.1180491883379,814.751709045901,801.7331907708872
1731015495.0591063,795.5425454249383,807.6681041072841,813.8209273731601,801.6610729227099
1731015495.0630164,794.5439759853872,809.088713429989,813.6259985821118,801.5841169506134
1731015495.0656407,795.623014619258,811.7746662982751,814.0811490076466,801.5061164486855
1731015495.0669262,799.3196054992824,814.6681059450119,814.6348045874668,801.4289084894743
1731015495.066962,804.8689525298771,816.6967581975417,814.6301679201972,801.3523370176915
1731015495.0708363,810.3442613261592,817.2018938914424,813.7353319185113,801.2754826959316
1731015495.074746,813.7014655865685,816.1785679769328,812.1725318465484,801.1976686664646
1731015495.0752077,814.1340132716381,814.2435168968884,810.5564217631476,801.1187417511429
1731015495.0786562,812.7544336268633,812.3572519775778,809.4487915902102,801.0388667969792
1731015495.082566,811.9090841455486,811.4029623237973,809.0100249868451,800.958240343695
1731015495.0826058,813.3854503312814,811.7651817892025,809.0199224073136,800.8769480238362
1731015495.0845287,816.7710518033026,813.082296913946,809.1529263120785,800.7949717141349
1731015495.086476,819.3807835358532,814.3446886077301,809.2082338294931,800.7122556353496
1731015495.090386,818.0879357151113,814.3893532235476,809.1532827377629,800.628757339401
1731015495.094296,811.7698349772883,812.5841121904353,809.0446438149685,800.5444641476738
1731015495.0982058,802.3685971763775,809.273382296169,808.9407057204625,800.4593896157521
1731015495.09825,793.6318614187546,805.6291625464114,808.8637826818447,800.3735644092427
1731015495.102116,788.5887283627835,802.953341981207,808.8066193452087,800.2870199761907
1731015495.1034164,787.8309212913462,801.9027802874488,808.753744384684,800.1997578231064
1731015495.1060257,789.7670424703163,802.1753266233073,808.6958088549238,800.1117159615873
1731015495.1099358,792.234078025618,802.8394089854278,808.631932197409,800.0227754626885
1731015495.1099763,793.9514326189037,803.0229524743576,808.565421936394,799.9328551290695
1731015495.1138458,794.8754612290344,802.4660542689522,808.4993178196806,799.8420779320194
1731015495.1138935,795.6372679263786,801.596495058183,808.4346441427854,799.7508641209208
1731015495.1177557,796.7955314361175,801.1425893974541,808.3709180713909,799.6597178262533
1731015495.1216657,798.4108884745269,801.5990740314171,808.3073100471075,799.5686096140328
1731015495.1223044,800.0186070143787,802.92769730569,808.2433592083333,799.4763158832691
1731015495.1255755,800.8998249315221,804.6719730268411,808.1790499952667,799.3806181200814
1731015495.1294856,800.5480476368849,806.3380858110127,808.1145657714229,799.2802133031568
1731015495.1295376,799.1311967128227,807.6996628416747,808.0500577947652,799.1778287018305
1731015495.1333954,797.5997706104833,808.7936305907335,807.9855668389938,799.0816116805295
1731015495.1373055,797.197883037509,809.6810855246563,807.9210620588162,799.0004884588019
1731015495.1411922,798.5985458437212,810.2502478929421,807.8565070059161,798.932246355035
1731015495.141215,801.3314113288374,810.2573923267286,807.7918918462597,798.8520364680826
1731015495.144745,804.0776167179984,809.554106237525,807.7272206098767,798.7186443615827
1731015495.1451254,805.7076699147148,808.2882877427355,807.6624776029829,798.5132176544973
1731015495.1451817,806.2155738266896,806.9064856893218,807.5976121030296,798.2979296964644
1731015495.1490352,806.6831951003194,805.9427838155652,807.532574246797,798.2379674317775
1731015495.1529453,808.2304176105291,805.7203567806523,807.4673992145532,798.5130612646111
1731015495.156855,810.8746336995549,806.1501700360078,807.4022722530434,799.1216599750185
1731015495.1600802,813.3908427941858,806.7745248561316,807.3374552579802,799.7548507037949
1731015495.1607652,814.3719243202751,807.0703983730405,807.2730024743619,799.994541314167
1731015495.1608255,813.5316270078742,806.838423586715,807.2084021901258,799.8120754030085
1731015495.164675,812.0102655085342,806.3823638047486,807.1425678891206,799.8820800684523
1731015495.1685853,811.3594945779731,806.2806489970194,807.0746544906368,801.2209705209516
1731015495.172495,812.1225060760687,806.8709226372827,807.0056066403263,804.3241185496898
1731015495.176405,813.289326803442,807.8704163528924,806.9391589308765,808.59594407583
1731015495.1764696,813.0898283207727,808.519237082682,806.8801069244224,812.6752097128917
1731015495.178968,810.4234436197333,808.2050362505363,806.8287417467802,815.4286880653667
1731015495.179514,805.7585441847535,807.0578024077844,806.7744480718912,816.7723261909692
1731015495.1803148,800.8440807439811,805.9567693026366,806.6966573737689,817.6257359474214
1731015495.1842248,797.5184420083739,805.8737415919429,806.5815124775268,819.0164667129079
1731015495.188135,796.5369133795656,807.0811904989312,806.4508129958923,821.0325346529511
1731015495.1920447,797.2636033359859,808.907652362577,806.3773108753633,822.4847253208054
1731015495.1921134,798.3820463320959,810.2484815254315,806.4455710019456,821.6486833113885
1731015495.1959546,798.9971740065122,810.3722378320443,806.6417209663865,817.6116497273731
1731015495.197856,799.2450268067056,809.3435655712042,806.7338366869585,811.1847805404368
1731015495.1998646,799.985495740497,807.795803808339,806.2915275719656,804.5914137666682
1731015495.2037745,801.9078854007736,806.3771854471702,804.9612279170158,800.0987789854278
1731015495.2076845,804.8081667333793,805.389127550217,802.8698153377035,798.6429057450805
1731015495.2077577,807.620904210956,804.8309646558376,800.76575079926,799.5056691568357
1731015495.2115946,809.198747589985,804.6488667839577,799.6220312843975,801.2005066210903
1731015495.2142825,809.2521744234955,804.8616466654727,799.9337163701069,802.7126248447895
1731015495.2155044,808.6874048611976,805.4457200366033,801.3088691974408,804.0232320898643
1731015495.2167437,808.9807419113885,806.1414637357134,802.752656576454,805.5842787623633
1731015495.2194145,810.9811009091635,806.4311053084085,803.4474450633406,807.3902085136245
1731015495.2233243,814.0667804579042,805.7852484828713,803.3714024806218,808.6184151295814
1731015495.2234013,816.3910183613584,804.0288649109267,803.2055007749867,808.2147824279044
1731015495.2272344,816.1082429336486,801.5406175788279,803.6031710580929,805.867550879823
1731015495.2311442,812.6733306052205,799.0910229093178,804.4892509400812,802.4229808664955
1731015495.2350545,807.2534020143768,797.3994801540093,805.0514669620362,799.3251088644733
1731015495.2356317,802.0172022542268,796.7364639669587,804.4674116180825,797.6042083149708
1731015495.238964,798.905482119777,796.8698480278005,802.7356832978404,797.3279592662047
1731015495.2390451,798.7368578539118,797.3427529948657,800.8662032222499,797.8684448595731
1731015495.242874,801.0744756655886,797.7979390905389,800.2283880962674,798.5371841561528
1731015495.246784,804.6716708025218,798.1092766790451,801.5669874062464,798.9878679776851
1731015495.249051,808.0601817249471,798.3174264972257,804.4550205228196,799.2175053361769
1731015495.250694,810.0155258435033,798.5056414619444,807.5641838530375,799.3660008245095
1731015495.2545197,809.8937055547273,798.7222618615621,809.4778383277079,799.5451434749725
1731015495.254604,807.8680540129403,798.9700265996868,809.4304559395598,799.7841065904862
1731015495.2546892,804.942568520094,799.2302357087704,807.5522739540668,800.0581102347542
1731015495.258514,802.5728874500701,799.4866176057958,804.6378287676331,800.3346044664165
1731015495.2624238,801.9581921005879,799.7340986703982,801.7208586404992,800.5980241377914
1731015495.2663338,803.3865414351644,799.9755851993034,799.7043132121397,800.849832315871
1731015495.2702436,806.0663131353842,800.2155974279099,799.1390287819889,801.0979041921523
1731015495.2703333,808.5550503718098,800.4565261742761,800.1434029032732,801.3479590467257
1731015495.2734072,809.4927024483449,800.6983550779033,802.4316836504266,801.6012250000973
1731015495.2741537,808.2126571431309,800.9400458080844,805.425053031035,801.8562415845347
1731015495.2780635,804.9829196351458,801.1807725177906,808.4272453200697,802.1113144140836
1731015495.2819736,800.8785317708084,801.4203201868738,810.8322448382035,802.3657162041362
1731015495.2838202,797.4015645887519,801.6588746307033,812.2931959351215,802.6195982473428
1731015495.2858834,795.9624711311637,801.8966820671806,812.7679012484163,802.8734027871635
1731015495.2859771,797.3391726245798,802.1338651249042,812.4176892392959,803.1274283496034
1731015495.2897935,801.2893691908298,802.3704210750521,811.4417335327269,803.3817333171855
1731015495.2922952,806.5374087574621,802.606300001384,809.980940951119,803.6362460841984
1731015495.2937033,811.2702112773135,802.8414693975645,808.1647849108771,803.8908948441461
1731015495.2976134,814.0093299978558,803.0759330872783,806.2437087621201,804.145661888813
1731015495.3015232,814.4071690257081,803.3097175382724,804.6601466437456,804.4005669985443
1731015495.301621,813.426153753139,803.54284934502,803.947789673505,804.6556288219792
1731015495.3054333,812.6975189441238,803.7753393498622,804.4881813991971,804.9108478912455
1731015495.309343,813.4501558921777,804.007180560407,806.2748344328272,805.1662270323149
1731015495.311183,815.7500778360975,804.2383636609338,808.8347980927447,805.4218116283964
1731015495.3132532,818.5409513217169,804.4689074179508,811.3543189621597,805.6777035409972
1731015495.3171632,820.3413324219338,804.6988842541932,812.9515793821416,805.9339983403206
1731015495.317265,820.037510950628,804.9284026929735,812.996960056437,806.190645262194
1731015495.3185887,817.3410343136271,805.1575171996489,811.3748778353925,806.4473368538007
1731015495.3210733,812.8708670144143,805.3860996757375,808.5785584247337,806.7036285913568
1731015495.3249831,807.9860628556845,805.6138071793796,805.5596756509763,806.9594174970877
1731015495.3288927,804.3742862110156,805.8403195465244,803.3600239201037,807.2155582753827
1731015495.330071,803.3663178871581,806.0658593672453,802.6885846756946,807.4739030724446
1731015495.332803,805.2133764822678,806.2916132315115,803.6580346315492,807.7359427787674
1731015495.3329089,808.8322361133794,806.5193111439708,805.8006193789088,808.0001703881564
1731015495.3367128,812.3444286448365,806.7494588002381,808.3185806065422,808.2603042064654
1731015495.340623,814.1351464151774,806.9790051402333,810.4160586079073,808.5080940589892
1731015495.3445327,813.6944853177374,807.2010859104115,811.5639616282258,808.7427093353638
1731015495.3484428,811.6678942832602,807.409967659133,811.6281114454882,808.9817888407443
1731015495.3485527,809.1948709437326,807.6108969052837,810.868470116628,809.260282617471
1731015495.3489587,807.1333702928498,807.8270229690123,809.8405893190065,809.6025407010486
1731015495.3523526,805.7160017386162,808.0893851714643,809.2080878717532,809.9726287706952
1731015495.3533576,804.7210380762527,808.4018581900744,809.4743760516088,810.2458888763772
1731015495.3562627,803.8551081610073,808.6981922895823,810.7129172533052,810.270270137548
1731015495.3601725,803.0193597566381,808.8412570053315,812.4615150508392,810.0442818390777
1731015495.3640826,802.3549280937807,808.7158645326155,813.9184998277681,809.8981252405971
1731015495.3641968,802.1626743086064,808.3868147217471,814.3933690092542,810.4231626810734
1731015495.3678467,802.8134209805461,808.1595627772472,813.7505382706827,812.0161431262204
1731015495.3679924,804.652331469225,808.3815577384102,812.5343415362676,814.3584267623048
1731015495.3719025,807.8175337834224,809.0924372507985,811.6487386639968,816.4189382223459
1731015495.3758123,811.9785599704247,809.8843414897779,811.7749061576045,817.1323412558634
1731015495.3797224,816.2043590658528,810.1623068139639,812.9230294362015,816.16988135712
1731015495.3798406,819.2293765055356,809.5617275011468,814.4449119963924,814.0892703945334
1731015495.3836322,820.1035451529198,808.1361116898794,815.4923407200264,811.780545110072
1731015495.3867345,818.7903414630856,806.2186310020405,815.5548527449647,809.7874203399057
1731015495.3875422,816.193388634801,804.1935301384999,814.6675813529746,808.105219938222
1731015495.388126,813.5411576703572,802.4208373169495,813.1980040947656,806.5190821019816
1731015495.391452,811.6418165560074,801.296712214287,811.4995825918082,805.0579957787937
1731015495.395362,810.6316895243999,801.2387580248331,809.7932710594162,804.1285161234076
1731015495.3954847,810.3439248963656,802.4744585579621,808.3412317613405,804.2476782999206
1731015495.399272,810.8224794905625,804.7745172601411,807.620898336237,805.6273563200263
1731015495.403182,812.410514147396,807.4245109089425,808.17114002697,807.9279291964438
1731015495.4056225,815.3204780224238,809.571627199531,810.128956164491,810.3379855329439
1731015495.407092,819.1304921229074,810.7167595891359,812.866488673366,811.9218790736643
1731015495.411002,822.7296838953868,810.9351958171806,815.1570782608034,812.0415963464025
1731015495.4111283,824.8392589151622,810.6690470597528,815.876216452119,810.6441094839242
1731015495.414912,824.7607217689532,810.3479716262309,814.7497286954538,808.2809663514402
1731015495.4188218,822.8124096866316,810.1705605965467,812.5620924313542,805.8442269189985
1731015495.422732,820.1095689742274,810.1259060394516,810.6451447351498,804.1333072771303
1731015495.422895,817.7943653328432,810.1243969275843,810.0297081623047,803.4775529939843
1731015495.4245102,816.2447309701869,810.1000665911433,810.870621429968,803.6424234211527
1731015495.4266417,814.8501495773767,810.0388194809583,812.4811038932237,804.0707190827102
1731015495.4267726,812.5288561987588,809.9578307836363,813.8305785489774,804.2530258688421
1731015495.4305518,808.5860095521496,809.8770480994817,814.1079892430541,803.9328692708709
1731015495.4344616,803.2769268849942,809.8051757111922,813.0667383584592,803.0510359904564
1731015495.4383717,797.7335774209506,809.7406642519719,811.1050973220202,801.6110223868546
1731015495.4422815,793.4150152760998,809.6785391314824,809.121866581549,799.6791613713991
1731015495.4424164,791.4808762177195,809.6154743956565,808.1441279566563,797.4869180626195
1731015495.4433982,792.3531883194324,809.5509428997213,808.7839626088785,795.4078226092142
1731015495.4461915,795.5294488301087,809.4859615679424,810.8013626160715,793.7184310898538
1731015495.4501014,799.6884132318438,809.4215870396818,813.1553090717966,792.3687901832991
1731015495.4540114,803.1557731614711,809.3582440119466,814.6370886141351,791.0574651717113
1731015495.4576638,804.6281078411646,809.2958311679105,814.6623027975296,789.5840639810318
1731015495.4579213,803.7811282431932,809.2340951374233,813.58410367454,788.1116609280483
1731015495.4580605,801.356387839231,809.17288599454,812.2803441055896,787.0593278652203
1731015495.461831,798.6511968767157,809.1122021865676,811.4156034594828,786.783476061839
1731015495.462286,796.7591734511814,809.0521168756517,811.0353985046215,787.4498452007846
1731015495.4657412,796.067418745033,808.992699326152,810.774250511022,789.2215815170056
1731015495.4696512,796.2864609810077,808.9339832760324,810.3619962143799,792.4280120504036
1731015495.473561,796.8637061098933,808.8759752598321,809.8881298635844,797.3288678309729
1731015495.4737043,797.3891089269003,808.8186748978685,809.6049980556212,803.56671400248
1731015495.477471,797.7349908710263,808.762087646396,809.5440646191048,809.8779946982083
1731015495.481174,797.9634032526744,808.7062263358982,809.3799789240421,814.5295733081475
1731015495.4813807,798.1754639226663,808.6511069247467,808.6754176776178,816.287526325813
1731015495.485291,798.424692806706,808.5967444157624,807.2296618777381,815.1497819213004
1731015495.4892008,798.7103163557038,808.5431513906371,805.1823430573324,812.2064951767632
1731015495.4893482,799.0085787762762,808.490338582031,802.842902427274,808.7750489288863
1731015495.4924324,799.3006466558681,808.4383159610976,800.5278409632251,805.6341858043293
1731015495.493111,799.5815556072579,808.3870933644065,798.6079462395375,803.0309383135173
1731015495.497021,799.8553993122458,808.3366805288589,797.6006195047441,801.2703295958198
1731015495.5000618,800.1276051364713,808.2870868483296,797.9827443109688,801.037665482871
1731015495.5009308,800.4007819449498,808.23832116106,799.723652620906,802.8989257976033
1731015495.5048409,800.6746971240117,808.1903916817103,802.0014007802429,806.4004950390452
1731015495.5049922,800.9480426095274,808.1433060369274,803.5584514894427,809.7918432483926
1731015495.508751,801.2198663601253,808.0970713223448,803.5589464444736,810.9252028439558
1731015495.5126607,801.4899655812478,808.0516941326132,802.236986839039,808.7669410781522
1731015495.5165706,801.7585879384056,808.0071805607715,800.7371224887274,804.2942981485907
1731015495.5189495,802.0260219487758,807.9635361847903,800.2696244561743,800.0031102641914
1731015495.5204806,802.2923956544095,807.9207660572146,801.2932379687063,798.3857558286595
1731015495.520636,802.5576907476636,807.8788747030607,803.3364848308645,800.5115142051842
1731015495.5243905,802.8218407837653,807.8378661232623,805.4672744170157,805.626889614068
1731015495.5272012,803.0848044455346,807.7977437992661,806.9410662894892,811.8134086734675
1731015495.5283003,803.3465821187859,807.7585106963917,807.5544755319443,817.0410924451103
1731015495.5322104,803.6071967584397,807.7201692659204,807.5647351034893,819.9458613364432
1731015495.5361204,803.866669959038,807.6827214469042,807.368499353874,820.1154248175307
1731015495.5362802,804.1250105895909,807.6461686685002,807.2322644862999,818.0270220370259
1731015495.5378375,804.3822185869155,807.6105118530487,807.2225295212452,814.7800718482122
1731015495.5400302,804.6382986335364,807.5757514197174,807.2855777088045,811.6335997931735
1731015495.5439403,804.893274109381,807.5418872884702,807.3519536794415,809.4198787314585
1731015495.54785,805.1471876559754,807.5089188842352,807.3896018642982,808.1390337777316
1731015495.5517602,805.4000760338533,807.4768451412724,807.4028172422436,807.084932202973
1731015495.551924,805.6519240735854,807.4456645077868,807.4089121034559,805.4889795286415
1731015495.55567,805.9026361324932,807.4153749508196,807.41999826115,803.1814661323194
1731015495.5567255,806.1520881216653,807.3859739614201,807.4383882131345,800.7049581144106
1731015495.55958,806.4002903655584,807.3574585600772,807.4607356312486,798.8202198567712
1731015495.56197,806.6475714860793,807.3298253023952,807.4833490372982,797.9109627088465
1731015495.56349,806.8945442470387,807.3030702849971,807.5046908628259,797.8079759593392
1731015495.5674,807.141614098607,807.2771891516576,807.5251056409239,798.0612267065292
1731015495.567568,807.3881383358319,807.2521770996534,807.5455271813161,798.3001797072882
1731015495.5713098,807.6319946891113,807.2280288863261,807.5665547295514,798.389219722341
1731015495.57522,807.8707295751972,807.2047388358394,807.5882649831382,798.3684408894699
1731015495.5756133,808.104712397428,807.1823008461225,807.6104578585944,798.3251596375346
1731015495.5791297,808.3403721205015,807.1607083960066,807.6329351323136,798.3113767750749
1731015495.5830398,808.5889218881598,807.139954552583,807.6556191069658,798.3310806573169
1731015495.583212,808.8564453566191,807.1200319788052,807.6785283694023,798.3650215951332
1731015495.5869496,809.1283122925574,807.1009329413033,807.7017072690624,798.3959559400482
1731015495.5908597,809.3631023766326,807.0826493182938,807.7251795671425,798.4182678590297
1731015495.5945013,809.5176259199101,807.065172607422,807.7489414349942,798.4348477302112
1731015495.5947697,809.6083595405128,807.048493933509,807.7729757390838,798.450438218953
1731015495.5967386,809.7696455256067,807.0326040565084,807.7972665481635,798.4676179091449
1731015495.5986795,810.2239159112712,807.0174933803153,807.8218046697865,798.4864276318353
1731015495.598856,811.1033158075053,807.0031519628999,807.8465858699534,798.505795879522
1731015495.6025896,812.2011657840172,806.9895695271603,807.871607058492,798.5248468847748
1731015495.6064994,812.8835527083218,806.9767354702469,807.8968639817866,798.5433409057075
1731015495.6104095,812.3469324375446,806.964638868557,807.9223510032464,798.5614662025686
1731015495.613389,810.1332318408956,806.9532684783677,807.9480619164523,798.5794819855055
1731015495.614319,806.5484275627188,806.9426127385708,807.9739906922061,798.5975202174119
1731015495.6144998,802.6259545701282,806.9326597876717,808.0001317284708,798.6155799969077
1731015495.6182294,799.5808974744755,806.9233975027929,808.0264797285236,798.6336095197439
1731015495.6221392,798.1176839852332,806.9148135468771,808.0530294934708,798.651575818525
1731015495.6260493,798.1132235644592,806.9068953802242,808.0797758056061,798.6694851834847
1731015495.629959,798.8843564562278,806.8996301863125,808.1067134216911,798.6873655674322
1731015495.6301436,799.7329685526239,806.893004720232,808.1338371156638,798.7052371783674
1731015495.6315074,800.2766782342183,806.8870052117571,808.1611417138827,798.7230936919034
1731015495.632277,800.393578995353,806.8816175509426,808.1886221031099,798.7409097869644
1731015495.6338692,800.041313388658,806.8768278758765,808.2162732197625,798.7586802712931
1731015495.637779,799.2680733257795,806.872623256443,808.2440900357991,798.7764718064293
1731015495.6416893,798.3952916452467,806.8689916224109,808.2720675499602,798.794433541937
1731015495.645599,798.0479482184642,806.8659200530316,808.3002007847751,798.8127022593002
1731015495.6457877,798.8140098600087,806.8633917562356,808.3284847859329,798.8312023887239
1731015495.649509,800.7373070552653,806.861384405797,808.3569146211075,798.8494916869516
1731015495.6511648,803.1223735477031,806.8598740705734,808.3854853773552,798.866936051594
1731015495.6534188,804.915713680965,806.8588464575839,808.414192157614,798.883394986955
1731015495.6573288,805.4012383590485,806.8583088427114,808.4430300770954,798.9000984771088
1731015495.661239,804.6421521291078,806.8582862734406,808.4719942599766,798.9196947210108
1731015495.6614316,803.3388056745671,806.8587867159696,808.5010798364472,798.9442997281536
1731015495.6651487,802.3011356329708,806.8597446318281,808.5302819400639,798.9717335880083
1731015495.6662762,802.0110976835293,806.8609964085039,808.5595957054157,798.9930093589725
1731015495.6690586,802.5422581891063,806.8623656321776,808.5890162660095,798.9963869458315
1731015495.6700523,803.7109548456101,806.8638799680225,808.618538751974,798.9808088771807
1731015495.6729686,805.1952462852937,806.8659789694889,808.6481582869415,798.9716361989401
1731015495.6768785,806.5510995351098,806.8693987104385,808.6778699838624,799.018873871963
1731015495.6770756,807.2689749201551,806.8744722644557,808.7076689408689,799.1572783154294
1731015495.6807885,806.9688487875721,806.8800880490608,808.737550239885,799.3359006105381
1731015495.6846983,805.6140318534196,806.8833664798053,808.7675089504648,799.3793333162115
1731015495.6886084,803.5450755239309,806.8814779640554,808.7975401372263,799.0802520122318
1731015495.6889403,801.3073050547368,806.8758003279172,808.8276388620474,798.4665830470125
1731015495.6925185,799.4359318334118,806.87547639681,808.8578001682852,798.0979216702408
1731015495.6927197,798.3317970387732,806.8944074409867,808.8880190437217,799.0340374099237
1731015495.6964283,798.2033468983248,806.9373549177728,808.9182903857152,802.193737617683
1731015495.7003384,799.0219876352563,806.9809348949233,808.9486090202122,807.4114155187965
1731015495.7010448,800.5420153359746,806.9704469531581,808.9789698167439,813.1167240097428
1731015495.7042482,802.4397852023578,806.8584247283924,809.0093678581386,817.2402016670854
1731015495.7078283,804.475816529904,806.6850505038858,809.0397984896593,818.7353419529381
1731015495.7081585,806.5211947861524,806.6416473810457,809.0702570153054,818.3775710238976
1731015495.7083635,808.4588478183865,807.0104321348471,809.100738014114,818.1042476865078
1731015495.712068,810.1433107313263,807.9283584856787,809.1312347659705,819.427063589183
1731015495.715978,811.5056568452746,809.1198931317459,809.1617397668962,822.2030362572685
1731015495.719888,812.643705874684,809.8990681271292,809.1922470303058,824.7286087042044
1731015495.723798,813.7106442106704,809.5712474200382,809.2227551987188,825.047803437972
1731015495.7240074,814.6794451276398,807.9571719518718,809.2532680185508,822.4254412713337
1731015495.7267165,815.2627530737478,805.5844673296314,809.2837879911701,817.8691403631498
1731015495.727708,815.1235791071706,803.3643696580907,809.314303379435,813.3880472120117
1731015495.731618,814.1941018801296,802.0086330171008,809.3447786461278,810.6502651397859
1731015495.7355278,812.8050516562063,801.6432893157282,809.3751667788678,810.0662449890899
1731015495.7358136,811.5150745625367,801.8859200387369,809.4054546208823,810.8635574296937
1731015495.7394378,810.7846414503969,802.2445452738446,809.435719097259,811.8918455046777
1731015495.7396512,810.7331343995038,802.4462562308784,809.4661270578201,812.4084570461073
1731015495.7433476,811.1304961068281,802.4511147520163,809.496804174522,812.2889229063425
1731015495.745604,811.6023963500143,802.273878204365,809.5275897767625,811.7116231274427
1731015495.7472577,811.8796376091865,801.9031636085269,809.5578827150799,810.7954413362177
1731015495.7511675,811.9104134770927,801.4075001720952,809.5869230732253,809.5742362366117
1731015495.7550776,811.796361351178,801.0358500390704,809.6146783650918,808.2467296214434
1731015495.7552953,811.6607932337365,801.1186629395592,809.6428477904115,807.3185589923987
1731015495.7589874,811.567090788605,801.8304886100325,809.6746811506057,807.3597916629273
1731015495.7628975,811.5158166074391,803.0439011038451,809.7123028644604,808.5101555334796
1731015495.764492,811.4810139838842,804.3988744270096,809.7521203054338,810.1673012224844
1731015495.7668073,811.4418233650805,805.5072855494179,809.7824461992669,811.1919635724497
1731015495.7705824,811.3927058697251,806.1513829986774,809.789716344545,810.5455554459049
1731015495.7707174,811.3382055356801,806.4073564243234,809.7756288436532,807.9217902250858
1731015495.770939,811.2843782858844,806.6610832951194,809.7746631329785,803.9476812682758
1731015495.7746272,811.2341565142892,807.4512788596184,809.8466637416052,799.8629147869322
1731015495.7785373,811.1873058450896,809.1193766959977,810.0211106003476,796.9298026573919
1731015495.782447,811.1423840876337,811.4308895998281,810.206672882077,795.9179848825231
1731015495.7833798,811.098337163567,813.4905341887008,810.1412384569744,796.8475343002593
1731015495.7863572,811.0549418841101,814.1689543833158,809.4772630162191,798.9748830387442
1731015495.7865832,811.0124764255372,812.8796995150092,808.0002692161247,800.9705373611737
1731015495.7902672,810.9712648503814,810.1739001996099,805.830166985679,801.3395558567298
1731015495.7941773,810.9314523327157,807.6175330407816,803.4452779094956,799.1345300434973
1731015495.7980871,810.8930202352121,806.887427266242,801.5231501941744,794.7430488913516
1731015495.8019967,810.8558947514118,808.6474038537665,800.7172454146752,790.1831992817355
1731015495.802227,810.8200271130935,812.0153141959433,801.4725973535093,788.347732652395
1731015495.8022678,810.785410271577,815.0494355649612,803.8978590226611,791.2596721419
1731015495.805351,810.7520574133243,815.9527437527807,807.6676539606996,798.3486063310205
1731015495.805907,810.7199794397811,814.1810942312242,811.9845879856717,806.2140106028766
1731015495.8098168,810.6891807351158,810.7106781305066,815.7131493869441,810.5602605572554
1731015495.813727,810.6596696480933,807.3038100807279,817.748369109068,809.1985381163203
1731015495.8176367,810.6314657898698,805.3051873684803,817.4828383469527,803.7247666994143
1731015495.817871,810.604586073316,804.8180992818911,815.0948183662053,798.2568570828229
1731015495.8211555,810.5790085176982,804.8105204269236,811.4729459660022,796.1407688909306
1731015495.8215468,810.5546439188477,804.0044479040458,807.8270060457143,797.4681783589398
1731015495.8254566,810.5313696483405,801.847660053372,805.1910583607685,799.549087673692
1731015495.8293667,810.5091580043352,798.871766477704,804.0357167616443,799.7335235076242
1731015495.8332765,810.4882361372528,796.259127811787,804.1469615842944,797.8662874377598
1731015495.8335147,810.4690858679987,795.0308940943949,804.8309687531167,796.1835238455757
1731015495.8371866,810.4520711965758,795.4701552554184,805.3424988880469,796.9630060670105
1731015495.8400435,810.4367415253805,797.1070782644697,805.2782976617844,800.2495925048997
1731015495.8401198,810.4213937098153,799.1249513412482,804.6870840853601,803.716771792737
1731015495.8410964,810.4038730872521,800.8006295489416,803.8665741155911,804.6635806109433
1731015495.8450065,810.3840926095068,801.7053348397156,803.0651015258184,802.2858789230403
1731015495.8489163,810.3668872728668,801.6716863349847,802.3489473378036,798.2868260801891
1731015495.849159,810.3614997174457,800.7070217319069,801.7024558140602,795.4695180522294
1731015495.8528264,810.3739777187775,798.9899479872917,801.198457880417,795.6522528261347
1731015495.8567362,810.394138206285,796.9216039233306,801.0380429068506,798.6095451923126
1731015495.8589313,810.3888573570501,795.0996988229415,801.4273295932253,802.6601230470773
1731015495.8606462,810.3198845916927,794.1492644175449,802.4326899248209,806.1447069304237
1731015495.864556,810.1929758348213,794.5019238410371,803.9486051967465,808.5356089950335
1731015495.8648028,810.1089585070343,796.2726468125418,805.7625620179775,810.4746168834066
1731015495.868466,810.2465685791582,799.260581829859,807.6079512302646,812.9456505354832
1731015495.872376,810.7161498278339,802.9630466143166,809.1659596485605,816.3150717177845
1731015495.874889,811.3398820390065,806.5537165342574,810.1036775922529,819.9024317638281
1731015495.876286,811.592222363993,808.9830270461572,810.236775573646,822.3143778943356
1731015495.8778193,810.9303946364223,809.3923143094554,809.744261920474,822.3093160445786
1731015495.880196,809.3697218466407,807.7202274011705,809.2076155013003,819.6644721378533
1731015495.880447,807.7406877084044,805.0075678045068,809.3140140145414,815.4935840069734
1731015495.884106,807.2091511052935,802.9670524135286,810.3702261780355,811.7574083298983
1731015495.888016,808.3457117650335,802.9683340188873,812.0331549933716,810.2183093630792
1731015495.8919258,810.5511972384875,805.1654551576956,813.5368774590796,811.4910760680385
1731015495.895836,812.3907483803334,808.4420835513258,814.2336032689709,814.7896458846495
1731015495.8960907,812.5959094165589,811.1771856528862,813.9579022713096,818.4671859894944
1731015495.8967073,810.9308557774833,812.2018749932909,812.941467721052,820.9153568661673
1731015495.8997457,808.270911088502,811.3023182345526,811.4954118067286,821.2551342453298
1731015495.9036558,805.8975271583123,809.1133416845165,809.8547941159942,819.5341066397968
1731015495.9075656,804.5924196840105,806.6832565412909,808.2806066083866,816.5084670115886
1731015495.9096572,804.2066307242117,805.0356983159793,807.1660167698739,813.232199895799
1731015495.9114757,803.975509570593,804.8550942728828,806.9184118812185,810.6145264889589
1731015495.9117346,803.2612390196938,806.2875892780603,807.692340551457,809.0743083571059
1731015495.9153855,802.0818370984081,808.8782457456049,809.2308573534281,808.463953042216
1731015495.9155953,801.0079159360632,811.7237904858655,810.9620345797814,808.3184195842836
1731015495.9192955,800.5928546651112,813.8574209637961,812.2810667125198,808.2153130980535
1731015495.9232054,800.9038895801782,814.7054378916483,812.8458422176742,807.9686136845318
1731015495.9271154,801.5582157077821,814.3289105664485,812.7307093097395,807.5952084065461
1731015495.927379,802.1321126014188,813.2560677258232,812.3387886025029,807.183786236965
1731015495.9310253,802.4707784077572,812.0099098233202,812.0840332783177,806.7968929533113
1731015495.9344828,802.6065871464683,810.7050520148106,812.0363948054255,806.4462304015765
1731015495.934935,802.4456146624179,809.0627788432712,811.825081229256,806.1141540807306
1731015495.9388452,801.6147963724195,806.8483673903806,810.9360840005711,805.7813621955048
1731015495.9427552,799.6882852014306,804.3494369269221,809.2071299659481,805.4398690932685
1731015495.9430225,796.6585514061803,802.4398066678502,807.1325791931216,805.0915227020048
1731015495.944426,793.2836257333252,802.1059483383001,805.7201813463931,804.7412268160739
1731015495.946665,790.9478639027398,803.7777583500124,805.9481121045271,804.3921198390552
1731015495.950575,790.9362746313251,806.9855028908667,808.1154244075805,804.0446062200762
1731015495.9533708,793.4877355461088,810.5934588463188,811.465070176395,803.6976487949984
1731015495.9544847,797.3629964354514,813.3979384963859,814.3752569181353,803.3502250691226
1731015495.958395,800.47015668315,814.654467463509,815.1337568891383,803.0019435094708
1731015495.9586666,801.2565008419826,814.2673599276162,812.9056774869921,802.6529134102522
1731015495.9623048,799.790366679422,812.6755925394442,808.2704246183081,802.3033758673678
1731015495.966215,797.5966909306247,810.5898690098154,802.9240377490893,801.9534645319246
1731015495.9701247,796.390344795895,808.6839861595284,798.728251629062,801.6031737121024
1731015495.9722586,796.8384034697826,807.3296431161248,796.7607585711772,801.2524350644702
1731015495.9740348,798.3620831402756,806.5184764930206,796.9665910825522,800.9011873588224
1731015495.9743104,799.9192121665006,806.0512400469988,798.4984671467167,800.5493901370304
1731015495.9779449,800.8674545145476,805.8435739863081,800.3462812297969,800.1970000994338
1731015495.9791949,801.2077353268292,806.0538634328605,801.7946303344556,799.8439597786434
1731015495.981855,801.2799720017093,806.9084755411981,802.5549812438031,799.490234729327
1731015495.9857647,801.3846636844974,808.4288084136913,802.7047060135319,799.1358845382377
1731015495.9896746,801.6264609339631,810.3654876157084,802.5689181207497,798.7810877032608
1731015495.9899545,801.9633163050927,812.3885400415691,802.5381975654835,798.4260164019378
1731015495.9911466,802.3173268665408,814.2843640403414,802.8161923436039,798.0705480386573
1731015495.9935846,802.6441484264957,815.9384160224108,803.2554139371598,797.7140224282681
1731015495.9974945,802.9416574635482,817.180458502045,803.4820233265935,797.3554613179052
1731015496.0014043,803.2272267616763,817.7396205423588,803.2651994883965,796.9945444106704
1731015496.0053144,803.5157544851654,817.3953847091625,802.7995240895672,796.6329252019482
1731015496.0055983,803.8117599046523,816.1571364274994,802.6075090894954,796.2744234989766
1731015496.0092244,804.1124689073114,814.2843577120451,803.1282142264978,795.9223243892689
1731015496.0100343,804.4136967748544,812.1561864206767,804.3515327645031,795.5738720565153
1731015496.0131342,804.7132580171941,810.137128733751,805.8009195523238,795.2162421518537
1731015496.0139637,805.0111828688418,808.525503073438,806.8673849423926,794.83180981003
1731015496.0170443,805.3084260705691,807.5425101943823,807.2412702363343,794.4173881800557
1731015496.020954,805.6057345488306,807.2892084461533,807.1294391518111,794.0080088973132
1731015496.021242,805.9032909810862,807.6657408791993,807.076029905628,793.6767186143303
1731015496.0248642,806.2009133804728,808.3104252532017,807.4650603279172,793.4789291996603
1731015496.028774,806.4983684403853,808.6296542752733,808.0589665446819,793.3488443582188
1731015496.0289223,806.7955374415902,807.9732051219808,808.0109222682718,793.0354971815314
1731015496.032684,807.0924153150002,805.9562698045258,806.5043812888593,792.2255956190711
1731015496.036594,807.3890402033592,802.8056085886647,803.625378825903,790.9275406648874
1731015496.0368862,807.6854397584104,799.4743971654506,800.7151347172667,789.9206312569904
1731015496.040504,807.9816192602711,797.3088536333656,799.7289782644136,790.7515405882535
1731015496.0444138,808.2775711020186,797.3486473607999,801.9406275004596,794.8321916398661
1731015496.04781,808.5732774737382,799.6938119002943,806.9626852563293,802.0169196108463
1731015496.048324,808.8686989926351,803.4107115853969,812.8613413388565,809.9761560235095
1731015496.0487325,809.1637700869284,807.0726667144216,817.2803482446404,815.3413954662909
1731015496.0522337,809.4584328153757,809.5572185243917,818.7574652423386,815.9246538360036
1731015496.05253,809.7527139798242,810.5680673439517,817.3980528468738,812.190420646765
1731015496.0561438,810.0467864204072,810.5985412303269,814.6161420439003,806.8342402313621
1731015496.0600536,810.3408995248232,810.4431715984999,812.2272022755062,802.9272971242825
1731015496.0639637,810.6351044560088,810.6170609141695,811.4476897115813,802.0816098415241
1731015496.0666978,810.9289016895099,811.0618682568477,812.3264388864828,803.8469083060052
1731015496.0678737,811.2212214198378,811.317620062429,813.8938054372221,806.4954128207758
1731015496.068174,811.5112076772785,811.004722478324,814.927219582532,808.3872440173271
1731015496.0717835,811.7997325294173,810.206314930699,814.8403728753183,808.9065199947746
1731015496.0756936,812.0904073451348,809.4179504431191,814.0763316634215,808.500219792193
1731015496.0796034,812.3879534331171,809.1245129003275,813.7030418149474,808.0611653171368
1731015496.083501,812.6927970370507,809.406198350213,814.5068953574531,808.2120977802243
1731015496.0835135,812.9947354485919,809.9155155731273,816.2892442761856,808.8963760461786
1731015496.083818,813.273643556366,810.1839745455486,817.9251745816916,809.3917078854231
1731015496.0855858,813.5155144066943,809.9319088566949,818.1454190306087,808.7004133010247
1731015496.087423,813.7407991475619,809.1403914672939,816.4446691966224,806.175605222736
1731015496.0913334,814.0199868766276,807.9378164418255,813.4438780512753,802.0786753551427
1731015496.0952432,814.4363034864298,806.5001329680604,810.4723197244394,797.6487096277613
1731015496.0991533,814.9779261692403,805.0457973647514,808.7212168583151,794.4771772918559
1731015496.099462,815.4177346025035,803.8348293776096,808.5933734735132,793.5131927680025
1731015496.103063,815.3229779792499,803.0825343731481,809.6426919029753,794.4248592258193
1731015496.1044736,814.3042518446485,802.8380663673316,811.0071950632375,795.8554907845092
1731015496.1069732,812.3783302900611,802.9522060838503,811.933671552068,796.4218019105726
1731015496.110883,810.0980277073155,803.1755759415896,812.0757451023021,795.698833035075
1731015496.1147933,808.2613908111256,803.2970498619321,811.5207829658646,794.4527209190695
1731015496.115106,807.4355021091502,803.1988948950224,810.655562901831,793.9897947076626
1731015496.1182697,807.6756274716777,802.7947489076504,809.9522591512604,795.1685672033494
1731015496.118703,808.5707996231654,801.9414068053662,809.7142489680593,797.8306758421598
1731015496.122613,809.4921501398815,800.4694383515726,809.8796084996519,801.012861814461
1731015496.1233616,809.8739734615258,798.3963164093968,810.0411642211759,803.6525253897845
1731015496.1265228,809.4114342797601,796.1899315821242,809.7427328604639,805.1462919559668
1731015496.1304328,808.1214053139123,794.7902480113511,808.8673871235998,805.3616874278854
1731015496.1307497,806.2863510419783,795.1824681341822,807.7802762425354,804.2830718301924
1731015496.134343,804.3450977046945,797.6853501436369,807.0428238123548,801.8017388420421
1731015496.1382527,802.7566300202307,801.4861358241557,806.8985648637819,797.9136494130947
1731015496.1421626,801.8177787554602,804.9134042124373,806.9852667165322,793.0713119459429
1731015496.142249,801.4813317121553,806.4070572250333,806.5689337644658,788.233585081686
1731015496.1460726,801.3305851657516,805.5330331492232,805.1372833483478,784.4709941388389
1731015496.1463938,800.8120812057981,803.261915688705,802.8599286014552,782.4419029139558
1731015496.1499825,799.5919298655481,801.2587868344651,800.5332415540868,782.1735223621713
1731015496.1530385,797.7519908363066,800.7084502643381,799.0705089813337,783.2881095282389
1731015496.1538925,795.6931069739616,801.5740402851468,798.9595457070344,785.4384137139685
1731015496.1578023,793.9060447662724,802.8277777764577,800.0783515473886,788.5777665070156
1731015496.161137,792.854040883996,803.3952758240684,801.9096580670987,792.8351516645027
1731015496.1617124,792.986486503216,803.0013381959237,803.8890437609687,798.0639390817797
1731015496.1620376,794.6717272451153,802.2606573853764,805.6273674770325,803.4328080311715
1731015496.1656222,797.9285555802769,802.046514474187,806.9740634219016,807.5270924247643
1731015496.1695323,802.1701578861866,802.7567626684424,808.0198410990704,809.1108792979344
1731015496.1734424,806.3164019050537,804.0847279995321,809.0404017903594,808.0573686474941
1731015496.1773522,809.3286970885321,805.3787322370803,810.273720223998,805.5828792278278
1731015496.1776817,810.7717139082928,806.1707121269133,811.566023381003,803.3930854772236
1731015496.180025,810.9388502947045,806.4171407348827,812.2076432082962,802.391418121701
1731015496.1812625,810.4941448584101,806.363430641033,811.28875125325,802.137609649817
1731015496.185172,810.0012082501045,806.2741894408534,808.4564795909149,801.589125540771
1731015496.187807,809.696620759723,806.2760052596664,804.4561850134235,800.4052941341395
1731015496.189082,809.5524660865926,806.3632450149685,800.8882585963544,799.5353664270225
1731015496.192992,809.4523489035539,806.4789804614556,799.2674593532372,800.5134206692919
1731015496.1933255,809.3170938584431,806.5804636034898,800.1068256774294,804.1083473945698
1731015496.196902,809.1338139475524,806.6579675173327,802.7201385593143,809.5353154104799
1731015496.198913,808.9264320399662,806.7221084341945,805.7978896415779,814.8869047531879
1731015496.200812,808.7198305295866,806.7856388373381,808.2170444061761,818.3881416436213
1731015496.204722,808.5237841711071,806.8542718387647,809.5094065542813,819.4534448043345
1731015496.2086318,808.3354749779796,806.9271308841876,809.8245343553502,818.783100722068
1731015496.2089696,808.1484355971221,807.0010589968472,809.6051396324781,817.5940870155215
1731015496.2125418,807.9586718952831,807.0738954698394,809.267915377762,816.750703796392
1731015496.2164516,807.7657489024548,807.1452616938562,809.0454511352706,816.4474867697979
1731015496.2178009,807.5710337710793,807.2157854171095,808.9977323495392,816.4489094683194
1731015496.2203617,807.3758146287065,807.2861385123343,809.1161207510993,816.4695985684702
1731015496.222576,807.180541352097,807.3565958400308,809.4047223125067,816.3771202093808
1731015496.2242715,806.9850229113179,807.4270938287459,809.8566787319597,816.1862510421741
1731015496.2246134,806.7889128695444,807.497467395595,810.3618078845568,815.9654016739988
1731015496.2281816,806.5920160880602,807.5676155355461,810.6869808601542,815.7631648357403
1731015496.2320914,806.3943275531514,807.6375325161703,810.6178275795307,815.5892182261648
1731015496.2360015,806.1959313044887,807.7072611880955,810.1609409346103,815.4304608825262
1731015496.2366889,805.9969000253105,807.7768414362126,809.5961281051016,815.2721910961185
1731015496.2399113,805.7972543906542,807.8462891608418,809.2936398590829,815.1082120969223
1731015496.2402575,805.5969728688142,807.9156035663331,809.4449976450676,814.939862117207
1731015496.2438214,805.3960234915961,807.9847849453465,809.930682479576,814.7708892182095
1731015496.2477312,805.1943986819426,808.0538464801001,810.3928557586518,814.6037422357815
1731015496.2516413,804.9921399412993,808.1228105415418,810.4018801998706,814.4387878912632
1731015496.255551,804.7893307218429,808.1916887866031,809.6036912972498,814.2752748258238
1731015496.2555766,804.5860335590552,808.2604584529953,807.85681134201,814.1124461404394
1731015496.255901,804.3821833903701,808.3290620276729,805.401023359107,813.9500205174921
1731015496.2573447,804.1775261645407,808.3974578360468,802.9707219458372,813.7881011197787
1731015496.2594612,803.9717481070209,808.4657133434804,801.648337354334,813.626895289924
1731015496.2633712,803.7648608246024,808.5340621016893,802.3626924009492,813.4665282173628
1731015496.2672813,803.5576236463637,808.6027942018437,805.253882630658,813.30701408329
1731015496.2711911,803.351440039119,808.6719193597349,809.362821100499,813.1483138097896
1731015496.2715452,803.1471813504289,808.7407910064778,812.9786689807582,812.9903940689886
1731015496.2744646,802.9432245373604,808.808185963889,814.523189808729,812.8332481222243
1731015496.2751007,802.7345134018144,808.8733280075675,813.4227221511859,812.6768835093461
1731015496.279011,802.5153657808706,808.9376193355058,810.3839040029217,812.5213004963738
1731015496.2829208,802.2869158529214,809.0055019094359,806.9020423216989,812.3664836551408
1731015496.286831,802.0645239452698,809.0820421233628,804.3734554506963,812.2124174166306
1731015496.2871892,801.8743468701256,809.1664027161719,803.4218348974788,812.0591182316439
1731015496.2907407,801.7296991396819,809.2452340577087,803.8086214670763,811.9066533886541
1731015496.2921133,801.5948330991021,809.2954787234776,804.8255131829889,811.7551043560075
1731015496.2933524,801.3723247025047,809.3049804420907,805.7874978909298,811.6044589628775
1731015496.2946508,800.9644031474828,809.3044980996308,806.3344194952388,811.4544972338751
1731015496.2985606,800.4192734235262,809.3795360115241,806.5040689113596,811.3048284487619
1731015496.3024707,800.0689745318205,809.6174664325322,806.6621704114399,811.1552251358492
1731015496.3028333,800.4671525926058,809.9792766574673,807.3151011229422,811.0061615455372
1731015496.3063805,802.0133479999063,810.1771686940193,808.7919667073013,810.8590448522056
1731015496.3102906,804.4931783141874,809.7276359808918,810.9109759088243,810.7153954895944
1731015496.3122404,807.0379534717752,808.2861946736157,812.9056949421118,810.5747740866507
1731015496.3142004,808.6989411923965,806.0703388263927,813.8073908711355,810.4328050082271
1731015496.3181105,809.1547372473434,803.9157601179257,813.1155679841105,810.2822945213896
1731015496.3184772,808.8858236230993,802.7519154466444,811.2569259037244,810.1199129755784
1731015496.3220203,808.6907933788174,802.9050520125082,809.4067761712013,809.9560764535611
1731015496.3259304,809.0137956795833,803.8853441333307,808.7333377961875,809.8178101409361
1731015496.326882,809.6368740074977,804.8566738296108,809.6120621292399,809.7308222661377
1731015496.3298402,809.9278437609503,805.3422613925392,811.4040587730673,809.6783506843137
1731015496.331128,809.4036424684314,805.5274514991787,812.9511266367318,809.5629672792244
1731015496.3337502,808.1755991592912,805.9117300641155,813.3855179063121,809.2220904401092
1731015496.334121,806.9621477557291,806.6621090513396,812.639898978384,808.5191427240082
1731015496.33766,806.6598881060961,807.2948488020907,811.324822938288,807.4308283549651
1731015496.34157,807.7485932492269,807.009295709884,810.1621660517576,805.9987700401422
1731015496.34548,809.9113632910088,805.3939561449505,809.483540206263,804.17095180453
1731015496.34939,812.1338478401906,802.8852820085789,809.1681005191318,801.7772465752008
1731015496.3497653,813.265620948205,800.5820829452617,808.955190668797,798.7907440768892
1731015496.350016,812.7174499837919,799.5623639442648,808.7448327374445,795.6382142265312
1731015496.3533,810.8228269660148,800.2242313727171,808.587286409388,793.1421796806287
1731015496.35721,808.5718535421103,802.1098571471659,808.4402384278227,792.004006440914
1731015496.36112,806.8806584381053,804.2872941230704,808.0295953024918,792.2382937347542
1731015496.3616507,805.9560513752647,805.9775418119702,807.0256217111216,793.0842864720837
1731015496.3650298,805.2742291882861,806.9871762037817,805.3968618821712,793.5176950401775
1731015496.365409,804.1849630971147,807.6926845298675,803.6057089705464,792.9710479040759
1731015496.368904,802.6031918237998,808.6544730199556,802.4397497564156,791.7118235035579
1731015496.36894,801.1669823592371,810.1693621216897,802.5721200886862,790.615209516164
1731015496.3728497,800.7264112350235,812.0603666191168,804.1460418846711,790.525998656716
1731015496.3767598,801.6494475925606,813.7992908506895,806.6616214852182,791.6841102857114
1731015496.3806696,803.5910545452908,814.8310047132181,809.2484160743787,793.6065304048896
1731015496.3810527,805.886885196553,814.8757681087003,811.1525136122352,795.4472970438006
1731015496.3845797,808.0877223981389,814.0569858261898,812.1099515856962,796.4975153597806
1731015496.387792,810.0530972097541,812.8308179868136,812.3615181067332,796.4549988575086
1731015496.3884895,811.5990175576679,811.7714562261442,812.3608060740786,795.4005812831819
1731015496.3923995,812.2703776639415,811.2949881506138,812.476167035227,793.7129638026558
1731015496.3963094,811.6723859085151,811.4409259441942,812.9207954972379,792.0938046868961
1731015496.3964195,810.0813239456652,811.845509542512,813.8313951493923,791.5511942810148
1731015496.3966968,808.6090646668206,811.9510622274066,815.2408027038011,793.0533264255538
1731015496.4002194,808.5675980038171,811.3263620313372,816.8918684050391,796.8796434435345
1731015496.4041293,810.4876446381378,809.8866982437703,818.1594548787788,802.1654689714024
1731015496.4066796,813.6382380281567,807.9019912816758,818.3251978574617,807.1795767988849
1731015496.408039,816.4825917683467,805.8553184733307,817.0505956284453,810.3048975579358
1731015496.4119492,817.7086226758856,804.2692123936317,814.6086821032382,811.0094362782306
1731015496.4123406,817.0256873178021,803.5389400378683,811.6545068374231,810.0114839392724
1731015496.4158592,815.1667839883714,803.7717162930994,808.7950411367046,808.5191435499723
1731015496.419769,813.19458540787,804.7068745091415,806.3787488669163,807.238345247617
1731015496.423679,811.7130643210703,805.8310174761089,804.600115643265,806.0075675524344
1731015496.4255676,810.5824666961785,806.6633191588885,803.6500876612607,804.2921607722856
1731015496.4275887,809.2978882753941,807.0032316305068,803.6831944151952,801.9923246170017
1731015496.4279847,807.673647993584,806.9533149463366,804.6941619103479,799.804360606536
1731015496.4311883,806.238603014622,806.7466942138977,806.530479990962,798.8274942277689
1731015496.431499,805.959959134753,806.5622923136623,809.0421395182764,799.7501823547171
1731015496.4354088,807.4477163530275,806.457039048175,812.1211070452595,802.2657567499392
1731015496.439319,810.2570956961493,806.4040164093464,815.4857336426962,805.1771305317689
1731015496.4432287,812.8995957170562,806.3584372790305,818.4277102657787,807.1192298784715
1731015496.4436283,813.6512818050859,806.2962570950247,819.9040674928751,807.348045878823
1731015496.4444554,811.6276600401795,806.2175127355558,819.0707372420235,806.0143417270681
1731015496.4471388,807.3853605831913,806.1326143305713,815.8898270307453,803.8062459929308
1731015496.4510486,802.6410923856696,806.0499402487762,811.2895826209732,801.3747563701402
1731015496.454959,799.2801708713442,805.9717644339769,806.6858917428212,799.0432978400843
1731015496.4588687,798.2784536178597,805.8963167920668,803.1907515030179,796.9222504930377
1731015496.4592726,799.2334625865423,805.8211945440187,801.0875141191759,795.1563749675431
1731015496.4627786,800.8181325735815,805.7452234578384,799.9383398311429,794.0049327692814
1731015496.4633431,801.8183634516971,805.6684900934835,799.1843061846453,793.7091116105539
1731015496.4659572,801.962098303351,805.591567869442,798.7113387180376,794.3109105657344
1731015496.4666886,801.9142478617928,805.5148802565166,798.907483491264,795.5893897565588
1731015496.4705985,802.5063031696351,805.4385208120694,800.1941274498564,797.1555452066033
1731015496.4745083,803.8962705537438,805.3623819305841,802.4790634206528,798.6214082490128
1731015496.4749165,805.3770852418008,805.2863356775888,805.0291187029308,799.6995388110563
1731015496.4784184,805.9758229593995,805.210323938933,806.8601480882598,800.1511399901475
1731015496.4822311,805.295332336976,805.1343534960594,807.2980965516134,799.6835151609548
1731015496.4823284,803.825825296332,805.0584539393632,806.2916297658559,798.0247540698872
1731015496.4862382,802.4679719015458,804.9826465394714,804.343908122321,795.2468327494593
1731015496.4901483,801.8032783353424,804.9069370115903,802.2209909653718,792.0444624542882
1731015496.4905603,801.8113669660768,804.831321097399,800.6382607841917,789.5479104749788
1731015496.494058,802.1281810441953,804.7557890956726,800.0158335766889,788.6412901153354
1731015496.4979682,802.4257154514977,804.6803259473805,800.33684739784,789.323052318123
1731015496.5007255,802.5822089210277,804.604914328804,801.1672677019177,790.714455319995
1731015496.501119,802.6360186715914,804.5295491221957,801.8756542334825,791.7397592486104
1731015496.501878,802.6688647022967,804.454258673939,801.9740788580483,791.8746782957347
1731015496.505788,802.7295642184539,804.3791082149693,801.3920896017047,791.3507476781141
1731015496.5062044,802.8221389387269,804.3041540316449,800.51380720315,790.7717547314323
1731015496.509698,802.9288000243573,804.2293486121092,799.9468217773388,790.6028705182192
1731015496.513608,803.0334902537411,804.1544699578873,800.144411582457,790.9588720473536
1731015496.5175178,803.1309323108518,804.0792106007482,801.0835161563043,791.7154882639699
