timestamps,eeg_1,eeg_2,eeg_3,eeg_4
1730218406.683941,798.2134006881772,806.0522137118198,808.6757658314089,794.3532297528456
1730218406.7191176,799.326918971543,805.8612750071239,808.5063700303633,793.9497771800205
1730218406.7241275,805.8554806106006,806.6623641299359,808.4916792746193,796.4236832301749
1730218406.7397451,816.5367214393533,808.4516186108962,808.6122035997325,801.6027303362605
1730218406.7470715,821.7670564318222,809.8478966577657,808.6274789280959,805.0815592748096
1730218406.7542944,809.1792465018383,808.7387247372192,808.2098533965852,800.2020717436508
1730218406.7550974,773.7697501367121,803.7897298636399,807.1830165453237,782.8236516670241
1730218406.7553627,725.2981179659088,795.8514584163245,805.6715833242274,756.0044689059129
1730218406.759,685.5954754798533,787.9813326966685,803.9653942860966,730.3796397241423
1730218406.7629027,675.0690720199831,783.6283612503987,802.119581809479,718.231521464371
1730218406.765964,697.2819373078518,784.1510216331774,799.6559204850298,724.5163328871611
1730218406.7668052,734.4397074312892,787.7947682520951,795.8407201725691,742.0292791646493
1730218406.7707078,759.4231714213216,791.2897157376156,790.5837627584116,755.8512868126337
1730218406.7709804,756.2448686314963,792.8575895402624,785.2647248072423,754.7301867610674
1730218406.7746103,732.5419129182777,793.8536662543656,782.5099925617769,740.4300627513405
1730218406.7785132,713.2989575168469,797.3104185208483,784.6565063757104,726.8364029703341
1730218406.782416,720.3983604491357,804.5727126051174,791.8980052054293,728.8343761971946
1730218406.7848568,754.5513534265832,813.2047518895832,801.6869897670127,749.7684192912027
1730218406.7863183,794.3131333382262,818.3334560599351,810.1049408173145,777.9167373886135
1730218406.786598,812.9578030601612,816.4585799822993,814.2714245623234,795.286360120602
1730218406.7894711,799.6565303540624,808.4725406961386,813.9623603060138,791.9447221655116
1730218406.790221,768.0389014230334,799.2815850894839,811.2886174489759,774.2548972445828
1730218406.7941236,745.237975732821,794.3271568255951,808.8771579090145,759.9186803057195
1730218406.7980263,750.1387845236163,795.8473899207892,808.0666690526829,763.4644382872082
1730218406.801929,778.4896406633011,801.7551362983669,808.3837877872988,784.1514267725153
1730218406.8022156,807.1704935354899,807.6982751668108,808.4268927410029,806.7400276983908
1730218406.803749,814.0623044211869,810.3595884032712,807.2745198540974,814.7599266099269
1730218406.8058314,796.7799374430753,809.421664511301,805.3235111674745,804.9348372421351
1730218406.809734,774.4641807646856,807.0643043953152,804.0066887233975,790.1862134628064
1730218406.8136368,771.2379972241565,805.862262381794,804.6728461595557,788.4988698547339
1730218406.8175397,795.4279262744839,806.8988507160494,807.5016308103588,807.2063270442998
1730218406.8178332,831.9986204986284,809.3532942711315,811.2888799982348,836.1200513131868
1730218406.821442,854.3277387268199,811.4870901012074,814.2670369485153,855.2393747113805
1730218406.822642,845.4712152160741,811.9871499155275,815.3161545069921,850.5747222570503
1730218406.824648,811.7045464128072,810.6711141285434,814.6360092369969,825.2565267663109
1730218406.8253446,777.6772750146987,808.3264984763312,813.4094517506916,797.21866369213
1730218406.8292472,767.1209251462751,806.098198434777,812.7760297907975,785.3929513586918
1730218406.83315,784.362096456828,804.8849239522079,812.929049094095,795.2272339959949
1730218406.8334508,811.4245800351572,804.9435329026901,813.0302052270769,814.9365664648057
1730218406.8370526,823.3038183005518,805.8074632765396,812.0235235423038,825.6004861265894
1730218406.8409553,809.1465155998513,806.6581259171552,809.726731335793,817.0431203873396
1730218406.8415346,781.6878042520592,807.0528700886666,807.2719380090604,796.3639825071019
1730218406.8448577,766.6506458708153,807.4425614308593,806.3814770226811,781.843878054587
1730218406.8487604,780.6858197160573,808.8335340591477,807.9254630910435,787.3211390350576
1730218406.8490684,816.4492302018886,811.6596585718457,810.9682785504613,810.3616934145763
1730218406.852663,847.6653889876999,814.8700032181208,813.2817568706545,834.2594003019586
1730218406.8565657,850.2808157904682,816.3433713457765,813.0812406914637,842.0042351172317
1730218406.859825,822.3322379164905,814.6456620981857,810.5476760019036,830.3249235756106
1730218406.8604274,786.1527492654656,810.7304628052582,807.7298465129601,812.1695024239067
1730218406.8604684,770.9059507760335,807.8444061326969,806.8093810346087,805.7964635868007
1730218406.8643708,789.3439197480552,809.2252322050147,808.2234499049111,819.5663261831415
1730218406.864686,827.4591102393306,815.2346763508114,810.3029877801295,844.8345579624455
1730218406.8682735,855.541880344209,822.4878148151711,810.6998291672198,862.7076282483367
1730218406.8721762,851.9290733055534,826.1684946550188,808.2885867548919,859.2090795963015
1730218406.8760788,820.2134786860895,823.9366807674307,803.9490240721259,836.5406745024459
1730218406.87932,785.8241859295753,818.1028114064666,799.7837523592855,811.2638211436858
1730218406.8799815,774.8815660576915,813.9059100826449,797.6390700003315,800.9730839301117
1730218406.8803036,792.9308284269893,815.0588798905196,798.0925624513767,810.4954206645422
1730218406.883884,821.0615730013808,820.3286993926504,800.3960897047682,828.8358893569598
1730218406.8877866,832.2322515070017,824.3093886885823,803.1061373598683,838.930255489661
1730218406.8916893,813.9644740796132,822.0017873806992,804.8922000601276,831.6989112456635
1730218406.8950014,778.7865599868438,813.3609965670065,805.1565144471681,812.8356206185747
1730218406.895592,754.2547649196731,803.7799380758372,804.2597659621431,797.3534693555176
1730218406.8959212,760.9175075262594,799.898822377977,803.2506227258382,797.0879666185177
1730218406.898213,795.9214840275118,804.219177540083,803.1896801015974,811.6250430684104
1730218406.8994946,835.2597867918892,813.1287852502697,804.4431905207205,829.7108357641276
1730218406.903397,852.9049272375115,820.0516848933071,806.4399699560349,839.3962714344169
1730218406.9072998,841.4999776235527,820.973675124063,808.1009363334756,838.0707609523241
1730218406.9112024,817.5958971503053,817.4691221262301,808.607285179567,833.7532011002063
1730218406.9115388,806.8096009573869,814.5928934691643,807.8633413133788,836.5556860617912
1730218406.915105,821.2935502693641,815.7309275232078,806.2933843437795,847.9966467212587
1730218406.9171052,848.9295367905712,819.3312692019028,804.2663709181057,858.056393571869
1730218406.9190078,863.8428182756635,820.5462201128612,801.8159281151972,853.1651648729455
1730218406.9229102,849.3674505814963,815.9809369530658,798.9972402921177,828.4960576236139
1730218406.926813,813.7264969685588,806.8147653047545,796.4888751432962,793.8487252161902
1730218406.9271564,784.8377145130111,797.5071496486875,795.661924845131,767.6726231602747
1730218406.9301782,788.202490236265,791.9017356240511,797.773247093214,763.6611439966737
1730218406.9307156,825.8287199965395,790.7122020697835,802.8550880248647,780.4384254276141
1730218406.9346182,873.3662751658442,792.1289530301514,809.3553298522918,802.398937941444
1730218406.935998,898.138832357129,793.9621814524844,815.0153319862984,811.0104235801955
1730218406.938521,884.0617699322963,795.0758249441473,818.3000118512102,797.7892048527932
1730218406.942423,843.62863518101,795.4518529222129,819.1561336378498,769.062953899737
1730218406.942774,807.222283464649,795.549519378228,818.6017148070749,739.5996399914553
1730218406.946326,798.4228871098871,795.7415495576794,817.7629393730949,721.4198806413683
1730218406.9502287,815.6356710975061,796.1290569432565,817.236423258035,717.1856701908608
1730218406.9541314,835.0047400158704,796.6327393958557,817.0629411436273,721.8867802449187
1730218406.9548905,831.5086569084527,797.1451442307275,817.0333737131792,728.8453788326016
1730218406.9580338,800.0030228883877,797.6138144790565,816.9665789530223,734.1453939230563
1730218406.9583917,758.7443400113402,798.0426997986108,816.8081694988,737.2597213324678
1730218406.9619365,733.3197338178913,798.4575299500317,816.5927361836276,739.3676880896655
1730218406.9653547,735.2249002150681,798.877326473057,816.3716784639723,741.6193929510207
1730218406.9658391,753.0077523795281,799.3063505897164,816.1715722878314,744.4254182926647
1730218406.9697418,762.7058799830476,799.7398654714418,815.9917504102841,747.6192851496664
1730218406.9736445,748.2162426700783,800.1722355327972,815.8202729736919,750.8896923509641
1730218406.9737833,714.5047680645856,800.6009694480645,815.6478314938821,754.0573918650907
1730218406.9740093,683.0165091878828,801.0264934453071,815.4720794274654,757.1118790424716
1730218406.9775467,673.486526470877,801.4502310113335,815.2951427803085,760.1217882466698
1730218406.9814496,687.3234015446573,801.873154504967,815.119755035332,763.1469487787358
1730218406.9853525,706.1240392081698,802.295444598422,814.9472158706604,766.2060913634301
1730218406.989255,706.3512508419718,802.7168386731346,814.7774092568955,769.2886494284161
1730218406.989627,678.215922878897,803.1370576462659,814.6096954109181,772.3781392836565
1730218406.9926758,633.7935983709648,803.5559998030611,814.4436210213804,775.4659070820132
1730218406.9931576,598.2311930126084,803.9737133583816,814.2791075788513,778.5521409130473
1730218406.99706,590.9948749104109,804.3902910424755,814.1162976958831,781.6407702680989
1730218407.0005314,611.4167013240296,804.8057970234427,813.9553504355159,784.7349236517516
1730218407.0009627,639.4205506882506,805.220253375441,813.7963425968691,787.8354764995429
1730218407.0048654,651.0322744378177,805.6336605808206,813.6392772135038,790.941860818925
1730218407.0052445,637.0691412914987,806.0460198343364,813.4841328150789,794.0533616093483
1730218407.008768,610.4635120833573,806.4573421687033,813.3308994212733,797.1697900315103
1730218407.0115683,595.9571549256862,806.8676461962153,813.1795863349942,800.2913782065324
1730218407.0126708,609.9070753528679,807.2769523503572,813.0302129377418,803.418288985588
1730218407.0165732,646.5832098583011,807.6852792026259,812.8827979238737,806.550257885211
1730218407.020476,682.668697992155,808.0926429539564,812.7373545849204,809.6867696017596
1730218407.020862,696.6557458100201,808.49905858934,812.5938916357783,812.8278498111223
1730218407.0243783,687.0126433744654,808.9045410061982,812.4524159022532,815.9749641106812
1730218407.0282812,673.7473671395509,809.3091054059878,812.3129341256092,819.1308796538705
1730218407.0304613,681.9034912670991,809.712767103484,812.1754532569083,822.297405248281
1730218407.032184,720.596689997574,810.1155411844561,812.0399799157075,825.4715450151974
1730218407.0357082,774.7659699642279,810.5174422934442,811.906519825523,828.6435651401928
1730218407.0360863,816.3700191092403,810.9184845936145,811.7750775899486,831.8023042818711
1730218407.0364797,826.1310252396761,811.3186818089698,811.6456567533241,834.9495971914226
1730218407.039989,808.4673324483132,811.7180472533704,811.5182599450119,838.1149244475591
1730218407.0438917,787.5391209681254,812.1165938039052,811.3928889703953,841.3492930303865
1730218407.0477943,787.4950971190233,812.5143338301631,811.2695448247163,844.6796953799735
1730218407.0493536,813.1427027229496,812.9112791253282,811.148227667444,848.0380526481928
1730218407.051697,847.1925339750597,813.3074408947867,811.0289367943159,851.2340712672046
1730218407.052097,866.2655295728912,813.7028298290047,810.911670618678,854.0696659857946
1730218407.0555997,861.6705006009183,814.0974562064264,810.7964266596879,856.616231302802
1730218407.059502,846.8909087307334,814.4913298702813,810.6832015430159,859.4671827611548
1730218407.0634048,845.5025618073836,814.8844599086669,810.5719910334782,863.5642011415322
1730218407.0673077,870.2597675882339,815.2768540746763,810.4627901094576,869.279212003065
1730218407.0677147,911.3119570330895,815.668518408921,810.3555930401108,875.0837690551625
1730218407.0682464,943.3421201742105,816.0594578450306,810.2503933653032,877.1449615456801
1730218407.0708847,945.699837150834,816.4496781861317,810.1471836835443,871.51708959024
1730218407.07121,919.3200416047765,816.839188364351,810.0459553065975,858.733476863067
1730218407.0751126,886.7783137342957,817.2280000435339,809.9466981128373,846.7260332252272
1730218407.0790153,874.9199536683052,817.6161215904273,809.849401084758,846.761651941607
1730218407.082918,893.4855655893134,818.0035476824116,809.754053666361,863.3174597847212
1730218407.0833323,927.1202495491821,818.3902538475417,809.6606470646343,887.3720618959607
1730218407.0868206,947.8979993013685,818.7762103962873,809.5691735389292,901.6399811396401
1730218407.087139,938.524185628565,819.1614211984446,809.4796220522203,894.6617410700351
1730218407.0907233,907.0414344989729,819.5459638786439,809.391971790291,871.1314246751887
1730218407.0946257,880.6853263985993,819.9299748686718,809.3061901524371,848.8162815614137
1730218407.0985284,883.9036486088131,820.3135278882468,809.2222440772794,844.5801795841368
1730218407.09895,918.548718059328,820.6964411301358,809.1401259402163,861.4195553197684
1730218407.1024313,962.0915896588712,821.0781988657275,809.0598757168366,886.8983153771685
1730218407.1060317,984.886577557708,821.4582532174023,808.981562251784,903.4052212836148
1730218407.1060617,972.6273604695327,821.8367717236986,808.9051966261312,901.4454719777435
1730218407.1063335,936.6254293996326,822.2153353368329,808.8306134987189,885.695422819394
1730218407.1102364,904.2673693006205,822.5965064411915,808.7574504430494,869.787411194447
1730218407.1141388,897.2892684852341,822.981395929969,808.6853853240358,864.4986649500333
1730218407.1145678,915.041979199061,823.3661117875881,808.614628952601,868.9553931248827
1730218407.1180415,936.2158314165097,823.7407682125518,808.5462954973063,872.0434156324876
1730218407.1219442,937.6620120436093,824.0958925624022,808.4819500440468,862.9474950540066
1730218407.1249242,914.5652454470901,824.4367304247767,808.4218994946805,841.9526589841546
1730218407.1258469,884.7113136238225,824.7951324555686,808.3630443549235,821.9719519990646
1730218407.1297495,872.981837002733,825.2185404234941,808.2988318717908,818.7628808226381
1730218407.1301854,889.2847354011858,825.7217203584554,808.2241664839498,837.4335923447627
1730218407.133652,918.9925833784799,826.2220388593341,808.1447163261398,866.485162253791
1730218407.1375546,934.4205104492696,826.5306882455444,808.0829215075148,885.0240127481815
1730218407.1412385,918.0217440590949,826.4872892598901,808.0676039868418,878.2678544141179
1730218407.141457,877.9478294643179,826.23379423238,808.1005584152816,849.4245629629444
1730218407.1438167,842.6026818238249,826.418609141944,808.1182422950767,818.1553479941458
1730218407.14536,837.8180605379042,827.9548732703811,807.9980235649732,805.873024635874
1730218407.145803,864.7602023844505,831.1335780864877,807.6598357786315,818.735833848922
1730218407.149263,897.0491773662102,834.5942715429645,807.2445657003182,842.0266246369594
1730218407.153165,900.7551885899767,835.3845680906473,807.2194508951649,851.4017127306312
1730218407.1570678,861.9567425615747,830.9069221844721,808.184474534345,832.6942506810611
1730218407.1609704,799.1939435233887,821.6099017949005,810.3384761718997,793.9999483114923
1730218407.1614206,749.8645322718526,811.731458026262,813.020317570284,759.5993482550718
1730218407.1627097,741.2892565696163,806.586940486747,814.9071813626372,750.67055448798
1730218407.1648731,770.031714633617,808.2183251419137,814.8290955324727,768.982140934859
1730218407.1687758,805.8930595570256,813.2809522322286,812.4704189836436,796.7109282291163
1730218407.1726782,816.4745455246341,815.4530544753268,808.4921938668664,811.4997364844687
1730218407.1764152,792.0053982414842,810.675000023098,804.3061571986836,803.6448796079083
1730218407.176581,751.0831349716126,800.8045571401927,801.7534438290536,781.8161970848595
1730218407.1770382,724.0847419252118,792.3881027778349,802.5011498114463,764.050290371682
1730218407.1804836,728.5992876882485,791.3544812807716,807.0420724829689,762.5306799952658
1730218407.1816022,756.6053955684553,798.0084975162611,813.8808485238279,774.635089259989
1730218407.1843865,782.8710456128025,806.5991277869714,819.8738212432668,786.7215219034312
1730218407.1882887,786.7915646916497,809.943729303015,821.9699253669176,786.6051949170774
1730218407.1921914,769.26205541699,805.2744546035716,819.2529324444662,773.9720510618656
1730218407.1926558,750.6586869493717,796.3710321942142,813.6225943495315,760.1550551831451
1730218407.196094,752.0449373432485,790.2134744358826,808.4447078102527,757.8589843964043
1730218407.1999967,775.9645390291264,791.1218969320466,806.2058246887734,769.9118935259328
1730218407.2004948,803.4109431972606,797.4589570487315,807.0244719096801,786.7328355316498
1730218407.2038994,809.6305391500684,803.5862451328145,809.0904723509177,794.5385619378416
1730218407.207802,785.4818962580725,805.0881428546749,810.5002513636292,787.1705904185471
1730218407.2082734,746.5388233010674,802.5226043117649,810.9014708520036,771.5556094417541
1730218407.211592,722.1804234283412,800.4954592123319,811.6292833245084,762.227342972828
1730218407.2117045,732.9310042281464,803.1447077668761,814.3001292322176,769.2713859651064
1730218407.2156072,773.7469831786731,810.2475000796522,819.0861659998276,789.420862322804
1730218407.2193875,816.7547399086831,817.406025910815,824.1473559099302,807.7891076631105
1730218407.2195098,832.099439769195,819.9760814952623,826.7574269636461,809.4605968411158
1730218407.2234125,811.042380434484,817.0871308123274,825.2724500669228,792.0044086178273
1730218407.223891,772.818866732279,812.1878650987485,820.3794852858181,768.5159729415867
1730218407.2273152,749.1572570461086,809.7833547029899,814.6292048646911,757.9327906219625
1730218407.2312176,758.5394563465745,811.3910435993206,810.650702816674,769.8914849046557
1730218407.2351203,791.1456919797962,814.2979350333932,809.4935458225855,796.4631974092621
1730218407.23828,816.94440836085,814.1333081700178,810.3460145578935,817.900357442605
1730218407.239023,810.3568391532956,808.9302947742137,811.647872894475,818.0849914650585
1730218407.2395086,771.3607268217926,801.0852172440705,812.4778511007659,797.3376830086966
1730218407.2429256,725.9871761460684,795.4438155516281,813.0297205863113,772.3277907510022
1730218407.2467687,705.9673722707578,795.1065729050698,813.9436710647739,763.1335126415743
1730218407.2468283,723.9467299580735,798.6232549350796,815.2933551874061,777.6433155901557
1730218407.2507308,764.0314664613109,801.1815534308569,816.2436600646746,805.5605389471516
1730218407.2546334,795.031257277493,798.9368075985902,815.6909550426237,826.7244150211175
1730218407.2551262,795.4922816850252,792.7387032215214,813.267523343535,827.0990432881788
1730218407.2571726,770.1209585748637,787.870741457464,809.7670949183874,809.5423473090871
1730218407.258536,744.3654430698846,789.8630580820382,806.5915760826191,790.5834389529803
1730218407.2624388,742.0725889941992,799.8920951669313,804.7132423220266,785.9030163071774
1730218407.2663414,765.1847483478768,813.5973989934505,804.0617920941053,796.6957062946179
1730218407.270244,792.4454267080414,824.1412468127384,803.8080330896083,808.4887664592538
1730218407.2707438,797.7405458390614,826.8641940929247,803.1768057277516,803.5235224757367
1730218407.2741466,772.1579134234722,821.9383969582819,802.01260670923,776.2709438745093
1730218407.276065,731.2911374900642,813.3898128292878,800.6938582287812,738.9830562410328
1730218407.2780492,702.4618164379027,805.6996650688446,799.6669315124868,712.695567021593
1730218407.2819457,703.5245176277568,800.6871933942962,799.1193450647097,711.4219742996661
1730218407.281952,731.0967291061074,796.8320479041112,798.9889963529895,732.7440058816092
1730218407.2858546,766.5362483857779,791.3340061761622,799.124946850652,761.8225984148731
1730218407.2863617,791.9409151106335,783.2531927804499,799.3933586389143,783.7413858993762
1730218407.289757,801.2852937362725,775.1999575917832,799.7043854566028,792.7693130604115
1730218407.2936597,799.5422726262464,771.9689021143183,800.011816219841,792.3094420420038
1730218407.294958,794.8350042926804,776.8491631059031,800.3039373591846,788.863298552469
1730218407.2975624,792.1999157685698,788.4140497448363,800.5869023319188,786.7878646906227
1730218407.301465,792.4069540109813,800.5717796776514,800.8692972631638,786.9966976621349
1730218407.3019793,793.9784918837546,806.2998701619541,801.1549224960165,788.4176812496208
1730218407.3053677,795.4160024771815,802.5593877453243,801.4429845594425,789.8162640987531
1730218407.30927,796.1554207386451,792.7262139726465,801.7311481625223,790.6663088364119
1730218407.3131728,796.3890971395759,784.4779627461292,802.0178438194057,791.0771123770171
1730218407.3138506,796.5150764541746,784.36602078167,802.3027919787062,791.3634879004754
1730218407.3170755,796.7713541687881,792.9213687431433,802.5864260360921,791.7320741187878
1730218407.3171222,797.1785118848661,804.0513231753118,802.8692003019988,792.2139380283376
1730218407.317597,797.6508563336974,809.4711563373005,803.1512801897935,792.7452606595627
1730218407.3209782,798.1105782162296,805.0109090660046,803.4325900376376,793.2612925758818
1730218407.3248806,798.531889797797,793.8940738020232,803.712984697508,793.7373175471898
1730218407.3287833,798.9274892938566,784.2325883882747,803.9923670915493,794.1812462317528
1730218407.332686,799.3186936352228,782.6402411853213,804.2707090965554,794.6100471690876
1730218407.3327432,799.7172157836911,789.191240473152,804.5480178409841,795.0339584216888
1730218407.3332143,800.1233392331739,797.8818763291035,804.824299605233,795.4539123826711
1730218407.3365886,800.5322876357745,802.0537323942148,805.0995452341529,795.8662542311389
1730218407.3404913,800.940135617697,800.0241330844748,805.3737338731961,796.2676483658395
1730218407.3443935,801.3458113401024,796.1390975401827,805.6468422137158,796.6569900873324
1730218407.3482964,801.7501376992312,796.5450411513345,805.9188503613581,797.0348142496032
1730218407.348832,802.1541844585277,803.5283795987721,806.1897427251613,797.4019804808311
1730218407.351636,802.5583955049018,813.386106999988,806.4595063999719,797.758886618428
1730218407.3521993,802.9627081541714,819.6253857376529,806.7281295150718,798.1054733576183
1730218407.352299,803.367140036107,818.6574191302853,806.9956002230794,798.4416611430382
1730218407.3561018,803.7721627226989,813.0145944877753,807.2619058134214,798.7677087138507
1730218407.3600044,804.1783919583481,809.2603675059487,807.5270318447102,799.0841092951908
1730218407.3639069,804.585617237978,812.3349844264615,807.7909625441695,799.390949010062
1730218407.3644495,804.9919376197242,821.1699182364533,808.0536842120524,799.6871546298987
1730218407.3678095,805.3943822547299,829.3408844833806,808.3151911957,799.9705783120432
1730218407.3705285,805.7919680422328,830.2375407321252,808.5754893049356,800.2398177737863
1730218407.3717122,806.1898978274755,822.426787178952,808.8345881982382,800.4973562257942
1730218407.375615,806.6002905239097,810.7882533403523,809.0924790202321,800.7511885071971
1730218407.3795176,807.0338025664388,802.5713229982038,809.3491101513843,801.0105763232865
1730218407.380067,807.4822627703173,801.6927641252825,809.6043938145243,801.2743356901339
1730218407.38342,807.9056544110981,805.9373445656997,809.8582748947692,801.5187868868909
1730218407.387323,808.2481340049687,809.2204762013673,810.1108444769442,801.7024359441632
1730218407.3874755,808.4983141413488,806.8512069223046,810.3623923693499,801.8027736157901
1730218407.3894212,808.7648969901858,799.3216247436667,810.613241308741,801.8743030925775
1730218407.391225,809.2780911335458,791.5531222723286,810.8633142372897,802.0716155060329
1730218407.395128,810.2163581345807,788.5077337748655,811.1117095949169,802.5576465631967
1730218407.3956847,811.3788130393187,791.1408379373567,811.3569126401771,803.2783017660779
1730218407.3990307,811.9752911734632,796.1446871876758,811.5981792917188,803.7542125305255
1730218407.4029331,810.9969722937183,799.3681721306394,811.8376361305619,803.2163095916944
1730218407.4068358,808.403914279916,799.5380868448059,812.0809936207962,801.3480285652333
1730218407.4083138,806.5022179314924,798.9383875385657,812.3339955452564,799.3716534952886
1730218407.4107385,809.8076922582429,800.7846657639284,812.5941082422296,800.3921749341264
1730218407.4113023,821.731986522867,806.0340646595637,812.8432108876026,807.6248474779949
1730218407.4146411,839.1409903834115,812.5223681852261,813.0532239555396,820.6171027137726
1730218407.4185438,850.2843819856068,816.8608126895197,813.2136048356076,832.7090968459179
1730218407.4224465,841.7098438554037,817.0954433441938,813.3695882852294,834.075400997018
1730218407.4226525,810.9755877270952,813.888454008712,813.6293440703774,819.9021234528791
1730218407.4263487,772.7028482050845,809.6616951237456,814.0869034381765,796.4714297379927
1730218407.42692,749.4424144803999,806.8246344283313,814.6565120669128,778.1467849162145
1730218407.4272065,753.758093968239,806.4949936694353,814.927414682577,776.6065202834652
1730218407.4302516,777.3697677402903,808.2792155376613,814.2332850877013,791.3533535812251
1730218407.4341545,797.5208416233581,810.8483171332714,812.0286748148934,809.9310210785161
1730218407.4380567,795.7905787543217,812.8222744083388,808.3701084685893,818.1175891198208
1730218407.4419594,773.5830836564028,813.5759412538733,804.0989927975561,811.6633426141609
1730218407.4425375,750.8823475772105,813.5954245030939,800.4950219894671,799.4433009749786
1730218407.445862,748.9175655426106,814.0601095871831,798.5992680596031,795.1327815638255
1730218407.446099,771.2998713510176,815.7440480309597,798.7007573594095,804.6316775357081
1730218407.4497647,799.7714019598584,817.9947699961003,800.3573317355424,820.3225121477186
1730218407.4536674,808.4421045386091,818.7829465457249,802.8672141158567,827.2487349641577
1730218407.45757,784.948185019256,816.1259630786743,805.7407634278467,815.9152758788285
1730218407.4578292,741.3967402486737,809.9545091060513,808.8041943207592,790.847788372756
1730218407.4581552,706.3223865439638,802.8005162205363,811.9808781177236,767.7565246350792
1730218407.4614725,703.7680325266094,798.3625146791014,815.0661614563993,761.5307822187517
1730218407.4649918,735.358614988318,798.7480619272939,817.6917378262801,774.6022455798147
1730218407.4653752,779.0131053724192,802.6129921941009,819.4211511905229,794.9753031575177
1730218407.469278,805.5946380673045,806.0775482057144,819.879922470845,805.7511776355402
1730218407.4731803,801.0573239825919,806.0812361076165,818.9507860284759,798.794079294802
1730218407.4737728,776.7763258858863,803.452660312277,817.0264763617399,781.4219947908896
1730218407.4770832,759.4544978921178,802.7397656221864,815.064780173629,770.2436500631347
1730218407.4809856,768.4414716528107,808.4346547159882,814.1403398869141,776.9085874418946
1730218407.4838843,799.1150802911136,820.573313603188,814.6302737122176,797.7161451495065
1730218407.4848883,826.3857343766534,833.6566945949187,815.726640071027,816.122859124705
1730218407.488791,825.6765817445183,840.2492201293937,815.9049156036508,816.3299817227592
1730218407.4893904,794.0280871352905,836.5863208071127,814.1493676677368,796.6994392117122
1730218407.4926937,753.7846541349197,825.6356995553496,810.9270544486004,771.859325526084
1730218407.493006,735.6479074192695,815.0379869786873,808.0047796386847,761.6990858983864
1730218407.4965963,754.6648984027881,811.5227504618523,807.1901006841862,776.0117693309952
1730218407.5004988,798.3507640230084,816.221649434314,809.0079612175896,806.8482030493612
1730218407.5027769,836.4018257727023,824.478003324446,812.3472191268488,834.4902779908618
1730218407.5044014,844.2625231791502,830.0459584284673,815.2808349836329,842.3806304259687
1730218407.505008,821.7381341087051,830.0581658973532,816.3592834336891,829.4186840398226
1730218407.508304,791.763393181496,826.6885814783701,815.406087311451,810.021838302933
1730218407.5122068,780.5567953972744,824.3966320816176,813.3169544772618,801.9733804308144
1730218407.5161097,795.8017031642835,825.4781528837357,811.1621918045925,811.965567811741
1730218407.520012,821.1454096423771,828.0142838678883,809.415609823476,830.6984531766502
1730218407.5206256,831.3866575609007,827.9973250884979,807.9571538437191,841.4074711811429
1730218407.5216696,815.0686100109277,823.5458753522524,806.722176889453,834.4214709432521
1730218407.5239146,785.0856180886761,817.2310335666949,806.1989895466426,815.5007254708393
1730218407.5278172,768.3510085483688,814.2907895437266,807.131259347748,801.1957646316945
1730218407.5281827,783.2729672672276,818.2487989318009,809.669235956735,805.2521767503727
1730218407.53172,823.8785534836678,827.7890764206674,812.8835009641824,827.1901920317478
1730218407.5356226,863.9039148564806,837.6207396374427,815.2348199687898,852.2745987703947
1730218407.5362432,877.7399695469251,842.5632004005632,815.6206800090928,863.0082909956207
1730218407.539525,861.0985963119739,841.3497480653413,814.0623366873435,853.0870231918665
1730218407.5405622,834.1496563608024,837.0492145643645,811.5064428377166,832.5381608495826
1730218407.5434277,824.1820685830141,834.0290111611662,809.0588534820963,819.5676447430989
1730218407.5473304,842.1233711591972,834.2648752821932,807.3602755597846,825.4967425909988
1730218407.5512333,872.9134777867728,836.1044774902637,806.5065788095488,845.2859169253339
1730218407.5518608,888.3294239582032,836.2584332574501,806.3744660633524,861.873449006796
1730218407.5551355,871.6462421762105,833.000947163277,806.940042957981,860.9173459935116
1730218407.5590382,833.1250077870085,827.7180092146126,808.274527783521,843.4422495843929
1730218407.559455,802.9690755663034,823.6090887952935,810.205045505148,825.5027958620957
1730218407.5629408,807.3740626622175,822.8820055651901,811.9571329921209,824.9941279124065
1730218407.5633595,847.2316552699976,824.9261246812137,812.2437920903709,846.5815854027903
1730218407.5668435,896.6228049345344,826.8884491959946,810.0134262335323,877.2426757149801
1730218407.5674784,922.2313480503806,825.9788716788607,805.4572351023976,896.1608527632568
1730218407.5707462,908.4171540498083,821.5546945153019,800.4060827273661,891.0613021844081
1730218407.5746489,868.4766348073052,815.4583562476176,797.506826703415,867.854116291117
1730218407.5783474,833.5087180856268,810.5882787718044,798.5332167500019,845.7382382021033
1730218407.5785513,827.8761337455313,808.9472993151695,803.0426556842878,841.6108375730937
1730218407.582454,850.8151868633241,810.5527684028058,808.476109833131,856.4251016637129
1730218407.583096,878.6943240341973,813.7427123766886,811.7209699651788,874.7099054415213
1730218407.5863566,885.5825428593873,816.4229666975397,811.0316813342411,877.6494096167387
1730218407.5902593,864.9493604942575,817.3888844635758,806.9707494881249,858.81253651272
1730218407.594162,834.7983831887805,817.0357762801294,801.8192081502934,829.4860402351671
1730218407.5972402,822.521643273519,817.1243640798348,798.0163904389321,809.4571680255266
1730218407.5980644,842.2641541454482,819.6140846047512,796.7733601990135,811.2248353294876
1730218407.5985365,883.1235418503882,825.0784768512636,797.7157719679927,830.6341163973274
1730218407.5987136,917.3547540915783,831.7658407761872,799.5840739972635,851.1063960975803
1730218407.601967,921.8792792960093,836.3195943741614,801.3176043352955,857.4372415494823
1730218407.6058698,896.1277506130273,836.0721986623425,802.7272500725991,847.7271092737957
1730218407.6097724,862.1139737779765,831.3110044951633,804.3766930535133,833.8953173140471
1730218407.613675,846.5513605286015,825.4534574407475,806.8655081243497,830.6556828555688
1730218407.6143312,859.2868349410105,822.5102436445707,810.072043372149,842.3489811588397
1730218407.6161327,885.6556765719497,823.6288031442652,812.9153449165831,858.873888511708
1730218407.6175776,899.1741544679578,825.7350827203989,813.8675926145834,864.2697979804025
1730218407.6214802,884.084911901287,823.8821133613387,811.9478766268219,850.4997748089046
1730218407.625383,848.9145517244474,815.7170599786479,807.5331055884592,824.2919500377557
1730218407.6292856,819.7602299550244,804.2506102505489,802.355690654413,801.133688808573
1730218407.6299489,819.0909553096083,796.1721452968945,798.6023067202992,792.3723219006033
1730218407.6331882,847.6868386248681,796.7658395260422,797.7046726504353,797.4908196940268
1730218407.6337128,884.0897108067377,805.6959326245201,799.6441223529566,807.5213927140022
1730218407.6350255,901.1494390090994,817.3775555537708,803.1734748895748,814.0520900265569
1730218407.6370907,885.7793203032761,825.5841304415405,806.6742757503578,814.559087183181
1730218407.6409934,846.5166610140691,828.0884801070054,808.9847179915555,811.2682538469988
1730218407.644896,804.4086992588262,827.2226541670517,809.6987305395866,807.3631995018027
1730218407.6455665,776.6762616101175,826.2680128536408,808.9388384873447,804.5497968804295
1730218407.6487987,767.164221988215,825.5952688520365,807.0090903079864,802.8653474752045
1730218407.6527014,768.9759157744437,822.4359028559784,804.3187358071172,801.617241797622
1730218407.653918,773.1402245489361,814.2172156230146,801.5738299201254,800.2353741125659
1730218407.6566038,774.6776639292962,801.7617441887734,799.8543744934307,798.5596738034803
1730218407.6605065,773.2009884496149,789.091696086695,800.2369437367072,796.7067389059803
1730218407.661184,770.4623904760084,780.3126698263143,803.096122729914,794.839396942105
1730218407.6644092,768.0139365469679,776.822629873398,807.6613797210521,793.0386924374851
1730218407.6683118,766.343753112503,777.1546796325123,812.3176567955802,791.2999398988543
1730218407.6688895,765.1749653469184,778.8297661781509,815.5267881382206,789.5845868363058
1730218407.6722145,764.0739559799224,780.1330862925057,816.6875221433692,787.8636653433379
1730218407.6728108,762.8103239656791,780.6212342750723,816.3012361891255,786.130480214072
1730218407.6761167,761.384816188394,780.6325310244296,815.409451326105,784.3921469178972
1730218407.6768017,759.8969674596544,780.6163053779557,814.8321277085083,782.6573263510243
1730218407.6800196,758.4265052837782,780.7844097884428,814.7828400933014,780.9299887334466
1730218407.6839223,756.9947600390759,781.1127971323339,815.0155259154332,779.2096655923464
1730218407.687825,755.5845714167392,781.4905657724079,815.2102509618142,777.494333105981
1730218407.691703,754.1728985037787,781.838608155651,815.2255139019023,775.782624905708
1730218407.6917276,752.7485139987558,782.140846375648,815.1011722490155,774.0743740458794
1730218407.6924193,751.3122312509388,782.418309516631,814.9379660783566,772.3700981844886
1730218407.69563,749.8694817753383,782.6948179360705,814.8024115973042,770.6703522849788
1730218407.6995327,748.4242430179761,782.9804943267433,814.7055893850056,768.9754290153005
1730218407.7034354,746.9773411426843,783.2732376558873,814.6281068161037,767.2853960293235
1730218407.7040665,745.5276950331548,783.566996294555,814.5496865712647,765.6002548146453
1730218407.707338,744.0740466510458,783.8577940718512,814.4623781218176,763.9200521617126
1730218407.708037,742.615817812396,784.1450251443437,814.3685148032064,762.2449008134711
1730218407.710596,741.1530548968464,784.4299061865149,814.2734035898892,760.5749475812087
1730218407.7112403,739.686017281011,784.7136738591802,814.1803227203757,758.9103395887115
1730218407.7151432,738.2148750862799,784.9967991479422,814.0896382966364,757.2512136776745
1730218407.719046,736.7396500104844,785.2791298318896,814.0002437277366,755.597705949166
1730218407.7229486,735.2602989895372,785.5603429974844,813.9110982996473,753.9499639788581
1730218407.7236545,733.776792816923,785.8402480007812,813.8218470208803,752.3081442158566
1730218407.7268512,732.2891138463502,786.1188354318695,813.7326582745883,750.6723890539411
1730218407.7294886,730.7971978886046,786.3961857146946,813.6438267307733,749.0427996586338
1730218407.7307537,729.3009153506688,786.6723743502637,813.5555235490592,747.4194417445576
1730218407.7346563,727.8001837589959,786.9474360659499,813.4677660500653,745.8024180560352
1730218407.738559,726.2951962420311,787.2213791374189,813.3805006373179,744.1919879187856
1730218407.739243,724.7865611869519,787.4942142608407,813.2936823339386,742.5886208859698
1730218407.739272,723.2750221542487,787.7659695453223,813.2073027662647,740.9928188467827
1730218407.7424617,721.7606116630823,788.0366817380415,813.1213783296721,739.4046584689528
1730218407.7463644,720.2417249126595,788.306371773087,813.035929235502,737.8233484443699
1730218407.7483811,718.715357878702,788.5750279619605,812.9509692570402,736.2474647389733
1730218407.7502668,717.1797085291817,788.8426267204734,812.86650793713,734.676420929408
1730218407.7541697,715.6384929234049,789.1092030117708,812.7825559452168,733.1126741933931
1730218407.7548895,714.1029752479382,789.37493000088,812.6991235019597,731.562435644484
1730218407.758072,712.5857276084789,789.64010425732,812.6162094827848,730.0318680987299
1730218407.7619748,711.0842203551875,789.9049343437604,812.5337910938356,728.5183123117263
1730218407.7658775,709.5646081535896,790.1691805926429,812.4518331129858,727.0027012280035
1730218407.767274,707.9695433290456,790.4319726043235,812.3703290551374,725.455766455042
1730218407.76978,706.270536710071,790.6923051334498,812.2893552549971,723.8673140930017
1730218407.770507,704.5478603919348,790.9503909008209,812.2090752365328,722.2866260048521
1730218407.7736826,703.0184275594697,791.2090401924368,812.1296218021449,720.8300511859738
1730218407.7744198,701.902277373501,791.4730971666592,812.0508663194792,719.6013443788947
1730218407.7775853,701.1081734471213,791.7451744565745,811.9722613020207,718.525169618786
1730218407.781488,699.9569906126948,792.0189762321,811.8930825121189,717.2217168688594
1730218407.7853906,697.399999975633,792.2767170975089,811.8132486075026,715.162633137348
1730218407.7861247,693.0862203123885,792.4998228973269,811.7342928604158,712.2652091580389
1730218407.7861664,688.8996590131867,792.6949790647415,811.6592760038968,709.6745471909857
1730218407.7892933,689.4969378360919,792.9180270573348,811.5903621242348,709.9448836818895
1730218407.7931955,700.1741050058702,793.2581406056715,811.5244810367126,715.8635089016707
1730218407.7970984,722.4628305690521,793.7526698689347,811.4508430132225,728.3839869846244
1730218407.8010013,751.0772342229861,794.2647048717384,811.3563716279966,745.5699258308899
1730218407.8017423,776.0762495013005,794.4526042256822,811.2416475062489,763.9006176501402
1730218407.8049035,789.5866741245786,793.9999799023991,811.138088154758,780.8382340686967
1730218407.8050592,791.6250117516611,793.1240822372898,811.102904535291,796.2277310384155
1730218407.8088062,789.9277330545838,793.0136765401836,811.1693019868865,811.4366233260496
1730218407.8095963,793.8545447326027,795.5303898538851,811.2637665900619,827.2686931835739
1730218407.8127089,807.2967433003216,801.8276797916241,811.1633799567718,842.4700477882488
1730218407.8166115,826.08056402444,810.7652972641847,810.5971303401692,853.9701492169397
1730218407.81736,841.6470573685921,818.9194001163554,809.5005603187449,858.8206811249
1730218407.8205142,847.9476158788985,822.8182527538411,808.2139750450553,856.7382765381708
1730218407.8239515,846.099523125608,821.5766875789848,807.3458206080244,851.4895120866585
1730218407.8244169,843.1282693086154,817.4751055812923,807.3511965708249,849.599245850741
1730218407.8283193,845.8414029315162,814.0912740016853,808.235568260458,856.4898510858544
1730218407.832222,854.9266688451441,813.8186612822082,809.6278589528325,872.439896076512
1730218407.8329775,864.3108000025933,816.7590632499074,811.0068106462927,891.6543306820722
1730218407.836125,866.4246812879477,821.397590494736,811.7923778484949,905.8201335303527
1730218407.840027,858.9332850229755,825.9618163153655,811.372047089131,909.9012836461307
1730218407.8428445,847.1790324179684,829.217044823003,809.3335306873734,905.7369903885465
1730218407.84393,840.2169507350935,830.4447174108442,805.8894695932063,900.4701444153787
1730218407.8447733,843.6811653558121,829.2836961389872,802.0687195564022,900.9594150100557
1730218407.8478324,855.2923105215257,826.0406536129487,799.3047988009174,908.6463237053392
1730218407.8485951,866.6613995924754,822.1832219733487,798.6238405301247,918.9669831176017
1730218407.851735,870.0352167227039,820.1106032611094,800.0926030904967,925.5647576922916
1730218407.8556378,864.6409425137908,821.8076055888247,802.9631308413659,925.5166522472064
1730218407.8595405,857.400156356705,827.2433540402355,806.2673958925235,921.0524738310643
1730218407.861737,857.1379689925777,834.0083228756007,809.2513970176782,916.5146713621397
1730218407.8634431,866.8205985756153,838.8032632545275,811.3740725950023,913.6492425133763
1730218407.8642128,880.345586470205,839.7087296813065,812.1619048973265,909.7367244134127
1730218407.8673456,886.925901838972,837.367258334526,811.3142241969815,900.2934674693722
1730218407.8712482,879.7647177751118,834.1698987196617,809.0383146177178,883.808590352404
1730218407.875151,861.9366976892621,832.3160905748927,806.2164052622539,864.2198113293449
1730218407.8790536,844.5735779782162,832.4579550128849,804.0990080301613,848.9523713757314
1730218407.8798304,838.72394266185,833.8304990667507,803.6337286286072,844.0898530767299
1730218407.87995,847.2339534833707,835.2914396030205,804.8526320142684,850.3150303404684
1730218407.8806298,862.7757667325645,836.074378420123,806.7409106360719,862.4085928491594
1730218407.8829565,873.3768520121369,835.7527765886219,807.7530545553751,872.5447002588546
1730218407.8868587,871.3163190935273,833.9620758301769,806.7573872482099,875.23095339689
1730218407.8907614,858.8272721837479,830.6220389120878,803.8483630533791,870.6807634436103
1730218407.894664,846.266415288499,826.5883598788658,800.4431592591313,864.2494905800411
1730218407.895448,843.9572217122715,823.8397787006613,798.517869635876,862.1846476205435
1730218407.8985667,853.914681251183,824.5023166270528,799.4457496547595,866.8004400702046
1730218407.8995223,868.0496640135093,829.1743414016163,803.159347851278,874.8591801725848
1730218407.9024694,874.4635785397853,836.0069576469825,808.1082783756293,880.4187208449728
1730218407.9063718,866.8831307254934,841.664715889782,812.027140845418,879.6503917811029
1730218407.9102745,849.6099306961238,843.6784038821017,813.1486838367589,873.530803756757
1730218407.9110656,833.9645930503664,842.2275536459061,811.2286043811336,866.3533244862442
1730218407.9141772,829.1866940331407,839.647357853442,807.6956760271843,861.7529622992046
1730218407.9151268,835.2704519964514,837.99714799287,804.6853213447978,859.9252730712649
1730218407.91808,843.5038019126773,836.9917750151818,803.580262291849,858.2968063107584
1730218407.9184153,844.0592140030024,834.4149447433522,804.2212914895604,854.635329847564
1730218407.9219823,834.2427761204985,828.7530636174192,805.4444838979823,849.5128475509803
1730218407.925885,820.5976262433093,821.4628240695088,806.3625345996916,845.8341975400373
1730218407.9266832,813.2092451408001,816.4171239074097,807.0883741995416,845.9006339224297
1730218407.9297876,817.0461001661331,816.7238069703338,808.2321560412473,848.7326628304368
1730218407.9336903,827.6724385094401,821.7741192529875,809.8437075239217,850.227309635283
1730218407.9373076,835.031651566165,827.3860819989522,811.0439213284593,846.3025141700708
1730218407.937593,832.142274879768,829.1263342338295,810.7800578490652,836.5228519457839
1730218407.9414957,821.2765911477694,825.9336769567554,808.9020734427204,825.1104511942667
1730218407.9423008,812.2768310897835,820.8512861371105,806.4448125040717,818.3251441435501
1730218407.945398,814.3811754434173,818.2907095352139,804.8475629353369,820.2017451306054
1730218407.9493008,828.4293907520081,820.3223750805732,804.8661614470519,829.9270258144807
1730218407.9503036,845.8780831495689,825.2027370961464,806.1416261509167,842.6436876626436
1730218407.9532034,855.3019272522176,829.1907227690141,807.7247796590428,852.6817146880647
1730218407.9562004,851.0763047054534,829.7828010849497,809.017196549818,856.6579766203621
1730218407.957106,837.5047156473164,827.4448321670554,810.277343910696,854.5877148140294
1730218407.9579184,825.4245422590833,824.5248583775847,812.2554732965883,848.9466972559011
1730218407.9610088,824.0274269669492,822.6805851614533,815.3020835147461,842.7706139559103
1730218407.9649112,834.0484348899416,821.4014946273201,818.7856594408365,837.8930020485724
1730218407.968814,847.3264407975786,818.9643794483915,821.3937237365212,834.026960546682
1730218407.9727166,852.9425460923885,814.6813326192079,822.0759242734656,829.1262053907192
1730218407.973536,845.2303235281072,810.0224388286214,820.790576176675,821.0225074223985
1730218407.975093,827.6420719465963,807.3944948598005,818.4263936887147,809.4554624891606
1730218407.9766192,809.7572450308458,807.80141191301,816.0518832224034,796.934896817785
1730218407.980522,800.0021947174482,809.7817680292925,814.1995312931041,787.4294659407685
1730218407.9844244,799.7817736238869,810.7292613670329,812.7372524243474,783.6279728499318
1730218407.9854803,803.382859337481,809.3166477469103,811.2843263247047,784.9747322493218
1730218407.988327,803.3731456560126,806.6822617895883,809.708685442936,788.254740526113
1730218407.9891536,796.9348022116078,805.2779685247548,808.3049350185656,790.3241640530977
1730218407.9922297,787.9837521103931,806.5117865173623,807.6058391181264,790.6092640878092
1730218407.9939854,783.4855137760455,809.4118206314571,808.0523752673301,791.1570201975729
1730218407.9961324,787.2036071093254,811.5473024038006,809.7610911398612,794.24193216509
1730218408.000035,796.2242036392748,811.3225663134523,812.4706134840308,799.7703035339002
1730218408.0039375,803.2053181853397,809.4430459380613,815.606386250651,804.9088220560036
1730218408.0047712,802.4116807994752,808.1011049317515,818.3875820097256,806.3352054368031
1730218408.0078402,794.4073243588375,808.6513519531273,819.9877972124943,803.1206569693463
1730218408.0117428,785.5179879606649,810.1226444871601,819.8088259271171,797.6619831185203
1730218408.0128782,782.6626333988696,810.1570260269887,817.812731820113,793.7907559460294
1730218408.0156455,787.9111843268779,807.5010689298452,814.670879284908,793.6411622198942
1730218408.0195482,797.0623890779073,803.5270829643645,811.4994752179019,795.8990743395233
1730218408.0203888,803.066203707817,801.1960756426818,809.2702408967194,796.8532136257285
1730218408.0206573,801.3582784930805,802.4224207703838,808.3215311843221,793.3510980224478
1730218408.0234506,792.9995317415787,806.3257901834328,808.3390911750796,785.2884079893155
1730218408.0273533,783.4454262736998,809.9159830297821,808.7443514156616,775.7361036400896
1730218408.031256,778.1241111011409,810.4669299192292,809.1045775210694,768.718346621381
1730218408.0317707,778.3534985533055,807.4568251495222,809.2805996936886,766.4444919085857
1730218408.0351586,780.8129224584085,802.5769690000901,809.3335400443499,768.1243195780952
1730218408.0360065,780.9443159926919,798.0988278652192,809.3682385874381,771.1564663289535
1730218408.0390613,777.378407045846,795.1684012317061,809.4414545313491,773.5296027623862
1730218408.0429635,773.4933953435851,793.4074926886433,809.553367113522,775.2856068541186
1730218408.0468664,774.5885263726524,791.8939974404175,809.6795731278111,777.7582825463833
1730218408.0506637,783.006983504809,790.3627917230035,809.8002969487059,781.3702229450662
1730218408.050769,795.4477006989416,789.3826583487095,809.9100857709705,784.1997865260589
1730218408.051624,804.8828034663794,789.3973731013552,810.0130377875304,782.8997738585628
1730218408.0546718,805.5672953168483,789.7853443243375,810.1147867199306,775.3421690489535
1730218408.0558338,797.0624937822861,789.1546802805188,810.2180982032629,762.6434403754913
1730218408.0585744,784.1153818644456,786.7608147327679,810.32276949805,748.6602104552323
1730218408.0624769,772.7113017257306,783.5802427064181,810.4274415270548,737.2737777082016
1730218408.0663795,765.6979607042454,781.7609035323026,810.5311008501818,729.7630633133197
1730218408.0672417,761.5777308600863,782.8296518745262,810.6335098637471,724.5012145674297
1730218408.069556,757.2675648752135,786.3892763681761,810.7349069127121,719.1722940732961
1730218408.0702822,752.1596436864156,790.5710453803867,810.8355788575449,713.5091004089952
1730218408.074185,749.6372861419862,793.7251263258488,810.9356452292175,710.1072037801213
1730218408.0780876,754.4149569404092,795.6405897346615,811.0350695676268,712.50840353783
1730218408.08199,767.8161209854491,797.1675377853514,811.1337654571012,722.018525780569
1730218408.0828593,785.0845077413095,798.7694497598768,811.2316815837049,735.7549671885185
1730218408.085893,797.331588075435,799.5965456395929,811.3288236017116,747.5339690754499
1730218408.0884488,797.1144361259031,798.1729898322236,811.4252226361727,751.2756788251893
1730218408.0897954,783.841157122728,794.2235720543628,811.5208794574796,744.9829679714225
1730218408.0910106,765.1252926416103,789.9292360279643,811.6157228162881,732.8262754558292
1730218408.093698,752.7054293268584,789.1344449654914,811.7096297232602,723.6137193703918
1730218408.0976005,755.0667841097782,794.6842180290716,811.8025394451449,725.8238700771911
1730218408.098477,771.4262058593563,805.8374003742389,811.8946165736022,741.7869299743165
1730218408.1015031,791.4973160550489,817.991984251082,811.9862976159773,765.0152230273167
1730218408.1054058,801.9734231800323,825.3046886238998,812.0780054443685,783.4442046557814
1730218408.1073413,795.785111882464,824.4513818489132,812.1695086771542,787.3640439371334
1730218408.1093085,777.4894043498014,816.7523552192673,812.2593855123406,776.6609681080057
1730218408.1132112,760.3613819182759,807.1124605961396,812.3455083211205,761.4564337029547
1730218408.1140945,756.9380797756834,800.687740513484,812.4271976054988,754.857441320034
1730218408.1171136,770.1618843807589,799.8192738805337,812.5081284705591,763.1148772248768
1730218408.1210165,792.0227937051782,803.2831156168894,812.5967629369326,781.1281416090561
1730218408.1249187,810.4234486312542,807.8770408434116,812.7003973470773,796.9496983113874
1730218408.126187,818.1310165841356,810.6563309289711,812.8130065537927,801.2524064122694
1730218408.126234,816.3295342602909,810.1439077819673,812.9063210047022,793.6812474435775
1730218408.1288216,810.6034723329611,806.2604340886171,812.9413781832186,781.2601822301535
1730218408.129712,804.0878730132026,799.9280876955675,812.9108600147532,771.2509824868597
1730218408.1327243,794.6214384571526,793.0828873323308,812.8913368249331,765.3055522284246
1730218408.1366267,778.3618662578721,788.6512927253132,813.0420819590022,759.7383400530698
1730218408.1405294,755.8575778253415,789.5177506335103,813.4796720023696,750.706799845986
1730218408.144432,734.1903292262523,796.5242050968826,814.040868835544,738.8293122822308
1730218408.1451266,722.6500524957305,807.0962393476592,814.1148331317925,728.9599367046975
1730218408.1453297,725.6332252801758,816.2413617774341,812.8330233354321,725.8160111269326
1730218408.1483347,739.1008264605827,819.7758771061934,809.7079859162661,729.9147697753065
1730218408.1522374,753.7213368768937,817.3784858334658,805.2954849693494,737.5205363875863
1730218408.15614,762.0221460767184,812.8217353243462,801.1432671599205,744.3129575929042
1730218408.1600423,763.6940838996067,811.0045822152548,798.7872358694452,749.2372483785924
1730218408.160947,765.0137250019313,814.1611249259045,798.5576059042421,755.1727558468201
1730218408.161364,773.1973149959061,820.29699472491,799.3337972668547,766.0291199332427
1730218408.1639452,790.3328528090115,824.9530378158439,799.5671978752123,782.878185823069
1730218408.164019,811.5853037431169,824.6580502968286,798.6550657804771,802.3909396336076
1730218408.167848,828.8977906965584,819.2740513591714,797.3804304484785,818.8923725076156
1730218408.1717503,837.147210862654,811.659702983129,797.0395806065246,828.4587421662953
1730218408.175653,837.8575098516293,805.4067529390771,798.1555882723464,831.8951249751539
1730218408.1765647,837.5827389545279,802.7382644221329,800.0203132420121,834.2973739373459
1730218408.1795557,842.4228857383652,803.9656872027684,801.3917967508766,841.4915480380087
1730218408.182912,853.2834715058084,808.1580700305498,801.5175756648084,855.955645795628
1730218408.1834583,865.7578084646226,813.7960221022392,800.4866140131987,875.1572972887074
1730218408.187361,874.4959419254313,818.9142707786341,798.7880748247612,893.41175414448
1730218408.1912637,878.0730051086971,821.387139852957,796.7716178143029,905.7666387058157
1730218408.1921823,880.0177509118568,819.9870013949055,794.5796165065741,910.9948396982091
1730218408.195166,885.1288964020815,815.6333526482757,792.3924347231567,911.6196446183438
1730218408.1965408,894.4622349512929,811.4164697468561,790.4795773746977,911.326907419685
1730218408.1990688,903.657632854133,810.7663534870372,788.9418632823349,912.1177379874133
1730218408.2018046,906.4234907976547,814.9566225225564,787.5500340391558,913.4825036276585
1730218408.2029717,900.4312666410518,822.1113697282236,786.0235570051175,913.9325990310778
1730218408.206874,890.4979325455001,828.7997665313945,784.5224953271445,913.1873260634939
1730218408.2078,885.8833916407916,832.950712238638,783.7572120457435,912.8952957649012
1730218408.2107768,893.3862345934265,835.4272002786792,784.4402615661946,915.2138480684295
1730218408.2146792,911.6976855261955,838.7033684192098,786.5163360789791,920.5614830357475
1730218408.218582,931.7977811759712,843.8320521750566,788.9510266568776,926.6708081055797
1730218408.2206972,943.3457310115666,848.656815011632,790.4202784993197,929.9950105714331
1730218408.2224846,942.0580097644042,849.192171719603,790.396615052319,928.471552702209
1730218408.2234178,932.2730744130627,843.1464169473924,789.6898374375414,923.3855765590234
1730218408.2263873,922.9107065638947,832.4576758052407,789.9153963963,918.6941367236279
1730218408.23029,920.3414539203457,822.4528217290889,792.2719463888683,918.179739553661
1730218408.2317176,923.9092128515236,818.1870541990297,796.597464118176,922.5892350860622
1730218408.2341924,927.4392785123671,821.0034808530748,801.4394341972004,929.0575054066434
1730218408.238095,925.1859658559156,828.0947153833254,805.0525048542729,933.4172031402995
1730218408.2390354,917.1797000763131,835.1196696675704,806.5333111203366,933.6516382965174
1730218408.23959,909.4410622402092,839.3313354764531,806.2656513167342,931.6053331413943
1730218408.2419977,908.6742862344463,840.6148837208099,805.4460934562286,931.2795785896515
1730218408.2459004,915.7283646650045,840.1509727687355,805.1643747949606,934.9100660552135
1730218408.2498033,923.5383642187019,838.6420350721894,805.7686888059926,940.1884098285559
1730218408.2537055,921.8909230266311,836.0254549599476,806.9025302778587,941.3301692433371
1730218408.254653,905.6159692464582,832.627101902738,808.005641536369,933.4805085610087
1730218408.2576082,879.5359868605439,829.9881437561619,808.7658994943771,916.9215189502725
1730218408.2584825,855.7687512179674,829.9290179903644,809.2114308875267,897.4479194254212
1730218408.2615108,845.0706918904714,832.4480896434571,809.5310895461953,882.288435042856
1730218408.2654135,848.7749359218624,834.6817412380326,809.8784948987702,874.5984416565313
1730218408.266894,857.5622789284772,832.557315360216,810.3005993451858,870.913581766925
1730218408.2693162,858.0939714524069,824.2552496584146,810.7706368286354,863.8640174755175
1730218408.2702706,842.494736455959,812.5035110735233,811.2473722406863,848.2566097495641
1730218408.2732186,813.510390134586,803.2900752887388,811.7092920685465,825.522821724928
1730218408.2771213,781.7123992334314,801.6004168233499,812.1568744487057,802.5653865624201
1730218408.277375,757.6034009205484,807.5519404601592,812.5997900183698,786.1339850945881
1730218408.281024,745.2723071111371,816.130814401796,813.0456455592035,778.1452356374411
1730218408.284927,741.9479974207469,820.7213893410684,813.4964314670849,775.7897117289687
1730218408.2858882,742.1068903583365,817.544195865614,813.9505026330663,774.9596172375639
1730218408.288829,741.6590125222457,807.67166377023,814.4057006656597,773.1313208558528
1730218408.2927318,739.3689079936509,795.5399246631399,814.861015812795,769.9010233052786
1730218408.2962675,735.8968789370878,785.5813126196946,815.3165825752236,765.9836022478083
1730218408.2966344,732.2719561803,779.5909174627366,815.7729618713925,762.1135870241832
1730218408.300537,729.0277807351684,776.3725678656294,816.2305657216376,758.5703390007716
1730218408.3015058,726.1480812538182,773.3552190978642,816.6895038103011,755.2615709172917
1730218408.3020709,723.3892397809431,768.6944742926962,817.1497078481497,751.9925092217007
1730218408.3044398,720.5617764982034,762.4363124736722,817.6110960408338,748.6459672480513
1730218408.3083425,717.6177716741234,756.2106040062204,818.0736476170327,745.2113820883872
1730218408.312245,714.6000800631355,751.9127724137198,818.5373875254579,741.7307149901853
1730218408.3151605,711.5638175605976,750.4140149292601,819.0023436810662,738.2423968404116
1730218408.3161476,708.5349704929712,751.2085437510847,819.4685327913668,734.75945091886
1730218408.3171234,705.5108195296154,753.0685560657023,819.9359891544844,731.2759743667459
1730218408.3200502,702.4780714689027,754.9560343067408,820.4048029880149,727.7817595705806
1730218408.323953,699.4272711563281,756.4571326540458,820.8751050346973,724.2712774468048
1730218408.3278556,696.3566033157488,757.650462788126,821.3469531606333,720.7446201523555
1730218408.331758,693.2687502085604,758.7660453683488,821.8201681329759,717.2043928413781
1730218408.332741,690.166726836049,759.9516788810959,822.2942978205249,713.6528050005093
1730218408.334053,687.051896035933,761.226354561149,822.7689332653796,710.0906762827472
1730218408.3356607,683.9241955181698,762.5415166962589,823.244381335236,706.5179108622207
1730218408.3372476,680.7831992849951,763.8498606642333,823.7221865871262,702.9343262424147
1730218408.3395634,677.6288415604972,765.1342083087904,824.2045427260297,699.340096599412
1730218408.343466,674.4614224657031,766.4011243516832,824.6919765456917,695.7356704662338
1730218408.3473687,671.2811517571256,767.6633478415284,825.1803802673163,692.1214050293815
1730218408.3483586,668.0877800446167,768.9283874823701,825.6608424740188,688.4972962716371
1730218408.3512712,664.8808480492439,770.1968904461445,826.1262362364427,684.8631519491433
1730218408.3529456,661.6606990958727,771.4662305774376,826.5839519562436,681.2193084869238
1730218408.3551738,658.429596272505,772.7340975260892,827.0644198512377,677.5674561828962
1730218408.3590765,655.1914329505614,773.9998432572447,827.6074586215033,673.9105251499784
1730218408.3629792,651.9486560076386,775.2640231865466,828.2169141931156,670.2506079073598
1730218408.3639762,648.6972400263901,776.5274486581918,828.8075682065607,666.5853755248488
1730218408.3668818,645.4244558660685,777.7906227406828,829.2115561093983,662.9062079159661
1730218408.3707843,642.1163753719602,779.0536942564585,829.314877022181,659.2030194928675
1730218408.3718383,638.777100751761,780.3166619297925,829.301108850535,655.4776340685999
1730218408.3724244,635.4473076921109,781.5795536837085,829.7994381386119,651.7576008735415
1730218408.374687,632.1942340318726,782.8424773102921,831.6231409998659,648.090952639342
1730218408.3785896,629.0497900440607,784.1055841986565,835.0223273815327,644.5042461953011
1730218408.3795938,625.9179368825748,785.3690320351818,839.00764659721,640.9361722373923
1730218408.3824923,622.5451906053523,786.6329958759544,841.6226409392581,637.2108244147743
1730218408.386395,618.6808068782619,787.8977089372764,841.2434011897705,633.1420565108982
1730218408.3902974,614.4452186912902,789.1634608923741,837.7806750110722,628.7909991020485
1730218408.3907309,610.6468175651158,790.4304862142237,832.6840281607009,624.7051964891664
1730218408.3942,608.5163046266252,791.698770475351,827.8979858907519,621.7662449383549
1730218408.3952117,608.4667983770876,792.9679622767552,824.7906318005085,620.3446825991758
1730218408.3981028,608.3732312278737,794.2376659146165,823.7639828458823,619.0612478752676
1730218408.4020054,603.183753558248,795.5081934505654,824.469276484516,614.4009150486606
1730218408.405908,588.0386282443947,796.7812884258088,826.183955097451,602.7730382666194
1730218408.407601,564.5344663209607,798.0597286744586,828.0685195694323,584.9631394574399
1730218408.4096236,544.6800754287153,799.3448979284096,829.2906840023716,569.3729109877709
1730218408.4098103,545.4723312086493,800.6331623498434,829.112052638322,568.97971595034
1730218408.4108293,575.0498407866091,801.9147346775522,827.0229624196146,591.9439985524796
1730218408.4137132,622.6835758115527,803.1799772683903,822.9563453433612,633.5334494567533
1730218408.417616,664.4554404177484,804.4338492941188,817.4976666494003,677.7695808328266
1730218408.4215186,681.9503892030962,805.7083003372953,811.8880195882399,708.6268030328941
1730218408.4254212,677.7043526673116,807.0518723953166,807.6457783399059,721.4819208459287
1730218408.426447,672.8384818466246,808.4814010974379,805.8768853355745,724.9510413714303
1730218408.428516,688.0673214551274,809.9157798056325,806.651991844931,731.7201816795806
1730218408.4293237,724.6122587589733,811.1643679766462,808.9212904893873,746.7306986811416
1730218408.4332263,762.2516728763127,812.0596558697958,811.1428844899874,763.3057824645973
1730218408.437129,776.779639062657,812.7335359626225,812.252954116925,770.5105677571436
1730218408.4410317,761.8354073789537,813.8286608557255,812.2406247099893,764.8767016165975
1730218408.4420643,735.9516389106485,816.2595100932168,811.8150931180098,755.7090307698164
1730218408.442778,728.3513453586695,820.2977305088135,811.4031917609489,758.8095422350283
1730218408.4449344,755.2026876390933,824.4905514373754,810.3814669446492,783.4763761297492
1730218408.447409,806.1383900087216,825.7857785870538,807.3701163997654,823.5596670443554
1730218408.4488368,852.4103748002,821.762910577572,801.5336298728777,860.4679188662495
1730218408.4527397,870.219578195846,813.4774585964683,793.8375979549469,876.5917567256288
1730218408.4566422,860.0045896354792,805.7908486936306,787.0310576507061,868.9044065299336
1730218408.457682,845.454404204392,804.1251458794659,784.0792317232657,851.6251351777189
1730218408.4605448,852.8817802535998,810.4093263004644,786.1320392683491,845.2195286130737
1730218408.4644473,888.4211938713579,821.9139695508042,791.632556840613,860.30552977801
1730218408.4663014,932.5670159644292,833.7506265711465,797.284110452969,889.6251756320911
1730218408.46835,956.7309316125263,842.4939684788163,800.081244929648,914.7253369433031
1730218408.4722526,947.670494428481,847.8954602752947,798.8592887519071,921.6453267764097
1730218408.4732995,919.1028852638761,851.8388386263734,794.427209798846,912.3189963600361
1730218408.4761553,900.8135001490846,856.0277471002004,788.5847797587787,902.127743747558
1730218408.4779546,914.3811308015328,860.4477881427938,783.0109205124052,905.9244313961366
1730218408.480058,955.5591412804763,863.5319940062839,778.7391631486066,924.7601895849771
1730218408.4839604,997.7323739138238,863.5527029952412,776.2545970560169,944.9908844516845
1730218408.4851942,1013.5981852474654,860.1046589269749,775.833594377755,950.7372488272104
1730218408.4878633,997.342831878694,854.7035398206388,777.752177187372,938.8614896707396
1730218408.488917,969.1283645851581,850.1008134334407,782.184117594365,923.0170950049624
1730218408.4917655,958.173176087514,848.645414167006,788.8398047383254,922.6031921161297
1730218408.4956684,978.407114068532,850.6957516684575,796.6259070529029,945.8243902395288
1730218408.499571,1016.8908241353007,854.2386657360508,803.7041658495749,981.6444992848042
1730218408.5034735,1044.5198841589668,856.1353083275841,808.1212430483217,1007.9456783174151
1730218408.5040867,1039.9847517674964,854.204850890462,808.7406478164562,1009.1952961984672
1730218408.5045347,1007.2734688586606,848.7061014811561,805.8864520921469,988.8632869969446
1730218408.5073762,972.7787462038784,842.2368500032263,801.2141000750851,966.5414638352111
1730218408.5112789,964.7294470774293,838.1555400472371,796.8184899089624,962.5101942112644
1730218408.5131314,991.3510151465142,838.4980739813684,794.1252436865407,982.315658304618
1730218408.5151815,1034.6105137870807,842.6309650589089,793.2903101424222,1013.2453491985485
1730218408.5190842,1064.1030657564984,847.5526593314777,793.48745026721,1034.82423385121
1730218408.5201523,1060.2142812942564,849.8510425815424,793.810813736415,1034.6378967997362
1730218408.5229793,1028.6097972351665,848.1213665800641,794.0598134012043,1017.0749119977157
1730218408.522987,994.7422227981745,844.0055307757074,794.7977326058644,998.489576103835
1730218408.526889,982.7450852052172,840.8115743103634,796.6987328796471,993.1321230035562
1730218408.530792,995.813347327532,840.660021821552,799.7944146752716,1001.5129362088227
1730218408.534695,1014.343374282026,842.6356126089398,803.2910056199219,1010.754707671806
1730218408.53577,1013.5334892266123,843.8180285685271,806.1137159656002,1006.464917003445
1730218408.538597,985.5693502113186,842.4629341145179,807.7031859623239,985.931374999085
1730218408.541872,947.318088217503,840.2962746165215,808.3732954984025,961.2697204672429
1730218408.5424998,926.6751592357773,841.3330855608128,808.9018323047829,949.6432979395163
1730218408.5464025,938.9159524404372,847.8469387064116,809.6720401654013,958.6557562157843
1730218408.548308,972.9597486534396,857.1931016455732,810.1181205588794,979.2276719905885
1730218408.5503051,999.2711687878511,862.9324731632951,809.0772039042994,992.2304690040635
1730218408.5513875,993.2741443217233,859.9366248880065,805.9213024317817,983.843261461276
1730218408.5542078,955.3438478869326,849.2277617387931,801.5437956134282,957.1967799840608
1730218408.5581105,910.9770672441191,838.0338889059623,798.1619321348237,930.4438218286238
1730218408.5607646,890.6402887734159,834.4790133151997,797.7906786700848,922.1929044152768
1730218408.562013,905.4101961913432,841.0881486757429,800.506062693208,935.821946033471
1730218408.5659156,938.2717090236956,852.5619695043745,804.0485485240146,955.7580722236927
1730218408.5670052,958.3031093755197,859.8020217755067,805.3299641367927,959.4453719512067
1730218408.5698185,946.0807593152754,856.9298783359638,802.7669229914991,935.6976014068807
1730218408.5737207,909.3558330269883,845.6056850471018,797.5661220729097,894.4399793005566
1730218408.5776236,876.353534008784,833.3444305086025,792.9031902065822,859.6887472897411
1730218408.5796573,872.6817565761335,827.5113561703148,791.6429855149267,851.3543792743399
1730218408.581526,900.826147805847,829.9346093729938,794.3529298248698,870.3604317997393
1730218408.5826228,938.2024268139293,836.1200652324999,799.0176822390041,898.4186549292365
1730218408.583485,954.44221292926,839.1325921761099,802.5179822878198,911.9606773358291
1730218408.5854287,934.0063836842746,834.7391021786019,802.7173424575445,899.217284171222
1730218408.5893314,887.1306961839339,823.9477763539372,799.7224190804133,867.959042961631
1730218408.593234,841.6775688196137,811.5458605898224,795.5918669436331,839.0285814781648
1730218408.5971367,822.8638900863233,802.3890929944365,792.8881839711632,831.1999203918213
1730218408.5982404,836.2895495822662,798.5357235883035,793.1986800509337,848.525523445773
1730218408.5985498,866.1888326632074,799.049585564853,796.5834749762106,878.6249834289068
1730218408.6010392,888.6789854969338,801.8448033573712,802.0411238660382,902.052412404111
1730218408.6049418,888.8678867819483,805.5407000653458,808.311856488336,905.3870612663667
1730218408.6088445,869.1754568787735,809.8975292359157,814.3180050129108,889.0049914034231
1730218408.6127472,844.2481218651756,815.0166529756818,819.1429569323791,864.9689658600894
1730218408.613858,828.2566358275627,820.4431561341875,821.9587696917525,847.5004073811102
1730218408.61665,825.0473312848477,824.9740509565132,822.2354442020753,843.2580168553803
1730218408.6174426,827.8232418733743,827.1090454848661,820.1107694033344,848.133269496724
1730218408.6186616,826.8767843542274,825.6880370825116,816.5306271030288,852.1435617633314
1730218408.6205523,818.1609063745974,820.4613829964096,812.9414082783873,848.0713514805662
1730218408.624455,805.9700518347241,812.5224025802453,810.6894078726546,837.0037067487424
1730218408.6283576,798.3528057132331,804.3513706474985,810.4803792284553,826.6128163300533
1730218408.6294756,799.6112492010867,799.0647689792143,812.1497582745106,823.8922064572652
1730218408.6322603,806.2123141185996,798.8601399253156,814.7650545789818,828.5952099365078
1730218408.636163,809.4237255559555,803.4586064817506,816.9636631438051,833.0265551561224
1730218408.6363351,802.4339154202547,809.776472759249,817.4546466010911,828.4100224929817
1730218408.6400654,786.0591337375196,813.4648700013331,815.5980532193161,812.3792094492217
1730218408.643968,768.3635314099649,811.6033297811015,811.8136815490287,791.2098998303088
1730218408.6450932,758.5490066229338,804.7650788736473,807.4659606048615,775.013633529445
1730218408.6478708,760.0494892358334,796.8490305490701,804.1159287398766,770.0596723481234
1730218408.6517737,768.1952828551042,792.5468486004239,802.5547386647922,774.5039963570755
1730218408.6538384,774.0545659944572,794.1040922041044,802.3468310699878,780.6069003203071
1730218408.655228,771.3389703525609,799.7634161748193,802.310695536558,781.16360241595
1730218408.655676,761.114414671048,805.1745096332579,801.6143194117795,774.8514001999848
1730218408.6595786,750.8047004757761,806.7452310000502,800.5955758960479,766.5384221618832
1730218408.6607108,748.248821128166,804.2331446500488,800.573824448645,762.7817542045298
1730218408.6634812,755.3754634806357,800.4565418354865,802.7430477397603,766.3914837264526
1730218408.667384,766.518332296693,798.541002616734,807.0614757905319,774.374655185786
1730218408.6712866,772.8332251817039,799.3088033691414,812.1138410144883,780.6300232447046
1730218408.6741204,769.2815810154018,801.1072923710526,816.0790343105089,780.8913011859197
1730218408.6751893,758.4285765281326,801.8920611288468,817.9339813578505,775.7891927319448
1730218408.6763284,747.9674641103167,801.295849941965,817.8550538405066,769.7519679991307
1730218408.6790917,744.1850395580982,800.7383414644305,816.6262633607064,767.0251288422736
1730218408.6829944,746.8876527423746,801.7471748345971,814.8347527444208,768.2790672209157
1730218408.686897,749.8907257321475,804.272101368451,812.709703982503,770.4631984963455
1730218408.6890152,746.5255059864951,806.4900446033375,810.628281701943,769.7875266203432
1730218408.6907997,735.6972202309371,806.0900566285302,809.535720203508,765.3719006391433
1730218408.691946,723.7092927595451,801.8746643325578,810.6258934152703,760.771133942852
1730218408.6930132,720.2104077863418,794.517739650116,814.4259189426494,762.0754426111654
1730218408.6947024,730.8686155143289,786.110405404608,820.0673824560313,773.4756544483315
1730218408.6986048,751.9866165853077,778.9625037295707,825.4228126264749,793.0200565598393
1730218408.7025075,771.4225622757021,774.5383401382874,828.1146901841166,811.8079843436507
1730218408.7064102,775.9303858217972,773.1940789106953,826.7867281685791,818.1586305707501
1730218408.7075636,760.0000030842048,774.6323508846411,821.9075041687735,804.6982392828563
1730218408.7103128,729.5222236390646,778.3048844415348,815.7032097167223,773.3935737299781
1730218408.7119057,697.2386298169797,783.1797554524916,811.2448196918211,734.4105803229585
1730218408.7142155,673.4585668865612,787.2944161831856,811.0289789116208,699.3748290557058
1730218408.718118,659.4078921596551,788.1319632762021,815.6173057085701,674.2384291237771
1730218408.7220206,648.2804647494953,784.104445365535,823.0306488210948,657.1779940234835
1730218408.7231812,632.5314152202898,775.9955796766428,829.435287845615,642.4982515735628
1730218408.724192,610.9055194970973,766.8330647369859,831.0617375112672,626.5461384807718
1730218408.7259233,589.3884535567646,759.9760491142421,826.4733335760366,610.5385340680879
1730218408.729826,575.7855972760294,756.9194769460642,817.7876909962936,598.50836436446
1730218408.7307985,573.0347694546157,756.6466628419885,809.7913283527348,592.9446590823651
1730218408.7337286,577.1388969812842,756.9609054698135,807.1649844125599,592.3438243505218
1730218408.737631,581.3192852917512,756.4716479839901,811.521150577865,592.7527130928518
1730218408.7387989,582.4166242627806,755.4602971953167,820.372963791556,591.6522145172224
1730218408.7415338,583.5722842241396,755.0658970452662,828.8494152841287,590.5104423464447
1730218408.7454364,590.661211030667,755.8739698074099,832.8702494892802,593.6579584108325
1730218408.749339,605.8296184341177,757.438482029056,831.4457059076881,604.4782032868661
1730218408.749691,624.3999457044613,759.1178446591035,826.6753192394032,622.2605934194589
1730218408.7532418,638.4606443932918,761.1123366990671,821.905778365294,642.4341729057096
1730218408.7544165,644.2002389954175,764.368590256869,819.6432835830695,659.9500417304685
1730218408.7571442,646.2389360193458,769.3249285934411,820.5006578924166,672.9012199397796
1730218408.759369,654.5139151035513,774.888066363937,823.3970020240051,683.3207798095151
1730218408.761047,675.8171037152051,778.9506506168653,826.4543365417887,694.585339887679
1730218408.7649496,707.0996299949386,780.1656730944956,827.9360435304218,707.8432890268359
1730218408.7685835,736.591051278362,779.2736163152597,826.8732544286199,720.7540980758577
1730218408.7688522,752.3404429531929,778.6081738235877,823.3175218667835,729.7185133398017
1730218408.770034,751.4158629175206,780.180155189403,818.2535919665337,733.539684126226
1730218408.772755,742.2128426711125,784.097512160396,813.1867416055212,735.064677727625
1730218408.776657,737.8986580401726,788.6770594808854,809.4756006579653,739.1580284392687
1730218408.78056,746.2706591404569,791.9824671476729,807.6682919159969,748.715630536333
1730218408.7844627,764.1333637085747,793.3364613518323,807.2352694744883,762.228725060936
1730218408.7856517,780.4570205291958,793.5865143690356,806.9492763643419,775.0209485369808
1730218408.7874763,785.472499032054,794.1013256121747,805.747727264937,783.0508490132437
1730218408.7883654,778.3597832662336,795.4929833165537,803.5142211323072,786.039173651861
1730218408.792268,767.6598427322075,797.1592031843497,801.1844237292694,787.3995955592032
1730218408.7945454,764.4445965087305,797.9924554372205,800.0310913148635,791.1737813059873
1730218408.7961705,773.8503336490761,797.6148719281737,800.6268024333633,798.5129811947425
1730218408.8000731,791.5926305456568,797.005592948837,802.2929658949264,806.4595710306951
1730218408.8012693,807.9157111130254,797.8481993073754,803.5108519746652,809.9571769783679
1730218408.8039758,815.4693461750954,801.0732308670592,803.0403170970218,805.6450995983287
1730218408.8063688,814.6239969188649,805.9004628553402,800.9547514465736,794.6959134198944
1730218408.8078785,812.0899483143785,810.3175163909566,798.8446132580083,782.5457956663042
1730218408.8117812,814.39877115106,812.6276252182969,798.9802092853705,775.5201366895084
1730218408.8156836,822.0724029256884,812.7173905127052,802.8846938706499,776.7034342964884
1730218408.816887,829.5517799052275,811.9673617831395,810.1792414900453,784.1581856912342
1730218408.8195865,830.8384832717305,811.9247733543834,818.4834657436647,792.8845079401773
1730218408.823489,825.7551133509784,812.8659345749503,824.5605192947543,798.8813522401198
1730218408.8252616,821.1337960830451,813.4170601641428,826.0832982167294,801.9041310712206
1730218408.8273916,825.5741516624907,811.5496953225655,822.9112355675513,804.7014244836993
1730218408.8297222,841.9317810117975,806.2053900587766,817.0358619460782,809.650890046188
1730218408.8312943,863.7995246287985,798.330067608069,811.2745181822534,815.9422458544557
1730218408.8325045,879.2283426513777,790.5851746270081,807.6918658773867,819.8126462280372
1730218408.8351967,879.1647295851799,786.0404331756773,806.8632179873946,817.5735794147442
1730218408.8390994,864.1110282678964,786.8162262109341,808.3133692851762,808.8413140188875
1730218408.843002,843.6908459899354,793.3807001422949,811.4297750562182,797.3936262115452
1730218408.844154,829.448860628549,804.4598315590068,815.805288716909,789.1005339697838
1730218408.8469048,826.7191173474064,817.2297697352476,820.6782970091576,788.526911403142
1730218408.848122,831.968309375897,827.8862569246866,824.2617533253041,796.5069369584844
1730218408.8508072,837.1831275551672,832.9908882011227,824.1256831874686,810.102623614809
1730218408.85471,837.0305789676769,831.3505660822484,818.8576999038471,824.7510012664605
1730218408.8586123,832.7461084952979,825.1027217543157,809.7459548268118,837.0474761945063
1730218408.8625152,830.0627343843472,818.6486254014807,800.7582490047944,846.2329915694319
1730218408.863047,833.5588118756335,815.6948875603921,796.364747398687,853.4043413879205
1730218408.8637395,842.2827416743016,816.5657895324003,798.7046945093994,859.274753632148
1730218408.8648987,849.9692169476317,818.1084061160799,806.3170552957854,862.582842360305
1730218408.866418,849.4594622416554,816.4658831350306,815.3859853196066,860.7470318523052
1730218408.8703203,837.9876530658884,810.4726304245128,822.3773484503096,852.3738790461474
1730218408.874223,819.5768616350857,802.7514877240184,825.938065935092,839.5096164348467
1730218408.8781257,802.8908529416314,797.5074775969571,826.7886406869316,827.6332013213918
1730218408.879357,796.0256659269095,796.9244928048612,826.1750348137499,823.1442142916886
1730218408.8819394,801.7718918943193,799.387169882119,824.5744560687593,829.8988274252014
1730218408.8820283,816.4343885958717,801.1858401027439,821.7982462302604,846.8925830212665
1730218408.885931,832.7375419310895,800.2088514521719,818.0457726500048,868.4596034766278
1730218408.8898337,844.5213987486327,798.2285966205064,814.4843447175891,886.9778018629602
1730218408.893736,849.8126375457163,799.5834651345644,812.538702408443,896.5774514531776
1730218408.8949747,850.2340430013135,807.3370093581159,812.5518341669241,895.4963685609241
1730218408.8976388,847.6741880224702,820.2896851428454,813.2223089289996,885.5138870715551
1730218408.9000754,841.4576063075621,833.3829008676665,812.4853029890163,869.2705060673813
1730218408.9008322,828.9086035421273,841.0236138071558,809.1105564847193,848.2215204113531
1730218408.9015417,809.1306019916245,840.6050921846617,803.6444660066786,823.2292161296738
1730218408.905444,786.4565238807413,833.8048112648834,797.9638157974942,796.7825232844177
1730218408.9093466,769.5880246653691,825.2626280490787,793.9204964388178,773.7689221601503
1730218408.9105926,765.962890971051,819.9319269865656,792.2065352456974,759.1322895645224
1730218408.9132493,775.606094477501,820.6908177212657,792.1871026795023,754.2928973116638
1730218408.917152,790.0902926412283,827.167424814229,792.5613654527344,755.9617843791718
1730218408.9197247,798.356111848712,836.0630560151214,792.1916756975392,758.8921289848703
1730218408.9210546,795.1288500879791,842.8009323063014,790.6041640119822,760.2992670915846
1730218408.9249573,785.0119277462727,843.8387779539255,788.0832645539473,762.018208270602
1730218408.9262102,778.6797589155871,838.5125441670458,785.4675234356713,768.475323515511
1730218408.9288597,784.1445711727338,829.3358687012307,783.7223687767786,782.2039459862928
1730218408.9327624,800.1827369278852,820.5263589982203,783.4178569450776,800.6905792451654
1730218408.9352522,817.2228976702353,815.6649000254657,784.4030306657432,817.2410252578148
1730218408.9366653,824.9103160730173,815.9573375973985,785.9556181356306,825.348791674927
1730218408.9386177,820.2188531633952,820.1135353717494,787.3536132618043,823.2544702853173
1730218408.9405675,809.6409718749055,825.693469015195,788.4282863173026,815.1319222152001
1730218408.9418278,803.8065070440191,830.7326738450781,789.6163375037207,807.8938911431023
1730218408.9444704,808.960193956022,834.380005657357,791.4338978773088,806.0895975722354
1730218408.9483728,822.205972293163,836.3054326616366,793.8306882311256,808.971244189144
1730218408.9522755,834.291387182119,835.8909066445059,796.0692338893199,812.0513305832062
1730218408.9561782,837.4777834303156,832.4326496755965,797.3631748722307,811.6825630836446
1730218408.9574454,831.8631516383281,826.3976713959951,797.7663257018113,808.6143687840612
1730218408.95751,824.9065412245452,820.3412018398893,798.4188699657392,807.4247005879866
1730218408.9600809,824.6720058801401,818.0173510500637,800.7402148635197,812.3716110409521
1730218408.9639835,832.5844654612049,821.821690642307,805.180991543913,823.3253146345642
1730218408.967886,841.8684370232994,830.5137208125359,810.6811398809808,835.3342912949715
1730218408.9704287,843.0606282023837,839.3308863575526,815.3746506795259,842.2297961668306
1730218408.9717886,832.0441935704536,842.7953754715357,817.8989539606104,841.2563993981128
1730218408.973063,813.8806489543864,838.2845308017222,818.1453164659276,834.9300722853565
1730218408.9756913,799.1490367254739,827.7289851434613,816.9374344067257,828.7293983277281
1730218408.9764028,795.73099457525,816.1989937201741,815.1770823932092,826.6733997154269
1730218408.979594,802.8147178280733,808.4800037027467,813.3357166747699,828.4366702516274
1730218408.983497,812.0658646687147,806.1902162718457,811.5852006134885,830.2134340840558
1730218408.987399,814.9030566054039,807.4590226107192,810.1309786577982,828.4192023959437
1730218408.9886806,809.7021356227723,809.1027387603383,809.2229113656252,823.0947496559339
1730218408.9913018,802.9125928688229,809.2954866980031,808.8320148681253,818.2348364412632
1730218408.9952044,803.3153337358918,808.5565933725211,808.4240953914185,818.7840589933998
1730218408.9952953,814.3855849879953,808.5464065544489,807.1644917118599,826.6846835940956
1730218408.9991071,831.0780250101918,810.0969054809441,804.4440378297905,839.0756893887359
1730218409.0030098,843.4475175465298,812.3653653503668,800.3363333500984,850.0093476969728
1730218409.0042982,843.9497191380427,813.7383561865357,795.7000250524928,854.2942197612051
1730218409.0056057,832.6467531095793,813.4497647845427,791.9080336686109,850.542340200125
1730218409.0069122,816.6106772184775,812.3218617672724,790.3392197743042,841.3749124832785
1730218409.010815,804.4472316979655,811.9639624239803,791.7979194064126,831.1080465999972
1730218409.0141878,800.3138349073788,813.2385292140305,796.0717110925681,822.9992381828283
1730218409.0147176,801.7581137553807,815.4856212930338,801.8793898178486,817.9861060644306
1730218409.0186205,802.6117308289571,817.259767466482,807.3391768740875,815.3075528544389
1730218409.0199158,798.4720709516589,817.8493300531488,810.7957385645866,813.9862250657794
1730218409.0225227,790.5714220818539,818.0654555626795,811.6071394831007,813.8751064244069
1730218409.0264254,785.1671600711973,819.535413382647,810.4849991925906,815.6570601525342
1730218409.030328,788.944183531219,823.2479908542415,809.1597892102525,820.0292574955394
1730218409.0330806,803.8388313549121,828.7527614928415,809.4214286277339,826.7405904786041
1730218409.0342307,825.0700500058077,834.577421736065,811.9481060997992,834.1458700698786
1730218409.0355334,843.8076959931353,839.1815515621549,815.6354597554014,839.663693017399
1730218409.0381334,852.5865753910122,841.5243674760834,818.0182091606667,841.0372761480646
1730218409.0407825,849.6529566118522,841.1151816741378,816.6915267348639,837.6996425957809
1730218409.042036,839.2796217653356,838.03335203336,810.8441297739396,831.245363083815
1730218409.0459385,828.1671699337194,833.1000445993571,801.8442474080235,824.4992407896275
1730218409.0498412,821.0098065791959,827.7868899217935,792.5128258505998,819.7970486792104
1730218409.051151,818.5488704769022,823.5638515367348,785.6941832152363,817.8146298921979
1730218409.051973,818.7948081217555,821.1168731458872,783.130518101602,817.7317684116517
1730218409.0537438,819.4386241087531,820.1429882272706,785.1783614830046,818.2709180485502
1730218409.0576465,819.3187226086754,819.8362247644459,791.1298857707327,818.5891760867619
1730218409.0615492,818.4411790789859,819.5234489621647,799.5917264862545,818.4955903273373
1730218409.0654516,817.293544105462,818.9492959627313,808.6933180086427,818.1788206232998
1730218409.0667686,816.2603330491522,818.1780416039522,816.3252789943797,817.8664132674195
1730218409.0693543,815.4398321971494,817.3648468041472,820.63054338662,817.6584456564816
1730218409.070866,814.7453915689206,816.6049170141666,820.639489684715,817.5370952726298
1730218409.073257,814.0649016042877,815.9075174915165,816.6884167782882,817.4448812297426
1730218409.0759592,813.3453710335277,815.2389532386849,810.3414960856069,817.3432214176573
1730218409.0771596,812.5923794506108,814.5680316549817,803.820737584695,817.2258384144018
1730218409.0810623,811.8332554583112,813.8840867728866,799.1895152840235,817.1043486631806
1730218409.0823865,811.087661856033,813.1919155255663,797.6288556777495,816.9908889318767
1730218409.0849648,810.359741175016,812.4999438102124,799.107388548871,816.8903215398899
1730218409.0888674,809.6444351856201,811.8128734190091,802.58794153101,816.8014263482281
1730218409.0897584,808.9359473533865,811.1308483244645,806.6561710036409,816.7212104649259
1730218409.09277,808.2318377818937,810.4519437548217,810.2152027603108,816.6478646622827
1730218409.0966728,807.5326815452149,809.7745281581169,812.849557246882,816.5812897253014
1730218409.098004,806.8400343754217,809.0980947090173,814.6982974160841,816.5222482906006
1730218409.1005754,806.1549450533973,808.4229154722534,816.0311653667435,816.471456298565
1730218409.104478,805.477636238149,807.749405647027,816.9089858264331,816.4292196416822
1730218409.1083806,804.8078870525612,807.0777604750817,817.1893792160557,816.3955376255087
1730218409.1086512,804.1454692885794,806.4079362491511,816.8318280774575,816.3703445819915
1730218409.111136,803.4903171036888,805.7397911261022,816.2081789555824,816.3536512874061
1730218409.1122832,802.8424651693027,805.0732067015125,816.104398482165,816.3455338481449
1730218409.1136217,802.2019449886968,804.4081254424556,817.3188678161766,816.346044501068
1730218409.116186,801.5687892324046,803.7445286650992,820.0910073748997,816.3551572519727
1730218409.1200886,800.9431501532201,803.0824027572559,823.800258010309,816.3728315018757
1730218409.123991,800.3253824370936,802.4217213587825,827.2486044750025,816.3991865109626
1730218409.1275437,799.7158754700874,801.7624453275745,829.3943460724087,816.4346409483593
1730218409.1278937,799.114563697359,801.104530264547,829.9760444661559,816.4797674541456
1730218409.129239,798.5204341374135,800.4479329292153,829.4876075807505,816.5347117446644
1730218409.1317964,797.9317634303862,799.7926141207473,828.5274071345083,816.598456489944
1730218409.135699,797.3477091551168,799.1385392792176,827.1693836116171,816.6687980617692
1730218409.1396017,796.7707312248835,798.4856775216554,825.0278474886042,816.7440130260965
1730218409.143504,796.2074179390722,797.8339978504614,821.9880787451644,816.8260295989779
1730218409.1448567,795.6643975148972,797.1834618915589,818.8312496184319,816.9224882606723
1730218409.1463127,795.1387604509814,796.5340174830286,817.0076683282698,817.0432224927996
1730218409.1464365,794.6096361998115,795.8856033293756,817.6325099858465,817.1888741995984
1730218409.1474068,794.0447020185037,795.238173193661,820.5622254738186,817.3377592488929
1730218409.1513095,793.4319722680124,794.5917309703149,824.365020987962,817.4477512262855
1730218409.1552122,792.8241975475235,793.9463403642326,827.1965938941407,817.4903536666143
1730218409.1591148,792.348077300744,793.3020614253846,827.840654589123,817.5100878203193
1730218409.1604743,792.1182766961367,792.6588090887863,826.1536757375447,817.6563189519717
1730218409.1630173,792.055142960569,792.0162358605182,822.7705697186764,818.104302606788
1730218409.165329,791.7439208788018,791.373841252142,818.5194309552,818.8320667335985
1730218409.16692,790.5969009042876,790.7314497357523,814.0673983687644,819.3825282208193
1730218409.1708226,788.4899459409498,790.0898513358289,809.9654144589814,818.9256598585038
1730218409.1747253,786.5936943753344,789.4508894170809,806.8785283803521,816.8932729041471
1730218409.176092,787.4996144359077,788.8161347656938,805.64790136379,813.9152815109582
1730218409.178628,793.6965877632385,788.1841981529114,806.9650479225915,811.9572184665477
1730218409.1814897,804.7993041474343,787.5487820948296,810.7720226848618,812.6590830756775
1730218409.1825304,815.9868509245964,786.9012848365809,815.8513135432323,814.8308994510768
1730218409.1842215,820.2362807594569,786.2402108141764,820.1228185538909,814.0317406615409
1730218409.1864333,813.6878153314839,785.5827396718075,821.7156643941908,805.9224356734765
1730218409.1903358,799.6934093422394,784.9645086088232,820.1802749332152,791.0141682350699
1730218409.1917095,787.2704190935084,784.4123173094728,816.89152275129,776.0726685621008
1730218409.1942384,784.4570239520941,783.8936020251363,814.1871726743288,769.9542782160878
1730218409.198141,792.0410508656107,783.2855792807007,813.7642146383777,776.8781020530453
1730218409.2020435,803.2410430283484,782.4358311428263,815.481221563736,792.8595227576453
1730218409.2031145,809.6958052853828,781.3500947711498,817.43157338661,808.4845743194315
1730218409.2059462,808.4297704542728,780.4108065260365,817.2078740832735,815.8157501201173
1730218409.2073271,803.7113900389713,780.3734902615547,813.4579419542247,813.9166185858404
1730218409.2098489,802.4959747502133,781.9253398271563,806.7388672032421,808.8862026538613
1730218409.2137516,807.8328906766855,785.008842849135,799.259276091477,808.7691458225881
1730218409.2166662,816.0883262222303,788.6141777448524,793.8163793586102,817.4493216691635
1730218409.217654,820.1532036560119,791.5486630231895,792.5739576743159,831.9827106442959
1730218409.221557,815.5969291778218,793.6503113698149,796.2045363371483,844.9403702021874
1730218409.222007,804.4922364427089,796.1807623684042,803.6167838619824,849.6223181051208
1730218409.2229447,793.8745187808544,800.7802270521298,812.2935912611352,844.2068685246593
1730218409.225459,790.2590646534552,807.7961929116359,819.1835639410606,832.128976371735
1730218409.229362,794.6627167947217,815.4655547028837,821.9295386800925,819.018719755307
1730218409.2332647,802.0110274708679,820.7224372588028,819.9401965933336,808.9275761532735
1730218409.2371671,805.3128016064259,821.113240624453,814.6882821177951,802.6255935446798
1730218409.2385623,801.2841430132319,816.5281646345086,808.9503894793914,798.7325143936383
1730218409.2408996,793.0049537522542,809.6074628923702,805.3687495811698,796.1510492429259
1730218409.2410698,787.5138021879012,804.477069166643,805.1829075068397,795.4880034452549
1730218409.2449725,790.1895497407272,804.4506491662985,807.842107445809,798.3037402849178
1730218409.2488751,800.2872459642222,810.0353592183836,811.6102132170608,805.0307003622895
1730218409.251843,811.1640558408865,818.5313355450116,814.6912001196246,813.6101962805022
1730218409.2527778,815.1736963540656,825.5755420856054,816.1593207229797,820.3522386319864
1730218409.25418,809.5903925334794,827.6928230609191,816.1673009858134,822.6073076697811
1730218409.2566805,798.9771299354151,824.234528674422,815.4591274397969,821.066034270643
1730218409.259792,791.9435153342,817.5316571455214,814.714369647905,819.4710097787614
1730218409.2605827,794.496813557712,811.2921521789806,814.2198180991378,821.5496751042122
1730218409.2644856,805.0345828023558,808.3600219016374,813.9335782192946,827.513922661941
1730218409.2683885,815.1283556782807,809.2642806686999,813.7049283120064,833.2104504850953
1730218409.2697976,815.931035416731,812.3923930293993,813.43257162106,833.0098721858086
1730218409.2722907,805.4306648690136,815.5009605408517,813.1003939636032,824.3568171965239
1730218409.2761934,790.6797866126294,817.3503671267916,812.7391595226145,810.3407458328742
1730218409.2786849,782.8508897333971,818.2312058919148,812.3806096572639,798.0915528125665
1730218409.280096,788.747180258705,819.1358819621616,812.0370753448173,794.0453562468116
1730218409.2839987,805.436872833305,820.5191814151891,811.7048268165629,799.5396532487778
1730218409.2854152,822.2991474469889,821.8855970548877,811.3755434896204,809.9632521138385
1730218409.2870195,828.869193990441,822.5223144049852,811.0441108409947,818.0474465897191
1730218409.2879014,822.3098812045295,822.4657743877209,810.7099678902922,818.811236819694
1730218409.291804,808.7961381094844,822.5344743254664,810.3748409325447,812.4746821240291
1730218409.2957065,798.0953761327183,823.3058346818532,810.0403400351498,803.3359990034153
1730218409.2975774,796.0369321551275,824.1774184377352,809.7069983101399,795.9141026698729
1730218409.2996092,800.9853488706375,823.7117575848673,809.3745318027173,791.8065103543986
1730218409.3010328,806.7792353446649,821.130909662097,809.0424621339249,789.7605287428212
1730218409.303512,809.0404271377071,817.4749746570942,808.7105065559962,788.2995736407639
1730218409.3074143,809.069428509297,815.0791117334738,808.3786242174605,787.9327870719507
1730218409.3113172,811.9665049012704,815.6271623222925,808.0468843368703,790.6791299341039
1730218409.3152196,820.9126054853964,818.5076164941836,807.7153378065556,797.4822501753166
1730218409.31647,833.0028045077728,821.0394973761253,807.3839693333891,806.2029194780187
1730218409.3166504,840.6496271293497,820.4967673742912,807.0527175096446,812.3431051909085
1730218409.3191223,837.6369044010194,816.2869302929171,806.7215206572556,812.1716188931041
1730218409.3221965,824.7086932041826,810.5114767448164,806.3903542707048,805.758850373991
1730218409.323025,809.7337513285262,806.4730866190175,806.0592374332296,797.3490816127502
1730218409.3269277,801.9399038046087,806.3252853485643,805.728193058345,792.5304901501329
1730218409.3308303,804.7789953727635,809.6819028997834,805.3971685090501,794.2276860806037
1730218409.332268,813.3309002499499,814.1727559322912,805.0659723195052,800.5899630058416
1730218409.3347328,818.4926405367646,817.351113815356,804.7343303631578,806.4358348205785
1730218409.335363,814.5370844966867,818.3164324214446,804.4021332899416,807.1172439327759
1730218409.3386354,803.7742636031718,817.7682509131232,804.0697695743899,801.7923878012895
1730218409.342538,794.4491781034615,816.6606223392533,803.7381760032143,793.6809900998544
1730218409.3464408,793.6400600884602,814.9147204408555,803.4081592120469,787.346620328906
1730218409.3478856,801.0588458183976,811.5626017280097,803.079008037013,785.3032623566257
1730218409.3503437,808.8979089145582,806.2316848671186,802.7474727853524,786.5160072557653
1730218409.354246,807.9345752827851,800.4065320512168,802.4090816441517,787.6604308867892
1730218409.3542554,795.0826495948605,796.94185227556,802.062981160503,785.8691504403542
1730218409.3573732,776.4190132322802,797.9451199791279,801.7179406532582,780.7699268235853
1730218409.3581486,763.1682883601998,802.8451201509281,801.3923409846047,774.4188720699976
1730218409.3620512,763.4965835586626,808.5089526309008,801.1001991131743,769.4917921795166
1730218409.3635032,776.2654635988875,811.5203084212907,800.825066435635,767.3986860223717
1730218409.365954,791.6202349334645,810.7788359600496,800.5038003142863,767.7591860258902
1730218409.3698566,798.164312305915,808.2382177688654,800.0573322326838,769.2480714044661
1730218409.373148,791.2739157037931,807.1926501516442,799.4873863260402,770.7253583043346
1730218409.373759,776.0747752042657,809.6044989431864,798.9901525422667,771.7512748505991
1730218409.3776617,762.868545396189,814.6975819513448,798.9568273765094,772.4319637571199
1730218409.3791208,758.955338585854,819.8420958179003,799.749132616857,773.032169433262
1730218409.3815644,763.6000551073375,822.7654940636883,801.347883250322,773.716201559543
1730218409.3854673,769.9612604902771,823.1231937067466,803.2165721923483,774.5014770311991
1730218409.3893695,771.8157573508424,822.2722444234087,804.6321345767474,775.3310274491332
1730218409.3920407,769.0686495817239,821.8211548785843,805.268963293452,776.1513696625399
1730218409.39255,767.4232371062955,822.4656429474852,805.4823168189516,776.9438739151765
1730218409.3932722,772.748317517557,823.9621760561032,805.9598108573315,777.7164949986086
1730218409.3947384,785.198695041276,825.7472975631488,807.0158288119496,778.483617019475
1730218409.3971748,798.3290557114444,827.2278999373397,808.2038158515156,779.2533775615751
1730218409.4010775,804.1601521039701,827.5591840006529,808.6873573421415,780.0261255055766
1730218409.4049802,799.9361806975138,825.6389534272216,808.0903208029193,780.7986278758596
1730218409.4088829,790.6468677611027,820.8131913741194,807.0037811277231,781.5681192853872
1730218409.410356,784.9320069787449,813.6743015275559,806.5557046504415,782.3337529038686
1730218409.4109333,787.7746584391049,805.8793433602767,807.3290845613675,783.0960262447571
1730218409.4127853,796.257595050668,798.9308859239206,808.6234620204206,783.855693398102
1730218409.416688,802.0179415504863,793.2088955468538,808.8468640768232,784.6131365640261
1730218409.4205906,798.2990781483758,788.4483437325472,806.8227326058684,785.3683326985822
1730218409.4244933,785.7256899466945,785.2164687100319,802.9281723817265,786.1211052934616
1730218409.4259737,772.1718041031083,785.5935412606221,799.0703361545737,786.8713456307992
1730218409.4277267,766.9483840966485,791.8441128576931,797.4659620399318,787.6190707986915
1730218409.428396,773.8629375674068,803.9291194681883,799.1444026265433,788.3643431603039
1730218409.429826,788.351548672163,818.1976130229681,803.2669914846039,789.1071479885004
1730218409.4322984,800.7920116746009,828.9379770406096,807.6998090688435,789.8473432264652
1730218409.436201,803.6058779589875,832.0527620645321,810.3708067467011,790.5847730015472
1730218409.4401038,796.8470402494081,828.0218779455028,810.4498009185222,791.319538615335
1730218409.4415913,787.8408865266234,821.5551316434758,808.6096019870762,792.0522279598273
1730218409.4440064,784.9401613537724,817.9690729234646,806.3330326863037,792.7837285038214
1730218409.447909,790.3892190321892,819.1413110218615,804.8655449654909,793.5143603580001
1730218409.4487183,798.3414386313289,822.3348430441339,804.5397381620894,794.242695464319
1730218409.4518116,799.8826900125533,822.7873554436712,804.8295988158233,794.9653618893276
1730218409.4557142,790.8970561648897,817.8313621320364,804.9737389110356,795.6794201283941
1730218409.4572089,776.0943018975713,809.1470069204529,804.6658049392686,796.3872657637709
1730218409.459617,765.7459038063959,801.4422394471809,804.297201750773,797.1002820607346
1730218409.4629035,767.7780407472007,798.8312344325954,804.5613834337614,797.8342750044923
1730218409.4635196,781.6192628753465,801.8928898398868,805.7333428702692,798.5924261911416
1730218409.4674222,798.6288181821393,807.5582081101071,807.2639691398172,799.3439854661418
1730218409.4676113,808.5830765514877,811.5804528134557,808.1319685224094,800.0240211448184
1730218409.4713247,807.0074159907091,811.5091168924946,807.7337846675948,800.58250900251
1730218409.4728265,797.7463386311532,808.0878480262048,806.5221626032272,801.0768024249157
1730218409.4752274,789.1536550084409,804.4020220951733,805.7298034001515,801.7304637608996
1730218409.47913,787.3182891305388,803.6291260836517,806.3378929121812,802.8278706905895
1730218409.4830327,791.8078558277966,806.9567183637976,808.228792113869,804.378602894189
1730218409.4865038,797.03305141988,812.9289585535819,810.3692879806525,805.7299263678694
1730218409.4869354,797.6564892433288,818.4807284674347,811.8835709777682,805.6090347954361
1730218409.488444,793.3597773584695,820.8427739827762,812.934569127162,803.0642937246686
1730218409.4908378,789.1100650926456,819.0417513607323,814.4453926897969,799.0084493170359
1730218409.4947405,790.9070003560607,814.1614399196894,816.8450073991671,796.8230288686137
1730218409.4980805,800.626514824673,808.4676858875295,819.0989416221666,800.4765124968766
1730218409.4986432,814.1880646790988,804.1704648642259,819.1663905942698,811.0568169719588
1730218409.5025458,824.5291924060931,802.5726346012607,815.7333927373386,825.0680484245424
1730218409.5040617,827.0013657475997,803.8522321923255,809.7871057154123,836.6287542367066
1730218409.5053964,822.8220078317196,807.2874244236401,804.5338600636809,841.7907965008934
1730218409.5064485,817.7117101473941,811.6689345098865,803.4522754747956,841.1093503610224
1730218409.5103507,816.7528194616422,815.7898236172169,807.8463914588782,838.3841809026785
1730218409.5142536,819.7695774303099,818.9225273303688,815.7767585232285,837.0118992159254
1730218409.5181563,821.3399010597366,821.0505087574024,823.2190401381707,837.3087114213895
1730218409.5196793,815.7429654153385,822.618356377625,826.572978548142,837.0026669417524
1730218409.522059,802.7482086753466,823.8944663406849,824.6897265169995,834.1272554138133
1730218409.5242891,789.0551792303457,824.4548384166812,819.1477920628197,829.4639867903405
1730218409.5259616,783.6539704110179,823.326239195459,812.9316808098203,826.2067534054913
1730218409.529864,790.612426596198,819.8073960006275,808.659871391767,827.0579086120628
1730218409.5332568,805.2899249675924,814.3059208230414,807.4442862529821,831.3100876630986
1730218409.5337667,817.4232609042676,808.3480479124712,808.7565364336836,834.6807304691521
1730218409.535297,818.8945383389826,803.5598594364635,811.0562831127077,832.4879334174617
1730218409.5376694,809.954217668035,800.425349490913,812.7118428397341,823.7963672411764
1730218409.541572,798.7562908328805,798.0200946769892,812.7832777815988,812.8941436909055
1730218409.5431817,794.5539232659023,795.1236887985667,811.363684376241,806.3426875692023
1730218409.5454748,800.2233349224804,791.7211071120556,809.3573351620258,807.6872133308525
1730218409.5493772,810.3180778801939,789.3249718411888,807.8387623443415,814.3566020555016
1730218409.5509143,816.1025309002495,789.6010631622288,807.3940393994543,819.717855550535
1730218409.55328,813.1338077201241,792.5694989350735,807.8761214425269,818.7225053326729
1730218409.5571826,805.0155581822108,796.2746822242926,808.6909256300836,812.2233335509724
1730218409.5610852,800.3689235058511,798.4172686311333,809.3027259478905,806.1258422252091
1730218409.5620744,805.6653617997482,798.3823986811739,809.5308071667289,806.138492681125
1730218409.564988,819.6912223868482,797.6025673803489,809.4958737264086,812.7429203438521
1730218409.566532,833.9192019384996,797.8736362174648,809.3985837842699,820.7064024836285
1730218409.5684335,838.5228985059033,799.3698206876512,809.3590223028478,823.4858438936991
1730218409.5688903,829.6325942840176,800.4492097566522,809.3910089753617,818.7736035657081
1730218409.572793,812.4594201926252,799.5126756917113,809.455165071334,810.54966523087
1730218409.5766957,797.7655750795004,797.0124365829001,809.514219081927,805.9051462004013
1730218409.5805984,794.0566603530207,795.4290897688006,809.5552198746285,809.1949821577094
1730218409.5809667,801.3469506768879,797.0263365601807,809.5838095790577,818.2995288232486
1730218409.5821495,811.4449284905736,801.5142243512199,809.6101185986936,826.0937928355136
1730218409.584501,814.6754712615564,806.0205910785008,809.6398900990041,825.9895819840863
1730218409.5884037,807.6960753150543,807.591405261493,809.6734035548922,817.1234434270734
1730218409.592306,796.0800924968377,805.9074517089223,809.7084249402652,805.1175867720829
1730218409.5962088,789.6431335496319,803.5667373756169,809.7430448796981,797.9534232902132
1730218409.597767,794.4541280770262,803.5751790932206,809.776695463716,800.269393875836
1730218409.5998597,808.0167248028971,806.4083478116024,809.8097489298684,810.3033201157912
1730218409.6001115,821.2563133158055,809.4524222157909,809.8427575691195,821.3810566965735
1730218409.6036105,825.3758963905673,809.3455517048628,809.8760143558745,826.5157314321034
1730218409.604014,817.9915232409907,805.0004890519444,809.9095259634526,822.801622664145
1730218409.6079166,803.921292658157,798.5726303461845,809.9431798904305,812.7812188147747
1730218409.6118193,790.5347672071405,793.7096701524404,809.9768905911936,802.1808252841922
1730218409.6133847,781.9511587102112,792.8873788929336,810.0106452715295,795.8863042815831
1730218409.615722,777.0390917755801,796.1235867524994,810.044477939892,795.1434016076905
1730218409.6187522,772.5587871207662,801.7004073903677,810.0784288312913,797.8412027668667
1730218409.6196246,768.0461634444712,807.6622439091399,810.1125228935052,801.1729421983871
1730218409.6235273,767.4527870270308,812.5983571133041,810.1467699055626,804.0952063831477
1730218409.6274295,775.6331470164043,815.4352054216954,810.1811738172973,807.4528603354302
1730218409.6290023,792.7227977898359,815.1029101974768,810.2157402150574,811.9574403964513
1730218409.6313324,811.7296036330938,810.8772165572844,810.2504783165513,816.2519441345069
1730218409.6352353,822.1607081240887,803.2420197011577,810.2853993660839,817.203728735356
1730218409.637645,817.3965137592214,794.3808810703831,810.3205144795231,812.4599170552515
1730218409.638787,800.1372771955191,787.5884785211156,810.3558335884117,803.1002599911315
1730218409.6391375,781.3512633820707,785.7528966787086,810.3913655056265,793.8782335955522
1730218409.6430402,772.9308767123418,789.8189651440222,810.42711843393,790.3775517562101
1730218409.64462,779.1986856583719,798.213714897968,810.4631003720494,794.9832250208333
1730218409.6469429,793.7669573001765,807.6032351954808,810.499319262283,804.8302442395249
1730218409.6508455,804.5982285053396,814.5351431578465,810.535782947562,813.6770687575248
1730218409.6547482,803.7003801115484,817.036673040934,810.5724990033417,816.61400079108
1730218409.6565375,793.7268162665197,815.3269507560233,810.6094744573567,813.9795027906023
1730218409.6586509,785.8074896205885,811.3463970706935,810.6467154913025,811.1487327256003
1730218409.6602376,790.1161526847018,807.4755003001535,810.6842274279012,814.1072159098098
1730218409.6625533,806.9791063672963,805.24508378482,810.7220153843857,824.3128277110638
1730218409.666456,826.0524751767334,804.7844690080382,810.7600855577242,837.0939570014308
1730218409.670359,834.310193982172,805.228834056242,810.798446142486,844.9676870905133
1730218409.6739638,826.2206100206333,805.6546692779558,810.8371060707622,843.2347300563591
1730218409.674261,807.8654880907585,805.815306673591,810.8760705118898,833.4372016862251
1730218409.6754303,791.961593129386,806.2214528246012,810.9153353670453,822.1022298358595
1730218409.6758552,788.0891678000772,807.6622656974005,810.9548874239213,815.928063008687
1730218409.678164,795.9173700443705,810.586755276309,810.9947174555797,817.1568468830541
1730218409.6820664,806.452101286173,814.6946853361252,811.0348443961501,822.4863636888681
1730218409.685969,809.856761314611,818.887060479081,811.0753301469986,826.0360280523611
1730218409.6898718,803.3248491031901,821.6332160328584,811.1162510640431,823.8391898874312
1730218409.6914728,792.7157388415217,821.7095594382623,811.1576101140533,816.3825706887659
1730218409.6937745,786.9744098115672,818.9939053956906,811.1992386966284,807.5256078648274
1730218409.6943228,790.3478163426054,814.7583231091411,811.240817148139,801.1263547446134
1730218409.6976771,799.0206324061984,811.0734239240447,811.2821415622404,798.3290737667603
1730218409.7015796,804.7464461156126,809.5500430456761,811.3235758055552,797.5115520864662
1730218409.7054822,802.0339097509803,810.2425913784408,811.3662773120511,796.4603391435741
1730218409.7070904,792.6905167860652,811.5819904892969,811.4115683413149,794.628516411273
1730218409.7091403,784.1128467637348,811.5423161261701,811.4592331469945,793.5779877695286
1730218409.709385,783.0554988071859,809.265283647886,811.5057916789099,795.4124395796255
1730218409.7132156,790.1495041485937,805.8232662613457,811.5452283205601,800.6736000481364
1730218409.7132876,799.5652178444541,803.3182407559331,811.5743733494696,807.5711367964819
1730218409.7171905,803.9576310943501,802.9363184111957,811.6012872109263,813.3213418743878
1730218409.7210927,800.6199337389203,803.7469474686657,811.6484461008795,816.5867256631849
1730218409.722708,793.8194283985191,803.6231439022956,811.739211956228,818.8809402422705
1730218409.7249954,791.3568871469496,801.6617038630624,811.8651128816766,823.3778266550352
1730218409.728898,798.1154732716387,799.7302849311756,811.956139037615,831.6963714010375
1730218409.732108,811.9087862040477,801.288705637882,811.9015313369985,841.3268217220199
1730218409.7328007,825.0956659486262,808.2542213230795,811.6587353110313,846.3922310848864
1730218409.7367034,830.6582852735194,818.8035214118503,811.4118952854597,841.8588751538981
1730218409.7383256,827.7403262552814,828.2940468607208,811.623837604937,828.067340854209
1730218409.7406058,822.1215040268419,832.5676466636584,812.7912448350539,811.5991650339395
1730218409.7443173,821.3072116719492,830.7528057158007,814.9185762960252,801.2250784125383
1730218409.7445085,828.2900525601897,825.3717091271625,817.1156943922163,801.8507114657017
1730218409.7484112,839.0354259683705,820.1171875412336,817.8709533905128,811.2667642943856
1730218409.7510006,845.680113910787,817.4315090243006,816.0670676354492,822.3162039956362
1730218409.752314,842.858817983889,817.5770236744594,812.0060291532612,828.6443293997825
1730218409.7539432,832.0955575925266,819.2185742257162,807.4775376957462,829.326949059986
1730218409.7562163,820.7263617516421,820.4968664223779,804.6670863287698,828.7915420594131
1730218409.760119,816.173947353878,819.8336781665461,804.7771574146093,832.4638610605421
1730218409.7640216,820.1384416948829,816.4447247637291,807.5034520395654,841.9498575857424
1730218409.7679243,827.3516323896611,810.7508614002063,811.654275540199,853.5526952435594
1730218409.7695608,829.8650894592288,804.5294324929399,816.1244524968696,860.9265761268996
1730218409.7698934,823.4325123665405,800.3977701874594,820.2628758567903,859.4941173663426
1730218409.771827,810.9665469170188,800.540208887623,823.499652816905,849.3321925661858
1730218409.7757297,800.4195237708504,805.3017118057738,824.9373744151552,834.7604863726216
1730218409.779494,798.7537482596447,812.7134156038034,823.5656897240722,821.3025645420929
1730218409.779632,806.6205733234791,819.5589882728578,818.9848065067678,812.3107728959432
1730218409.7835348,817.8012386421586,823.342917537144,811.9304203984439,807.4912916943864
1730218409.7851784,823.8048576692328,823.5836207238166,804.0810297020693,804.0636804435524
1730218409.7874374,820.0156893466337,821.3686684933575,797.3088093588141,799.4200552789754
1730218409.788786,808.5903009692705,817.7920858063048,792.9608126831765,793.1948187565015
1730218409.79134,796.0003317578264,812.9982005542456,791.5727346742129,787.2557712510538
1730218409.7952428,787.5606974991287,806.7843831253258,792.9584796720076,783.8079781879773
1730218409.7991452,783.6943117078616,799.8788693861106,796.413925528058,783.2847666045963
1730218409.800796,780.9321261073535,794.2110968612808,800.9202555305476,783.8293530280541
1730218409.803048,776.3287824046557,791.6553085358915,805.3947217275957,782.8272639225194
1730218409.8069506,771.0358747714088,792.5098402767688,808.9706414518581,779.2147398528836
1730218409.8076787,769.7808114295221,795.3584731481045,811.1496670959448,774.5964311230732
1730218409.8108532,776.7792770219356,798.5401897561773,811.730378077878,772.1442791321726
1730218409.8146708,791.6477268035711,801.7669438634949,810.6505798203808,774.0664899705954
1730218409.814756,808.742631373513,806.2178064255468,807.9886134058837,779.6717272112903
1730218409.8164136,820.5349498185167,812.9074394676309,804.1800458868663,785.694258798197
1730218409.8186584,822.5500492940608,820.8596713506107,800.2023551660087,788.7834129516331
1730218409.822561,816.2642296568782,826.962342697832,797.397948165675,788.2160550635713
1730218409.8264637,807.8208372965779,827.9529223527468,796.8751367014089,786.523472151312
1730218409.8265712,803.4767693824257,823.0170520080154,798.8347675555283,787.3583191728156
1730218409.8303664,805.1703989162414,814.7535417726208,802.3466523434311,792.3440371616826
1730218409.8320312,809.5817357731144,807.5141815704347,805.8376454685437,799.686880022702
1730218409.834269,811.3561817565976,804.3562225523136,808.0150329956072,805.8568425200854
1730218409.8381715,807.8149536325593,805.0979655593646,808.5828357228795,808.8560357697904
1730218409.8420742,801.2590738324836,807.0541658840502,808.2665005667769,810.082895861779
1730218409.845464,797.0105916938414,807.6806159233223,808.2203511798516,813.0455494271416
1730218409.8459768,798.9337800946882,806.705769125574,809.3258802160202,820.0189622544265
1730218409.8476489,806.2526083236094,805.9349140864628,811.817802098807,829.5502859584798
1730218409.8498476,814.2990806700413,807.18298689546,815.2784034174452,836.980278382535
1730218409.8498795,818.46818724905,810.4872032026432,818.7999082513052,837.6753611031095
1730218409.8537822,817.948022815525,814.226938295169,821.2130734136273,830.5207470253121
1730218409.8576846,815.9733461745404,816.7017852580813,821.4457043519868,818.973110989186
1730218409.8615873,816.3358205507958,817.403191918994,819.0067087644198,808.756401873762
1730218409.8632665,819.2565450340185,816.9579529184717,814.3556702337147,803.8568850365463
1730218409.8643565,820.5282404030901,816.2678900319155,808.8339419306138,803.8995333684952
1730218409.86549,815.1049477210904,815.8494547343018,804.0764647363168,804.9874314312523
1730218409.8693926,802.2384333405574,815.7472990844257,801.226540263235,803.2647954836568
1730218409.8732953,787.4989427655862,815.7807568099024,800.4778591447301,798.1414354564752
1730218409.8771975,779.4104732492884,815.7869432625052,801.2392157451792,792.4264569032998
1730218409.878884,783.0705694032379,815.712954921187,802.7084702133847,789.4089802512701
1730218409.8811004,795.9193684576218,815.5863953151094,804.3188001352519,789.6510990527917
1730218409.8832493,809.250223071997,815.4522779256677,805.7235276034042,790.3805934091689
1730218409.885003,814.451338924104,815.3349863420457,806.5199234667868,787.8950639293278
1730218409.8850243,809.1860628921947,815.2348004631325,806.1951125240993,780.7592814417338
1730218409.8889058,798.7532067694873,815.1414593888162,804.4834339612274,771.0965598558973
1730218409.8928084,791.6113386285142,815.0465754093003,801.7853108449881,763.0366811001454
1730218409.8945017,792.60622785298,814.94779851004,799.1443421116986,759.6600661537382
1730218409.8967109,799.2973877137482,814.8468334500641,797.7126864796498,760.8219758528144
1730218409.9006135,804.367744108797,814.7460538813051,798.167576709407,763.483967869466
1730218409.9021418,802.1417335103714,814.6466290880876,800.5529808839873,764.2645000868599
1730218409.9045162,793.7033866247924,814.5484707886312,804.503648267533,762.1837581051001
1730218409.908419,786.116558580525,814.4509943929186,809.4041221021432,759.3459221924162
1730218409.9101193,786.2269848631774,814.3537539954741,814.2548819010784,758.9404663083366
1730218409.9123216,794.3178760559617,814.2566276158457,817.5896721611978,762.2501248464215
1730218409.916224,803.2358554511088,814.1596973823387,817.9521205040727,767.311133676124
1730218409.920127,804.0252379362954,814.063077986145,814.8751925766295,770.5061410919064
1730218409.9202013,793.5063776418403,813.9668292723763,809.578108605284,769.8170250798817
1730218409.9210346,777.4466676694828,813.8709475720295,804.5599255083574,766.9603981553663
1730218409.9240294,766.5164658097243,813.7753756655441,802.1180209232076,766.4563643854035
1730218409.925737,768.1127730501962,813.6800039241874,802.8203760272069,772.1435444384288
1730218409.927932,780.551908345479,813.5846951016332,805.1546368080303,783.7985367922646
1730218409.9318347,794.3303994114744,813.4893812267777,806.6997177966027,796.670996072426
1730218409.9357371,799.5359705190481,813.3942104728209,805.9242183852894,804.6641836608428
1730218409.9396398,793.5460652096798,813.2995925706343,803.1913344909964,804.9946538912578
1730218409.939927,782.9376154583197,813.2059288687071,800.2276412403949,800.6911854926262
1730218409.9413545,778.2464507689007,813.1129922620123,798.6082733086944,798.6543416606737
1730218409.9435425,785.8994925508836,813.0193925314069,798.583552555113,804.4227459557844
1730218409.9474452,803.6110378957613,812.9230203403007,799.1727396469488,817.6098980295983
1730218409.9513478,822.4126376388741,812.8231254770313,799.2890477625211,831.7109500966674
1730218409.9552505,833.1654423467932,812.7231771821176,798.7900452414516,838.6216299716189
1730218409.9553778,832.3172767377779,812.6313855740133,798.5089863957163,834.4727329408504
1730218409.956972,823.0014759103593,812.5550224451621,799.3115982497027,822.3878345118691
1730218409.95882,811.6695594492505,812.4885701805013,801.1205743208366,810.2533575428653
1730218409.9591527,803.6328663295037,812.4047353410837,802.8673085785485,805.3753462635917
1730218409.9630556,800.844337810121,812.2651780893658,803.478244276046,809.9986325356805
1730218409.9669583,802.6807104112744,812.0614753365177,803.0322271474014,820.6829833301462
1730218409.9708607,807.9242029285173,811.8667566853782,802.9819129954456,831.4386973693696
1730218409.9725895,815.6395394019565,811.8367413684427,805.0750975211866,837.7897601533276
1730218409.9747634,824.3017046287946,812.0904189706764,809.766804559451,838.697251459458
1730218409.9777124,830.6395795912586,812.480699240618,815.4838475985914,835.5530802980318
1730218409.978666,830.1742993882053,812.431795968243,819.5055502470648,830.001479050275
1730218409.9825687,819.8248486358233,811.1354085566529,819.873152254002,822.8475423523183
1730218409.9864714,800.7777554713463,808.1953974916805,816.8028870025386,814.6995167901168
1730218409.988207,779.1679287463758,804.2363649346483,812.4588170927012,807.1818633381158
1730218409.9903738,763.5591330956989,800.7103051269393,809.357097005607,803.1607716303346
1730218409.9905546,760.4477407452674,798.8567103822755,808.8048628041382,805.395522400368
1730218409.9942763,770.3944188358098,798.7573849281911,810.5565608503667,814.3739321430178
1730218409.9966047,787.2259919615834,799.3121839092563,813.6088453344082,826.9543874839931
1730218409.9981792,801.2136877716979,798.9908460068049,817.0953405608893,837.2739733351547
1730218410.002082,804.7756857026683,796.6886968502015,820.4790895303595,839.9707098132862
1730218410.0038247,797.2135679400703,792.2581485673147,823.2111461004406,833.7886035817935
1730218410.0059843,784.9919366129751,786.6778676379109,824.5728690930998,822.7598131057689
1730218410.009887,776.9396728508738,781.8843467596026,824.0427941534315,813.640238876509
1730218410.0137897,777.7665270253153,780.1296465054722,821.8119169545646,811.2661620245599
1730218410.0154977,784.9664928669525,782.8190623710295,818.8624203191388,815.3973507328825
1730218410.0176923,791.5919837949784,789.3571869238167,816.472902859084,821.5272964322062
1730218410.0194426,792.4869118040097,797.0433627389755,815.5516001760684,824.886758350111
1730218410.021595,788.6498344765934,802.6053409082535,816.2880421826782,824.2593449183269
1730218410.0254977,786.067114044374,804.5260148870934,818.2648551398448,822.4841126548147
1730218410.025731,790.1387706046291,804.2428378711405,820.7889408510919,823.3661069424721
1730218410.0294,800.5782138144183,804.971326780312,823.1206262807384,827.7593323231242
1730218410.0333028,811.2483135871873,808.9897775528422,824.5163891220845,832.325491582418
1730218410.0343902,815.2111241797227,815.7172819696659,824.2951375821614,832.2477580123505
1730218410.0350602,810.8064979709975,822.2356442716235,822.1598309161488,825.7260308512595
1730218410.0372057,803.5207221744627,825.6584922761473,818.6536730592406,816.2857912812933
1730218410.041108,801.7329536872503,825.1429177767257,815.2391831624811,810.5477231036873
1730218410.0450108,809.5782320206604,821.8859156685,813.6010889253153,813.0361694969158
1730218410.0489132,822.8990625429768,817.492614236048,814.4841241943159,822.435737614138
1730218410.0506778,832.0131814955243,812.5764947376388,817.0086025596204,832.6195091302997
