timestamps,eeg_1,eeg_2,eeg_3,eeg_4
1731655361.626109,788.1362914228043,803.510808683327,805.8163910303805,793.8302543932315
1731655361.6300273,740.2202401067999,788.2710126494368,795.4385715331299,771.5434330876401
1731655361.630372,713.6439093040099,776.9928885793965,788.7336590602973,759.0544275746894
1731655361.6339457,715.2934088536607,771.9854150553816,787.6800442313194,759.3097836507397
1731655361.637864,734.1576829486518,773.1422537250606,791.7461904042706,766.824691581331
1731655361.6417823,751.1509456657417,778.3840229805003,798.3506297053756,772.4498895628057
1731655361.6457007,753.9525949768926,784.9106537723076,804.305278130993,770.543738743854
1731655361.646,744.9648131170296,790.4874541359632,807.4317294792438,762.8604432560759
1731655361.649619,736.6637401681951,794.088871884941,807.4736014001791,756.3257973248001
1731655361.6535375,739.3285868054622,795.7031023575449,805.8546871450234,756.9232954186898
1731655361.6567798,752.1816926713225,795.6687459664354,804.5149005904383,764.9534526108979
1731655361.6574557,765.2583360304203,794.1803332593452,804.5922184390656,775.4440602478577
1731655361.661374,769.3767592633757,791.339010942379,805.7800399288676,782.8293251150052
1731655361.6616282,764.4713322146488,787.5524704975164,806.7262397802367,785.3512098725432
1731655361.6652925,758.6904625951197,783.7393040722419,806.1383155642428,785.2807581144689
1731655361.669211,759.7801450350477,781.019148801716,803.7920051365076,785.3151914127444
1731655361.673129,767.5152815873668,780.1395349367333,800.7466727918621,785.2053171144963
1731655361.6756666,774.4377814516524,781.1815232675033,798.6635235993618,782.1905790941878
1731655361.6770475,773.741566830916,783.7701896459637,798.742552455549,774.7277961230133
1731655361.677256,766.2714534921481,787.4677020435132,801.0025950566729,765.4716949213068
1731655361.680966,759.800341558889,791.8915140562215,804.3467867106806,760.07123480692
1731655361.6848843,761.4532136442336,796.5034284660932,807.3279536435832,762.5015262423166
1731655361.6888027,770.7442747840363,800.4364546248169,809.0775861006764,771.2552934094172
1731655361.6927211,780.0015216625071,802.6845590796719,809.7434099691615,780.1940776102814
1731655361.6928842,781.8083904917348,802.5896168989644,810.1159441825982,783.6100917994174
1731655361.6945534,776.3117946503987,800.2779445825928,810.7571481581643,781.0581391000838
1731655361.6966393,771.2554049768846,796.7419774374127,811.391955308932,777.564891149134
1731655361.7005577,774.4800958931917,793.4847370394115,811.1246577643121,778.9433525192866
1731655361.704476,785.951633397409,791.8639817006083,809.285974858387,786.3825255741388
1731655361.7083943,797.0873568667708,792.4441278615955,806.1023527880869,795.1555244340085
1731655361.7085123,798.3616844290854,794.7310106730711,802.5528556061146,798.5576558716612
1731655361.7123127,788.2430646379008,797.5009245464051,799.5968698141273,793.5152181448556
1731655361.7134402,775.090841847195,799.5534307209847,797.5677370877063,783.0032424281927
1731655361.716231,770.150095317509,800.3910272306271,796.2905466074448,773.503530918691
1731655361.7201495,778.0195786106664,800.360832097923,795.6776050839292,770.1145078607728
1731655361.724068,793.1700520086182,800.1911125695226,796.0635828149426,773.5481993424668
1731655361.7241404,805.3624299899317,800.3103121085334,797.8689183346742,780.9919317356517
1731655361.7279863,808.6959082738313,800.4995495042587,800.9407240525401,789.1939900564875
1731655361.7319047,806.0178248583624,800.172652563743,804.3021266444663,796.577609805389
1731655361.7323272,805.0302658971184,799.0640961899849,806.6595508531097,802.7814244269717
1731655361.735823,810.1100879718551,797.7116182701808,807.2730202768921,806.8464628270804
1731655361.739741,817.6013127204609,797.2166817078823,806.4317471968425,806.5530246532875
1731655361.7397685,818.996641867464,798.3754537306102,805.1402596585897,800.105045634375
1731655361.7436595,809.1915505111912,800.9057554995065,804.3323749978769,788.805482729026
1731655361.747578,792.2999549680825,803.5094008756711,804.2937774260357,777.9393624406048
1731655361.751214,779.4478229357575,804.7888058343752,804.6803981150357,774.2024467747966
1731655361.7514966,779.8751525151354,804.2293177382426,804.9380385064004,780.9618217610414
1731655361.7553964,792.6875515424935,802.3794153608872,804.6687622223765,794.9729281823933
1731655361.7554147,806.5206150512932,800.1341348142656,803.7331528223621,807.6572261655347
1731655361.7593331,808.0597172247973,797.8960952891065,802.2337630815146,810.6602178683938
1731655361.7632515,792.8954262623101,795.4582506342283,800.5540341913953,801.7747128280853
1731655361.76717,769.8678815890896,792.6470290212827,799.3715287441896,786.6372218948634
1731655361.7701008,755.0430007455293,789.9526314167703,799.4403317242717,774.7469159964268
1731655361.7710245,759.7837670959443,788.4270078943863,801.1595585010466,772.7990339234085
1731655361.7710884,782.1756719401953,788.9454951470954,804.2469847066109,780.3635425006967
1731655361.7717607,808.4712177128354,791.5753308599001,807.8247601736105,790.9999333188555
1731655361.7750063,823.3959299640036,795.6016955469494,810.8737987935641,797.6824254814325
1731655361.7789247,821.2595169821748,800.0288757143513,812.6947206920723,798.2024901152582
1731655361.7828434,809.2193687319652,803.9550478507109,813.0553775085326,796.3676522172132
1731655361.7866526,800.3582218572003,806.5483892647063,812.0383957843641,798.204672554178
1731655361.7867618,802.547240695285,806.9859554777688,809.86195862146,806.436082854275
1731655361.7889876,812.4778869104392,804.8475705428696,806.8816044149876,817.9471593747044
1731655361.7906802,819.7008233859314,800.8479980061993,803.7006331227649,826.4370638559134
1731655361.7945983,816.799590203132,797.1083962188208,801.1438185829164,827.9459919642358
1731655361.7985168,806.534472680416,796.2845624052402,799.970774558687,824.3599586884692
1731655361.802281,799.5902953915119,799.8537817915839,800.4906439656779,821.7111140598546
1731655361.8024352,804.9455668846853,806.8038249025976,802.3795928121249,824.6978374208356
1731655361.8063536,821.3762890260947,813.8851100270698,804.8392665094514,832.2363274151835
1731655361.8066666,837.5713616432532,817.4492348479197,806.9484737380458,837.992524561093
1731655361.8078744,840.9303684930135,815.668251523871,807.9688151116186,835.5775126755657
1731655361.810272,827.8484192628691,809.6386626786896,807.5294920641215,824.1873019177981
1731655361.81419,807.0793125988963,802.7041751743469,805.765641101917,810.094009943357
1731655361.8179083,793.3052035030406,798.552715845922,803.3883103712576,802.6291586984603
1731655361.8181086,795.8332306071326,799.3179404117288,801.4784704030051,807.5215330263804
1731655361.822027,811.3161358070354,804.6676909609632,800.8903155801108,822.527508644358
1731655361.8259454,826.353364026826,812.096960874432,801.5799125910128,838.7115488845324
1731655361.8267612,828.004743677835,818.0670172973262,802.4872754129191,846.5996161333669
1731655361.8298638,813.8852740054102,819.527521082681,802.2892619076238,842.7597516183232
1731655361.8335366,793.8621733293379,815.3926879111924,800.5380563726487,831.9567499525816
1731655361.8337822,782.1564539765667,807.3734090172802,798.1966539972676,823.2800987988844
1731655361.8377004,786.2456276248583,799.4652905586723,797.0051465623122,823.1612681612999
1731655361.8415723,801.2861243324346,795.9408187445202,798.1470466315726,830.5752318438035
1731655361.8416188,814.2313095109389,798.8298645066241,801.332457715214,838.1091916247194
1731655361.8455372,814.2237273107406,806.5984326196123,805.0366030792412,838.0926413856782
1731655361.845648,801.0824305478918,815.1109396052381,807.6122914940828,828.9731910650024
1731655361.8491647,785.2826893799369,820.2842602937682,808.3043786355612,816.768404963453
1731655361.8494556,779.4616954861062,820.527138023648,807.4113146070488,810.2389322116462
1731655361.853374,788.1733194756165,817.2713014054333,805.6644512490404,813.5924845187742
1731655361.8572922,804.1625021402125,813.4399301469621,803.5397674967923,822.8159728570453
1731655361.8612106,814.3400191321358,811.2339793750101,801.1463696521071,828.929966489992
1731655361.864535,810.7020039982895,810.915190449321,798.6870123778256,825.6091965454233
1731655361.8647928,797.1666566101446,811.2324915030272,796.8809338161367,814.7052119044671
1731655361.865129,786.4981606352837,810.7935555498145,796.7454724615662,804.8337209705478
1731655361.8690474,789.6678520116766,809.152898449672,798.771541270365,804.0800001288555
1731655361.8729658,806.3521474930101,806.9155928445197,802.2145896612815,812.9215512261633
1731655361.8764782,824.5003168567196,805.0590220911124,805.261524569803,823.3408378070021
1731655361.876884,829.6312751757523,804.1533868603449,806.1086718053269,824.9951144599802
1731655361.8804207,816.5725478353996,804.0057543804226,804.1502204696875,813.5313216825479
1731655361.8808024,794.1052692544788,803.8202616313365,800.3400330543426,794.3654406319273
1731655361.883422,778.4110234976631,802.6776137282178,796.4866745130226,778.8463994452919
1731655361.8847208,780.281009943866,800.0945254125908,794.1010098415019,775.809436702784
1731655361.8886392,796.4817814887374,796.4559375586039,793.6676630550184,785.2317663600625
1731655361.8925576,812.6228854723526,793.0781684785804,794.7266008178602,798.968511017989
1731655361.8960488,815.348940616467,791.6807781752858,796.4638304879594,807.7016684752983
1731655361.8964758,803.6318081065754,793.3562197305265,798.2313698033927,808.1800986185983
1731655361.9003942,789.5767786058937,797.6464067239806,799.6884488928584,804.8916563718805
1731655361.9023087,788.1168047949255,802.5268147649823,800.6973503682109,805.2776312724641
1731655361.9043126,804.3631293463619,805.5343833457445,801.2407409901032,812.9513133546383
1731655361.908231,829.1096977260033,805.3118619088266,801.4156639868769,824.6023827982582
1731655361.911384,845.9824857079581,802.4104866071306,801.3962589125473,832.806412743975
1731655361.911677,844.2518380017148,798.7840758599089,801.3413338898739,832.1198871489523
1731655361.9121494,827.051884307583,796.4726510265525,801.3289055143438,823.4829382973928
1731655361.9160676,808.6429869832592,796.5146263394184,801.3616584119837,813.5212630287471
1731655361.919986,803.0532663978197,798.738856518002,801.4108731625723,809.3587108827539
1731655361.9211955,813.1882433582231,802.2731365971065,801.4531459346437,813.0331558561616
1731655361.9239044,829.0831266881696,806.1495362113124,801.482270471172,820.0089732374911
1731655361.927305,836.6100570218983,809.5841754232545,801.5034114678932,823.1428803493922
1731655361.9278228,829.4369869607941,811.9949868017004,801.5234342690962,818.9864276006238
1731655361.9317412,814.354553352818,813.0478354606851,801.5456661253573,811.0953175155969
1731655361.9356594,805.5811171290775,812.8230380967651,801.5698490126272,807.2455009459383
1731655361.9395778,812.78492002198,811.8827055689907,801.5943577577328,812.6220443269785
1731655361.9400823,832.6769926502006,810.9894626483563,801.6180073206817,824.7421651056989
1731655361.942933,850.9972949856168,810.5423870395317,801.6405547096559,834.6540790919178
1731655361.9434962,853.3151496025939,810.15361469583,801.6623263383098,833.7178101485006
1731655361.9462898,836.1846562838139,808.8172704872492,801.6837022985055,820.545225632856
1731655361.9474146,810.0229870924701,805.7108944697297,801.7048612916625,802.4624975789328
1731655361.951333,791.4758276333004,801.1007274018912,801.7257969326968,790.2494259936645
1731655361.9552512,791.1214767613399,796.5930672586617,801.7464406419209,790.264801730206
1731655361.9585612,806.0352931433079,794.3714849518568,801.7667538991511,800.102421157536
1731655361.958969,822.9788087299464,795.8387409828799,801.7867499909478,811.0673203531011
1731655361.9591696,829.4820140238827,800.6166211942848,801.8064716407429,815.3255568300107
1731655361.963088,823.6569634501765,806.6738166290909,801.8259625085163,811.9130455775102
1731655361.9670064,814.7121131441779,811.5483559963897,801.8452522200926,806.8328773796661
1731655361.9709249,814.052218301765,813.8155787777674,801.8643561346532,807.3781277875943
1731655361.974189,824.7931429316511,813.7734201220862,801.8832845889652,815.553375591162
1731655361.974843,838.6499542420073,812.9249229436165,801.9020570352262,826.1042076215781
1731655361.977856,842.7089816455323,812.7346332617959,801.9207148110362,830.7307376138988
1731655361.9787614,830.3419283063324,813.6038627993178,801.93932001851,824.9301527309068
1731655361.9811954,807.2967301291447,814.7441828802627,801.9579266656663,811.8128227899966
1731655361.9826798,787.9999876404913,814.9305358680662,801.9765282041558,799.7496270798626
1731655361.9865985,784.8371079245842,813.5339255742917,801.9950243034364,795.7347956239952
1731655361.9898171,798.699889288057,811.1125047164396,802.0132793959164,799.8971736499155
1731655361.990517,818.2780253141027,809.166322477788,802.0313094763164,805.765475514263
1731655361.9944348,828.8607595568802,809.1874055087313,802.0494961504054,806.1507416045655
1731655361.996743,823.7701773952116,811.571990398427,802.0685532911893,799.6414618345931
1731655361.9983532,809.1537283090471,815.0997344751031,802.088966703946,791.9907880188011
1731655362.0022717,798.1533022062554,817.4334525554658,802.1100221993793,791.0405812294216
1731655362.0054452,799.4064145998076,816.4888574460202,802.1292888799712,799.5736146305504
1731655362.00619,809.7381474735495,811.8419047834519,802.1439127316108,812.3979449412066
1731655362.0101085,817.2413616093689,805.1176459015526,802.1542420239541,820.2471240038103
1731655362.0140266,811.8591831205007,798.9353578803726,802.1676093520664,817.139148864437
1731655362.0156298,794.1976108995169,795.1373872047052,802.1969858361139,805.0004661024884
1731655362.0161011,775.117899074602,793.7014584541132,802.249679028056,791.880748599138
1731655362.0179453,766.7075008333773,793.2073245886411,802.3093506110022,785.4517216588466
1731655362.021073,772.3866904460184,792.3951345535874,802.3287983239437,787.1582213288967
1731655362.0218637,784.3990669559618,791.4158068801456,802.2587824271574,791.6695870093229
1731655362.025782,790.6949727089302,791.6857407240096,802.1203700877155,791.9678557662371
1731655362.0297005,785.3924720156618,794.5282216129995,802.0781702988561,785.845921252645
1731655362.0336185,773.9196363210575,799.8519430644561,802.4239802345811,778.3085419650848
1731655362.0345166,768.3010406658734,806.0154169444203,803.411709792496,777.5843304514163
1731655362.0367012,776.4515836475293,810.8950351600621,805.027869076127,787.8184024245252
1731655362.0375369,794.6744129913949,813.1382766491466,806.9078849749776,804.6109908434504
1731655362.0414553,810.0367354333576,812.6127235445331,808.5225997188796,817.5464369971885
1731655362.0453737,810.8907064257271,809.9872377982501,809.5016409059554,818.1204923655088
1731655362.049292,796.7566809582,806.1491094863165,809.8218955102274,806.7754718484554
1731655362.051007,779.225960027929,802.0188502638626,809.7315915424399,793.1875094923856
1731655362.0523293,773.009448610271,798.6021948087185,809.5268463442344,789.2783020744608
1731655362.0532105,784.2919500364799,796.765066321623,809.3828952428231,800.2297879322746
1731655362.0534034,805.6240951335043,796.6686994061694,809.3297001725666,820.3879657515698
1731655362.057129,821.4203495761866,797.4752249261016,809.3213260931736,837.2338881311773
1731655362.0610473,819.9512417731698,797.9112078273765,809.3096365275869,840.497856757699
1731655362.0649655,802.6110467151807,797.4169529820672,809.2761920155381,829.5473157058618
1731655362.0679574,783.0655727449014,796.8118555789135,809.2270301265861,813.4269154997112
1731655362.068884,776.6121020114465,797.6611545282993,809.1750056255539,803.6285411527205
1731655362.0722902,787.9942215835828,800.7562693915023,809.127900341426,805.4206841295118
1731655362.072802,807.5253948517727,805.1134996967298,809.08646905706,814.600345781315
1731655362.0767205,818.8941692428327,808.5462943323175,809.0479858161425,821.9178814614412
1731655362.080639,812.4622887184847,809.3994582876915,809.0099413951287,821.1185905292494
1731655362.0835855,793.2075772194739,807.8806903067946,808.971496308352,813.8907043763863
1731655362.0845573,776.7891481971559,805.7731660700265,808.9330614270682,807.9903734908286
1731655362.0859127,776.9621351620342,804.8407179685626,808.8953359253213,810.5354160952189
1731655362.0884757,794.577764943868,805.4270329255227,808.8587132534377,822.0684595322587
1731655362.091177,816.9851652428392,806.465638214072,808.8232167393975,835.9277431348255
1731655362.092394,828.1847333807594,806.7266635244866,808.7887032626292,843.1125003044712
1731655362.0963123,821.4755490099933,806.0283624900193,808.7550546104297,838.748268571024
1731655362.0992136,804.4018322920725,805.3234858797482,808.7222430109612,825.3022927910172
1731655362.1002307,792.0900962647532,805.7182360317826,808.6903004754969,810.3083625635721
1731655362.104149,794.598655704409,807.4203281529236,808.6592660099813,800.5455836559156
1731655362.1080675,808.8386345321119,809.5204222648349,808.6291591037132,797.2978306959823
1731655362.1100638,821.707153917082,810.6569561973473,808.5999861902658,796.4136401167029
1731655362.1119857,821.5481245892194,809.9210855898364,808.5717602869828,792.9635910509293
1731655362.1148417,808.0962814111422,807.3665879529143,808.5445078290962,786.42181586359
1731655362.115904,792.5726521079345,803.934365394062,808.5182470381399,781.7503921783143
1731655362.1198225,788.0807307713853,800.9551481634717,808.4929469847327,785.2085581638577
1731655362.1208184,798.5458946276699,799.5000189404458,808.4685088631801,798.3602715158588
1731655362.123741,815.4386254308089,799.8636344014012,808.4448256445006,815.5634843628318
1731655362.127659,824.8810466427283,801.4490442361581,808.4219336725834,827.4383881392612
1731655362.1289508,819.1452340863534,803.1696352089795,808.4001550508889,827.7043903728246
1731655362.1304696,803.0169666363804,804.1797377898613,808.3800109976725,817.7775197722939
1731655362.1315775,789.7589363058717,804.4793654620225,808.3617289929377,805.3047353993159
1731655362.135496,789.9677525680266,804.9432547736318,808.3445221491647,797.8934993406275
1731655362.1394143,802.559317998306,806.6772695680557,808.3263866000071,797.3091037878519
1731655362.1433327,815.494022253069,810.1149761268964,808.3053985571157,798.9135962798053
1731655362.1460977,815.8120182678095,814.525998372705,808.2826146557982,796.5780672921185
1731655362.1472511,800.7250670547407,818.3205815383687,808.2644859785653,788.6755490129071
1731655362.1478376,780.550169225779,819.9029527652938,808.2606310886194,779.9956714086597
1731655362.1511693,770.9697250894152,818.4427345813474,808.2740481362501,777.9982955709007
1731655362.1550877,780.7653873280173,814.1451618611741,808.287962125622,786.5505344229902
1731655362.155724,804.7341444549922,808.0978478992405,808.2639554056423,802.2796192709524
1731655362.159006,827.3607975148409,801.9789853587425,808.1690407113815,816.528829832846
1731655362.1617258,834.4491217587649,797.6889380569354,808.0306342693126,821.4978753326163
1731655362.1629243,823.7372787143538,796.7405958728091,807.9762795887517,815.8869102610123
1731655362.1667244,806.202765503413,799.4433246797262,808.1793910050618,805.6651483062577
1731655362.1668427,796.9414605460547,804.4010898040046,808.6628954792548,799.2764372835167
1731655362.170761,802.851937988662,808.9842122586562,809.050559672431,800.9813343753397
1731655362.1746795,817.1642810345076,810.8078104065485,808.5360888512492,807.6695092097093
1731655362.177354,825.3920190133003,809.2777107345433,806.3360894625107,811.7960798312705
1731655362.178598,817.7541474041927,805.9441087699183,802.4824405345603,808.056907409723
1731655362.1825163,797.6274328142931,803.2536280385253,798.2383429046782,798.2299639474985
1731655362.1856112,778.9849910558742,802.6481320092914,795.4650901646894,790.0988932653918
1731655362.1864347,775.0674624787905,803.5540162634385,795.2256927802393,791.3110682869876
1731655362.190353,787.7070688541922,804.0538842973266,796.8508181689785,803.1911254676011
1731655362.19063,805.9714812627033,802.6113325587148,798.4520934293425,819.5085994359779
1731655362.1929815,815.113787330416,799.3819821195484,798.5612600512808,831.1627817174005
1731655362.194271,808.53687861256,796.0694357601634,797.4803338274547,833.0347606747875
1731655362.1981895,793.0567791131607,794.5446615129008,797.1100094337665,827.5642141415992
1731655362.202108,783.0906256114777,795.4361628346235,799.3253095223301,822.2431847382435
1731655362.204498,788.4465596443471,797.803386047804,804.2291724285836,823.1394812765787
1731655362.2060266,805.8608546759579,800.0009247630243,809.744430547712,829.8193833661757
1731655362.2086098,821.4925282876411,800.8831785467039,812.9183414723078,835.8718732701916
1731655362.209945,822.4036606944558,800.3980003591067,811.9501856918356,834.5319347952108
1731655362.2138631,807.4261900874401,799.3065574805114,807.4218378180038,824.6336779835497
1731655362.2177815,788.3783944159921,798.492573360047,801.8780335755068,811.9284808424078
1731655362.2217,780.7407279941123,798.4660829159096,798.1614213413447,804.7415722092181
1731655362.2233849,791.4535695395601,799.2776420213276,797.7460687316722,807.5443696032601
1731655362.224238,813.4366448585905,800.6592036867162,800.149341488006,817.5147592074837
1731655362.2255356,830.8467308627388,802.1721145609382,803.6022550702187,826.6588146007922
1731655362.2256184,830.9395420511678,803.3534335954646,806.3105362148802,827.8307608627078
1731655362.2295368,813.6605036871227,803.9363850491554,807.4241264817819,820.14281181603
1731655362.2334547,791.7304869724034,804.0497527286519,807.2197816437123,809.6364894443649
1731655362.2373734,780.8991544070898,804.150737514841,806.5673945214284,804.4723518467306
1731655362.239866,787.6353670905514,804.6219626692838,806.1361671222518,808.1465691556668
1731655362.2412918,804.02682283742,805.3504868823467,805.8810512085995,816.2071935855021
1731655362.2422717,814.3433146931596,805.7426760561887,805.1432149488633,819.583639303192
1731655362.2452102,808.2036712705402,805.2605322831517,803.2792573216478,812.2650233641956
1731655362.2491286,789.4898790941359,804.013754957897,800.3263956616979,797.0320345196094
1731655362.2530468,773.4335937718182,802.8063470967868,797.1423786718057,784.116671974256
1731655362.255494,774.1769958344654,802.5316414639309,794.8645373575415,783.4892656821248
1731655362.2569652,793.1056909172241,803.4679668265745,794.1176072824387,796.9769702598935
1731655362.2604413,817.5170081322221,805.14727173883,794.6386595224485,816.6575997072732
1731655362.2608836,830.5762139490605,806.8841549163335,795.6286434072363,830.7156279099734
1731655362.2611587,824.4200117897196,808.3673930401482,796.4890717669133,831.8400351467075
1731655362.264802,805.9724808316097,809.6804575010848,797.2623255449117,821.5001874650878
1731655362.2687204,791.0191251754521,810.7921576389874,798.3989918223599,807.3379194288673
1731655362.271122,791.4436649374124,811.2046164940573,800.1453596062474,796.8132083230593
1731655362.2726386,805.9487955803405,810.3086884856202,802.215853460927,792.7228694189693
1731655362.276557,821.7304962267352,808.1696077706861,804.0945404345475,793.3494917697091
1731655362.2800455,825.5758559499594,805.8601920240759,805.6159152946963,795.466218194124
1731655362.2804754,815.0127749604462,804.8195114206337,807.1509032546902,796.9116805482574
1731655362.2843938,800.1404256499713,805.7281753471475,809.1403064878849,797.2267784572846
1731655362.28675,794.7510691972705,807.969051991058,811.4409122578272,796.9364140239825
1731655362.2883122,804.4615004492761,810.2230772722608,813.2006858793812,796.6492234729806
1731655362.2922304,821.9446994600328,811.6408246254746,813.4833188551199,796.6258734215733
1731655362.2953472,833.1209361822306,812.4582569460338,812.1220131327464,796.813388954846
1731655362.2961488,828.8972988635919,813.4666866946163,810.0228643742121,797.0566827338234
1731655362.2989323,812.578946649711,814.8804504379133,808.5881681437731,797.2535391348736
1731655362.3000672,796.8808560672758,815.77334807496,808.6699531531377,797.3882793106867
1731655362.3023782,793.1653237624039,814.7409231643427,809.867365774538,797.4921881870487
1731655362.3039856,801.9602159389603,811.2444237382468,810.7380509009265,797.5971698821761
1731655362.307904,812.7368280116798,806.3715417171903,809.801567146739,797.7154444038749
1731655362.3118222,813.1572123714652,802.2560205455792,806.5991135021131,797.843122421866
1731655362.3157406,799.9552115900179,800.6464991943704,802.015616990359,797.9718097933007
1731655362.317819,782.1652351273701,801.8479518278572,797.6348676906262,798.0964119807629
1731655362.3180065,773.8829514282885,804.7980989411245,794.650566494864,798.2164263375884
1731655362.319659,782.5721727808321,807.9802118480653,793.1803962866512,798.3336246147722
1731655362.3235774,802.6090897515325,810.3075259616186,792.4617220802372,798.4496311334125
1731655362.3274958,819.3671278925128,811.4198220002264,791.679579954002,798.5649753746827
1731655362.330253,820.5500542273787,811.4641430213507,790.7139266543433,798.6793834681417
1731655362.331414,805.7222637234039,810.7374004746886,790.2385829666891,798.7924307511406
1731655362.333634,786.526976751505,809.4584302896101,791.1591552736976,798.9039311578024
1731655362.3353324,777.4954786176361,807.7325363910959,793.8569838007187,799.0139254257197
1731655362.336706,784.7229101965233,805.6829449941955,797.7915937896445,799.1224451449449
1731655362.3392508,801.3177880225912,803.6689032615931,801.7315963750312,799.2293213838814
1731655362.3431692,813.1879069714929,802.3933766606435,804.4625543633191,799.3342573580328
1731655362.3470876,810.5202495506682,802.6673370156954,805.5084441539093,799.4372190099299
1731655362.3492622,795.7249033969553,804.8406958510313,805.384626068346,799.5388945539307
1731655362.3510058,781.4615741151758,808.2998120524196,805.207287715526,799.6406456144603
1731655362.3549242,780.4317646870086,811.5310919206391,805.9197771829065,799.7433901397548
1731655362.3555927,795.2167521983479,812.8456596378129,807.6421659256735,799.8456593871113
1731655362.3588426,816.1629503040815,811.3020628921553,809.544401667128,799.9425677009019
1731655362.362761,828.6915833418866,807.2016581318385,810.3092891426826,800.0283962114707
1731655362.3648903,824.0952450977294,801.8897218963666,808.9270819326015,800.1038183858014
1731655362.3651586,805.5660839594624,797.0871612115488,805.3805892739404,800.1834161719755
1731655362.3666794,785.200063017027,794.1840195343016,800.7787193744217,800.2929460498177
1731655362.3705976,774.6428572366223,793.7942893860081,796.7467288110989,800.4467335997805
1731655362.3744795,776.7309989549193,795.6393300900329,794.3857351263138,800.6116964082003
1731655362.374516,784.5710960518954,798.7055555598052,793.5673211291829,800.6925477525908
1731655362.3784344,788.5651265194642,801.6188467784599,793.2215901371744,800.5877572653278
1731655362.3805184,785.3242333009296,803.16364408562,792.4780763896234,800.3286886495982
1731655362.3823528,780.6317935550636,802.7723303846547,791.6673239955373,800.2097070154445
1731655362.3862712,783.6262118873159,800.7247745758847,792.1904158029542,800.7072767065739
1731655362.3901894,797.2626543358228,797.9114547258919,795.2660735958787,802.0230877584222
1731655362.3933666,813.832467164784,795.3154195220973,800.6512566802845,803.4084505625918
1731655362.3941078,820.1739625953205,793.5731806081491,806.5093169318584,802.9367757080296
1731655362.3961463,808.676691503049,792.8471105440251,810.5698454401768,798.5719123302425
1731655362.3980262,784.8170158385294,792.9433464670423,811.5895529910724,790.4602908699846
1731655362.4000645,764.4628837536671,793.4972031693939,809.941597169875,782.4460577480643
1731655362.4019446,762.4472499695166,794.1491203056768,807.0137216898195,780.2167975257838
1731655362.405863,781.1669608815979,794.6828022297691,804.1106540324139,786.5274283737047
1731655362.4097812,808.353354699678,795.0628522791487,801.8187275347142,797.9184699434406
1731655362.4117744,826.1802276616665,795.3613973303198,800.1792172380136,806.7822533730184
1731655362.4122534,824.8316283886128,795.6571507083428,799.2186344110116,807.4922736816624
1731655362.4136996,809.7841388509038,795.9842384786217,799.1699810731269,801.2410993217921
1731655362.417618,796.8364672349057,796.3368695061047,800.2059834957428,795.222800496073
1731655362.4215364,798.8549039699718,796.6958964385952,802.1014031123423,796.6591083489781
1731655362.4254549,815.1725117338134,797.0484517653159,804.2946518705894,806.6393346884703
1731655362.4274025,832.4616813193089,797.392423304206,806.3083001910551,819.0467799298452
1731655362.429373,836.2174518380477,797.7316445758416,808.0337373225996,825.6045550009236
1731655362.4311402,823.0423430910851,798.0701084349889,809.5390992013017,822.8113278940398
1731655362.4332914,803.4427297264281,798.4093793277062,810.6501369611001,814.8203495135591
1731655362.43497,793.0177232236787,798.7489982628882,810.8673265304521,809.7276558776456
1731655362.4372098,799.5506712002383,799.0879213830077,809.8114283451525,812.4016463866817
1731655362.4411285,816.6499435696159,799.4255039923619,807.7435569294126,820.0578697886529
1731655362.4430306,829.0188783088751,799.7616743420934,805.5477410981346,824.5675971032953
1731655362.445047,824.9256039034207,800.0966505888528,804.1057691341708,819.7203907047683
1731655362.4489648,805.6582088888399,800.430638396538,803.6385097777488,807.1896131624002
1731655362.450027,784.3022138675685,800.7637094069585,803.6295220237635,795.7868393052009
1731655362.4528832,774.9831940338537,801.0958335091633,803.3711117000611,794.3021216433527
1731655362.4568017,781.534308684556,801.4269567209034,802.6087867771791,803.9350975689863
1731655362.4586587,794.8811598157315,801.7570491086346,801.7372322759439,816.8795622161794
1731655362.46072,801.0661719086661,802.0861089633437,801.4492452717024,822.4046091612526
1731655362.4646385,793.0379639936234,802.4141459338283,802.188592292738,815.3880851235874
1731655362.4685566,776.4493023908445,802.7411684911053,803.8410526803631,800.2963944376838
1731655362.4689138,764.8889779350667,803.0671855369968,805.82484349194,787.5535282312907
1731655362.4698758,768.6349062995108,803.3922148157379,807.4161212771669,785.4465382601821
1731655362.4724753,786.0874976183039,803.7162818724903,808.0568490961015,794.0197406850755
1731655362.4742868,804.7734285797663,804.0393982342321,807.5365678320376,805.5360830312119
1731655362.4763937,811.2087556168572,804.361528332234,806.0641661102105,810.8784131414216
1731655362.480312,801.7976021830149,804.6825827545836,804.2039377003842,806.7380762322131
1731655362.4842305,785.8375563943472,805.0024838256734,802.601653593655,797.906377436548
1731655362.4878006,777.8706584096664,805.3213032237071,801.5757251863581,792.9173041389178
1731655362.4881485,785.4813555371668,805.6393658690463,800.8800266896645,796.7313963011056
1731655362.489915,802.7451821065541,805.9571236723409,799.9137489392443,806.6165933869655
1731655362.4920669,814.9561502349836,806.2746774050233,798.2694945533848,814.6228621298517
1731655362.4959853,810.7165258975202,806.5911752548591,796.1526323985811,814.3798171374995
1731655362.4999037,791.3073220997572,806.9047990169328,794.3026197420932,806.3628596909955
1731655362.503822,769.7800797331801,807.2141375599541,793.5210521134796,797.3286510254685
1731655362.5047815,760.8776510135135,807.5207911871726,794.2315997279159,794.6782964999604
1731655362.5055428,770.0592380514443,807.8310537418498,796.342753756676,800.5402834419441
1731655362.5066874,790.006286771394,808.1530038863973,799.3338757455311,810.236336180233
1731655362.5077405,806.8008856601649,808.4871444735891,802.3968165124315,816.1190746028554
1731655362.511659,810.720554272313,808.8156401254387,804.6482828080074,813.6623495398364
1731655362.5155773,803.367560352565,809.1039427574623,805.4945444797157,805.0512077882389
1731655362.5194955,795.6649921676876,809.3288873682233,805.0110527348357,797.4002548578302
1731655362.5211709,798.2606877195316,809.5275669917868,804.0039527797372,796.890998162871
1731655362.523414,812.0784269058544,809.8236183382581,803.5882758222181,803.5491366316546
1731655362.5255744,827.0003709087774,810.363099602125,804.5319478283403,811.1533387892431
1731655362.527332,830.131478877489,811.1343473882484,806.8330893871275,812.6282878331605
1731655362.5312505,816.9104759931888,811.7831700366346,809.7871596975713,806.4837263971101
1731655362.535169,795.6045426979899,811.6668099617266,812.3940690996633,798.671077390739
1731655362.536799,781.1082413642513,810.2659588644628,813.7688570740419,797.9537782041795
1731655362.5390873,782.9714792496317,807.6517765119511,813.3841782092156,808.423118681238
1731655362.5396874,797.4955484190573,804.4950819096224,811.2150047484938,825.3409161474187
1731655362.5430057,810.4734364138541,801.5468845103617,807.8542500745203,837.9130872567733
1731655362.5444613,808.5476649252985,799.1425591047523,804.4641960818032,837.1102945781587
1731655362.546924,790.1817530953069,797.2675695660114,802.3728741225349,822.6238529844396
1731655362.5508423,767.3407069419313,796.0628712143154,802.4042130550658,803.5052478273917
1731655362.5524268,756.1960999029467,796.1146264781428,804.3814750808247,791.7099646063009
1731655362.5547607,764.0994919733042,798.0586946025641,807.230582207304,793.3104299969917
1731655362.558679,783.5073189140741,801.7561198436616,809.6547313007355,804.2397715821679
1731655362.5625975,798.140486784685,805.8483384708562,810.870985132611,814.0192546899194
1731655362.563348,796.4330540140311,808.3187628953112,810.8760297269017,814.4390213179886
1731655362.5665157,780.9838406918059,807.8570394828229,810.1621809563312,806.0396656589281
1731655362.568055,766.0430062206547,805.0193244421407,809.2612674901118,797.1542089153928
1731655362.570434,765.280262049984,802.1384263150352,808.5049941889895,796.5693972749491
1731655362.5743525,780.256611889124,801.826276713561,808.0304113716447,806.0667963227279
1731655362.5745933,799.1966105853448,805.0737460869176,807.8082991973798,818.9260543502895
1731655362.578271,806.8613211835326,810.3870128816545,807.6104771087062,825.4028061138242
1731655362.582189,797.1877216828857,814.6643760365797,807.0956522825253,820.6021928376392
1731655362.5822349,778.3310694550452,815.2031488343764,806.1421209066883,808.4418604687163
1731655362.583683,766.1138031100197,811.4243089952457,805.1826456325024,798.621589182081
1731655362.5861075,771.2659243038418,805.1971444889513,805.0872281453829,799.0149363105998
1731655362.590026,790.7700230362747,799.6790489544422,806.4783785579943,809.4574201551858
1731655362.5939443,810.2781823342087,797.5210041144408,809.003191734415,821.8418402432127
1731655362.5978627,815.6050827278724,799.5420413766468,811.3267576336077,826.5092579429397
1731655362.599311,803.930430577502,804.530448537353,812.0554196400628,819.9113317271484
1731655362.6011217,785.6861546945726,810.0929207608264,810.8847655914128,807.427925675604
1731655362.6017811,775.9445537575359,813.9375985513618,808.9243190609986,799.0534285586322
1731655362.6056995,782.8037345228444,814.9015378006061,807.8284635837385,801.4062763037153
1731655362.609499,802.3284027592142,813.3170182104816,808.4666009628073,812.5181349787408
1731655362.6096177,823.3414452177235,810.668444314198,810.2964135645348,823.6302404065801
1731655362.613536,836.6262997687334,808.7464582786972,811.9124568615409,826.4990094050341
1731655362.6149392,840.2619430953947,808.673057991385,812.1415939788315,820.1466844950628
1731655362.6174543,838.0740062110259,810.2690289385298,810.6719141803869,811.429169704113
1731655362.6200085,834.8550157119641,812.1454803776512,807.8460213418842,808.9837259237459
1731655362.6213727,833.1560992966171,812.5304905756205,804.1279002347087,815.7388885338762
1731655362.625291,833.0759067155534,810.3682842320102,799.9206860497044,826.4027009198093
1731655362.6292095,833.6314370170915,806.0288075190772,795.8181564270174,832.0731498177785
1731655362.6305673,834.0000766654287,801.2177481434716,792.7856091199061,827.9861393203238
1731655362.633128,833.945755889366,798.1524249088111,791.8293835162426,817.7378473119626
1731655362.6370463,833.6331948506106,798.4201885456356,793.2985254797538,810.3857418019809
1731655362.6388953,833.2968431388554,802.0624922701646,796.4264837534745,812.9055370335781
1731655362.6409647,833.0547539583689,807.3957714314745,799.6103248639052,824.3157033535572
1731655362.6444046,832.9012256391396,811.822696446587,801.3461909531379,836.2863715437898
1731655362.6448832,832.7809359001678,813.3045618328542,801.1879365724659,839.7040679898014
1731655362.6461952,832.6518004642637,811.5526062603876,800.0200744337302,831.8919180246428
1731655362.648801,832.5037147046766,808.0105984178465,799.4086185175929,818.6982951263401
1731655362.6527195,832.3466237919688,804.6068846769401,800.4691462820338,809.781936722817
1731655362.656638,832.1928639377008,802.3404726311177,803.0570395113969,810.9089789045238
1731655362.6577823,832.0480757027001,800.9135535894656,805.849567344308,819.5256492436438
1731655362.6605566,831.9114812318763,799.5789411084827,807.2333397009213,827.1777180805923
1731655362.6618233,831.7800150966881,798.1809124375654,806.3459589998602,826.6753634810254
1731655362.664475,831.6515300757186,797.2821840645797,803.5615738163311,818.0253893384095
1731655362.6683931,831.5255969592064,797.3386007089617,800.1524862298413,808.324777097663
1731655362.6723115,831.4027613676083,797.9162827860856,797.4377395946797,805.8970337580304
1731655362.67623,831.2835969741808,797.8677494275208,796.0330245262763,813.5445378945855
1731655362.6766691,831.1682750567907,796.366947899987,795.6746185611938,826.1939977591545
1731655362.6774514,831.0566589457399,793.8444242598669,795.6553148905801,834.5289431007299
1731655362.6793103,830.9486002344747,791.9528555759919,795.5048650709348,831.7125307072808
1731655362.6801484,830.844123377556,792.533027194343,795.4210244874572,818.2921434719166
1731655362.6840668,830.7433403567334,796.3552743049722,796.1523277433148,801.8456712606273
1731655362.6879847,830.6461338268986,802.5660192606814,798.4124913316434,791.6479249059042
1731655362.6919034,830.5518706374849,809.2128203635611,802.2370178915164,792.1997206540746
1731655362.6930797,830.4595726782023,814.4063635279917,806.7541307334556,800.4060018421713
1731655362.695556,830.3688328088826,817.2527492160367,810.5698479715276,808.5354107955437
1731655362.6958218,830.2810888453507,817.9878227394236,812.5377834740805,810.5984676383008
1731655362.6997402,830.1998736051485,817.4449304143193,812.4060949358743,807.0156331880934
1731655362.7036586,830.1283341620401,816.413423170364,810.9104691701408,803.8267542713188
1731655362.7075768,830.0640182948754,815.290106200795,809.2630987932483,807.1956404963287
1731655362.708707,829.9948869882325,814.0308093418021,808.4063286465894,817.8441793781009
1731655362.7114952,829.9039740669474,812.2624044184387,808.5506605503288,830.0443534854555
1731655362.7142162,829.7873863510632,809.5445196676002,809.277375124123,835.9418538108343
1731655362.7144427,829.6771722666899,805.802827965986,810.0343712155193,831.5531448078387
1731655362.7154136,829.6422732013216,801.7103733111998,810.5579098990197,819.486615543418
1731655362.719332,829.7371016981962,798.5876693266556,810.8750505104304,806.4068268806399
1731655362.7232504,829.9030242911659,797.6473856162618,810.9852876422683,797.9004911855094
1731655362.7243354,829.9034899802183,799.0341454487282,810.6613777310525,795.302799754142
1731655362.7271686,829.4317411898029,801.4733036479687,809.6701967176225,796.4386329585124
1731655362.731087,828.4634693563544,802.9570870446765,808.1941908042745,798.39816234301
1731655362.7333295,827.6667027952877,802.0313172316455,806.9018795166369,799.5326002281075
1731655362.7350054,828.349036930222,798.710545632849,806.4177076784607,799.6863841266422
1731655362.7389238,831.4053116144605,794.3588440894068,806.623946518256,799.4172542067222
1731655362.7399635,835.4699321516291,790.7243515444248,806.5338904107563,799.2326532010871
1731655362.7428422,835.9059036416131,788.921939014653,804.9953919678795,799.298571285785
1731655362.7467604,826.9791593294615,789.0406862439241,801.6690981951194,799.5295813726576
1731655362.749122,807.2607950186244,790.4435318950979,797.4238613314,799.7852267663019
1731655362.7506788,783.6533566228685,792.337030939834,793.8122579533018,799.989010688155
1731655362.7522163,768.4002670914521,794.1781166451583,792.0869496610856,800.1396391169869
1731655362.7545972,769.7002798692325,795.7926776178833,792.5246360872543,800.2688840722583
1731655362.7555916,783.9965837722156,797.3168091422275,794.4481429814333,800.4028176923922
1731655362.7585156,797.7436785835031,799.0595280874635,796.7537762513164,800.5487132891041
1731655362.762434,798.144079225344,801.2878759363624,798.4977877042627,800.7011626552908
1731655362.7663522,783.9559499986474,803.9702715996833,799.2466530387867,800.8526307813474
1731655362.7702706,766.8150804277851,806.6442594129419,799.1416882362121,800.9993220865016
1731655362.7711031,761.4459298505981,808.5691496385404,798.7271136591797,801.1413633815959
1731655362.7712195,772.8483438568927,809.1051912907124,798.6007664487557,801.2804265592689
1731655362.774189,791.427320240779,808.0481674893324,799.0271416162341,801.4177364446841
1731655362.7781074,800.4281073975874,805.6868347450173,799.7654712964977,801.5534966945578
1731655362.7820258,789.6629594691884,802.600280755207,800.3018938665622,801.6872979809813
1731655362.7840276,764.2528314893309,799.4058259242533,800.3673674283153,801.8187017137934
1731655362.785944,741.2386061374602,796.6326640398938,800.3194704375059,801.94751751982
1731655362.7868476,736.7521744228147,794.7206764562251,800.9994175318694,802.0737245068165
1731655362.7898624,753.8552226011178,794.029079150628,803.0863352699009,802.1972322338672
1731655362.7899902,780.4363584820009,794.7710917399023,806.4251744958834,802.3177357295865
1731655362.7937808,798.6075694601642,796.8982369083465,809.8934406624066,802.4348581998652
1731655362.7976992,798.1570104897633,800.0392048735179,811.9840516497914,802.548590076953
1731655362.8016176,783.6033416444673,803.5995438099762,811.7196425802119,802.659707055259
1731655362.8024757,769.5865067783104,807.0244716503254,809.2489272631886,802.7695445990885
1731655362.8055358,768.6480177975335,810.0486325571787,805.7247481049064,802.8786446516584
1731655362.808877,781.3785846940785,812.6739212703023,802.5872754580939,802.984773665111
1731655362.8094542,796.6589739761971,814.8277904485021,800.743441684798,803.0823637936986
1731655362.8133726,801.3555521227049,816.0510245333625,800.1409107357092,803.166069218761
1731655362.817291,791.3375417750577,815.6741744772949,799.9773266555071,803.2387180509947
1731655362.8181038,774.9406481894523,813.4766571859623,799.4217671716037,803.3179276278529
1731655362.8189332,766.2361959509647,810.1985785279203,798.3832925775769,803.4299942455569
1731655362.8212094,773.5766370622765,807.2589385134727,797.7472291438349,803.5830601470747
1731655362.8251276,792.6373090087526,805.7891654848107,798.8127136414261,803.7310735374053
1731655362.8277638,809.7125835502326,805.854355575339,802.2786681010581,803.7687096649224
1731655362.829046,812.857630575317,806.6254279261999,807.5396754395962,803.6056762432379
1731655362.8329644,801.8529601789925,807.3166030307411,812.8546022541261,803.3175980425619
1731655362.833732,788.4851035615873,807.9008522310086,816.279432238686,803.2554378164139
1731655362.8368828,786.4698554662518,808.8529585769259,816.6936393262613,803.8985011893031
1731655362.8408012,799.2817064320776,810.2342277990073,814.2506682109051,805.3218440961414
1731655362.8447194,816.3613414075248,811.18891880725,810.0814536243138,806.5324248617806
1731655362.8466506,821.319789954741,810.532943474139,805.6167798914719,805.4391501504576
1731655362.8486378,805.5794933292946,807.959850615333,802.044946710612,800.2619724095993
1731655362.8493598,776.1763777090976,804.6606156100419,800.1327715821186,791.9967407294994
1731655362.8525562,751.1545259111922,802.6136374426657,800.2463361699814,785.4832419123578
1731655362.8538392,746.0487568456405,803.0265056770571,802.3084655368918,786.4623434395783
1731655362.8564746,762.1358769115957,805.2359674623931,805.6731480353008,795.9974088001804
1731655362.860393,785.7924657103114,807.0230319951887,809.1493346629202,807.9395790514042
1731655362.8643112,799.5027851158858,806.1228753608347,811.3534584868613,813.2582216726877
1731655362.864988,795.6937988256003,801.7937071653957,811.2769971374474,808.0022340330696
1731655362.8655374,782.1859733165668,795.3856552774345,808.7490597412205,797.3953772010241
1731655362.8682296,774.8550934801245,789.6557976369086,804.5406204251509,791.82581169998
1731655362.872148,783.7207983195997,787.3326734234819,800.0798919427091,797.9526005068715
1731655362.8760664,804.1964475869726,789.7170178652511,796.9194241186342,812.7261258075464
1731655362.8799849,820.825153134522,796.0024082985422,796.1513428569169,825.644482904622
1731655362.880616,820.2341794926637,803.6668842006733,797.9663581114718,827.3489321855247
1731655362.883903,802.4107951050281,809.7700649637228,801.5254380014933,817.2251829328641
1731655362.8844242,781.081224433095,812.4640106627141,805.2315199490835,803.7307902314603
1731655362.8878214,773.0719401553582,811.8440094549039,807.3443581262718,797.4503609907531
1731655362.8887448,785.2422938294524,809.6330636201538,806.7251150921543,802.7610986601902
1731655362.8917398,809.1949759030651,807.9226279841423,803.4006895419365,814.7574618979926
1731655362.8956585,827.7751755417693,807.8159764486477,798.6581746809206,823.5965759898697
1731655362.896244,828.2765547749757,808.8958761781158,794.5449001748643,822.5357487265616
1731655362.899577,812.0376460366957,809.842571290788,792.9308289752221,813.1801975489842
1731655362.903311,792.8029845687745,809.6443916566102,794.5697053768632,803.8212027900586
1731655362.9034948,785.1203013717832,808.386954531683,798.6864722051203,802.3206888011173
1731655362.9074132,792.2700336478571,807.0218839595728,803.3857911284563,809.400680648711
1731655362.9113317,803.8110022182362,806.4534877869185,806.6943815400884,817.891088361677
1731655362.911872,804.8589184625943,806.8414492618454,807.6259522889109,818.6558829667778
1731655362.91525,789.2791576316989,807.6694516565324,806.618440363751,808.4248918292819
1731655362.9191685,765.6591350925461,808.3213042721183,805.0960487049175,793.0822508539726
1731655362.922198,751.0383241197537,808.5319835687068,804.4752047327664,783.5155361383248
1731655362.9230866,757.49508036776,808.4066324004951,805.2753238746216,787.099238199374
1731655362.9236505,782.3461492642521,808.1796937385162,806.8945153986277,801.5298197402201
1731655362.9270053,809.7008893127061,808.0089642651171,808.1448390359736,816.1151032102484
1731655362.9275,822.223379037688,807.9253341012362,808.1260218375706,819.8466249034858
1731655362.9309237,814.0527032600592,807.8873483020211,806.8099492859164,810.0239132453495
1731655362.934842,794.8030379403745,807.8488443743117,804.9628131440777,794.385013294527
1731655362.9387605,781.4228444022002,807.79063491902,803.5474984752941,784.7384138482505
1731655362.9410849,784.4693509786891,807.7171629468315,803.1075821152532,787.216070947964
1731655362.9426785,800.1333479203537,807.6402640599148,803.5592898745502,797.3861912019978
1731655362.943128,814.6322486770739,807.5675563566791,804.4276677239228,804.4830176871969
1731655362.9465969,816.9551402571753,807.5000814535274,805.236175316666,801.1155330445757
1731655362.9505153,808.6522087658445,807.4353982884311,805.7433980063603,789.97624329613
1731655362.9544337,802.0602975333742,807.3710883572287,805.9347939806926,781.6730776377376
1731655362.958352,808.6736463713474,807.3062479312015,805.8788999841565,785.5434039348158
1731655362.9585564,827.998865000401,807.2411828599737,805.6063245784694,801.3288200328401
1731655362.9587562,846.6752877116254,807.1765216390468,805.0924816699444,818.7826263605028
1731655362.9599717,848.8211752453375,807.1126325432807,804.3184210638751,825.613059530239
1731655362.9622705,829.2072177946267,807.0495352441105,803.331883995199,817.3261768203765
1731655362.966189,798.4414576598357,806.9870796316171,802.2616245386149,800.9621264718286
1731655362.9701073,775.5887715685947,806.9251276606395,801.3008880072172,789.5779013399784
1731655362.9740255,773.7349881378543,806.8636240145444,800.6817569334958,791.838153991255
1731655362.9743843,789.9950233744879,806.8025771925118,800.6051469831115,805.1843020474081
1731655362.977944,808.1685916589879,806.7420156985129,801.0885330472273,818.1544619485239
1731655362.9788585,811.9772784169534,806.6819587578489,801.8179851981882,819.7964783209111
1731655362.9818623,798.1042104996448,806.622403414042,802.2037829514106,808.3156677136262
1731655362.9857805,778.5253690304627,806.5633164479226,801.7290294863371,792.0681350538013
1731655362.989699,770.5257161632859,806.5046331655484,800.3865858736744,782.5862009847318
1731655362.9900124,782.6945021608072,806.4462833548262,798.8324994321229,785.638087210878
1731655362.993462,808.0413567239223,806.3882572400645,798.0611163681424,797.3195437051718
1731655362.9936173,829.3711677694884,806.3306762694307,798.7802745109768,807.6907443571013
1731655362.9975357,832.4426830504374,806.2737721786648,800.9005372688316,808.603345172184
1731655362.9977453,816.6703908680594,806.217679766011,803.4880111748914,799.597673437161
1731655363.001454,795.2405723030156,806.1620948689981,805.2604404516437,787.6884522003837
1731655363.0053723,784.6873104986083,806.1061152513804,805.3935739945446,781.6464663048108
1731655363.0056405,792.1033975545358,806.048738939583,804.1632073089926,785.3997313170095
1731655363.0092907,810.050997793586,805.9901684840912,802.9203309638208,795.5525933125622
1731655363.013209,823.188859580827,805.9330945662035,803.2440116417986,804.619237632746
1731655363.016632,821.1895759140599,805.8820653639502,805.750488348124,807.1000569539829
1731655363.0171275,807.3060372522357,805.8393183054426,809.4617565565217,803.4820730824634
1731655363.021046,795.4575563742749,805.7984386608462,812.3425416823341,799.1382578280651
1731655363.0212684,798.2361643152001,805.7421744066378,812.7072232498673,799.3179618238934
1731655363.024964,815.8725459700617,805.6530781277522,810.4446644669507,804.5486514845626
1731655363.0283678,835.5025331618708,805.5384622352851,807.1091758451036,810.3223842227185
1731655363.0288825,841.5501069832058,805.4521951844202,804.8123351485598,811.3020089259339
1731655363.032801,828.7131202983309,805.4769025664887,804.7716033476788,806.3986385991287
1731655363.035519,806.6371596940322,805.638198313151,806.5940820110006,800.172991169715
1731655363.036719,792.0620056465912,805.7801576074994,808.7680502870653,799.0295828343613
1731655363.0368965,794.7367102247882,805.5153199226015,809.9048064571613,805.2765590550912
1731655363.0406375,808.9762626460455,804.370558920767,809.7314621663747,814.3556359515392
1731655363.044556,818.3117146183401,802.0856526574823,809.0820902860705,818.1380871614118
1731655363.0484743,809.6009165564312,798.8220027127059,808.9709578751366,811.8980695952663
1731655363.0523927,784.6916028356148,795.1048199232279,809.5913383436061,799.0486822374521
1731655363.0525246,759.6575524823761,791.6106680687313,810.1316382360885,789.2974179186127
1731655363.054406,752.14167018602,789.0170442710291,809.5686059974857,791.3245469439944
1731655363.0563111,767.2214752466599,787.92568776418,807.7063184194013,805.7195388848172
1731655363.0602295,793.2059413633666,788.6828341492746,805.4957189504718,823.8744059025074
1731655363.0632737,810.5833481350519,791.0394557196265,804.335977627285,833.955092356265
1731655363.0641477,806.9490318514786,793.9312714175804,804.9954748750918,829.5622644035458
1731655363.068066,786.218764170197,795.8029931374564,807.0822478171141,814.4622394435879
1731655363.0681524,765.0410533760413,795.5338495416,809.3997023278012,799.6543765652036
1731655363.0719843,759.4470825711356,793.3652534957218,810.7261418642646,795.0155513605488
1731655363.0732927,772.5142899420264,790.9724915672006,810.3639939193818,802.1152811732388
1731655363.0759027,792.8962960951679,790.3976112952832,808.2498952439701,813.8220580226939
1731655363.079821,805.0836397321597,792.5642521300377,804.8531032620941,820.702925184072
1731655363.0837395,802.5907038302485,796.567083972036,801.0656847259585,818.6988233945816
1731655363.0837803,793.0496366892837,800.3357334667209,798.0212244111892,811.8128726103158
1731655363.087658,791.229443193674,802.1267360812341,796.7186549279927,808.0074365890302
1731655363.0915763,806.1067246360848,801.662125345596,797.5446150340576,812.1193896979811
1731655363.0921795,832.7330626509539,800.1339958739276,799.9827768344053,821.6889525827304
1731655363.0954947,855.3792103125779,799.2442584779907,802.7466430324035,828.8848254822682
1731655363.098179,859.3831945523069,800.0759302465577,804.3346609360788,826.8382388343249
1731655363.0994086,842.54893738987,802.5232490274234,803.7640265111514,815.4447715071566
1731655363.0994132,817.3702281596541,805.5178519410817,801.1112019410427,802.1270351441001
1731655363.103331,802.1122476159059,807.8002767433992,797.5358717905522,796.7034469225874
1731655363.1072495,807.147681829445,808.7117672447973,794.7192771382219,803.9679888614468
1731655363.1110663,826.9862122915976,808.4949063647866,794.0096775803668,819.6908073227452
1731655363.111168,844.6248540860895,807.923424087024,795.7844079357932,833.5128659384999
1731655363.1150367,845.2762057072663,807.5809009905146,799.4021058910309,836.8304448385995
1731655363.1150866,828.5685762450861,807.3943124734634,803.7032542708494,829.4627162142029
1731655363.119005,809.031988088102,806.807808522605,807.6432131355045,819.5697135954856
1731655363.1229231,804.181081160943,805.4154406153057,810.6031930454004,816.7555573401535
1731655363.1268415,819.9348711555809,803.4768715178294,812.2489652873357,824.0192411299415
1731655363.1299531,845.4157365163782,801.8690858094744,812.230121301343,835.2404767706773
1731655363.1306648,861.38119871471,801.5168813398604,810.1648353757334,840.3059541866851
1731655363.13076,855.4355207091157,802.7401114174961,806.0635230632141,833.69033690739
1731655363.133085,831.8793112591227,804.9797591034466,800.8326256362833,819.477320117078
1731655363.1346784,808.430885311706,807.0860790888278,796.2540556266256,808.6126089830805
1731655363.1385968,802.3653398186215,807.9938596823918,794.1768340019486,810.3562791903978
1731655363.1425147,816.9658221114848,807.3670165707549,795.3716913000728,824.6457219136984
1731655363.1462927,839.1291473977852,805.7958789588525,798.9399009362396,841.6067914032573
1731655363.1464334,850.2062586789039,804.4012456998578,802.8393928700466,848.9174978977923
1731655363.14884,841.3410600173474,804.0984659763565,805.1989796604934,841.3913055831687
1731655363.1503518,820.6374079598328,805.0372313066651,805.4269609706533,825.1542479026969
1731655363.1542702,806.1466307856986,806.6348275769927,804.3072740251653,812.940812252051
1731655363.1581886,810.5919119990158,808.165739434852,803.1394045224346,814.117296551955
1731655363.1619208,830.7007929923851,809.379126165401,802.7183925763242,827.3206770167261
1731655363.1621068,849.939227721695,810.5534905102787,802.9398768697912,841.5250878375821
1731655363.1660252,852.0248855842005,811.9218025791928,803.1690911445504,844.5992058667006
1731655363.167727,833.8410807966286,813.0622109881622,802.8915525662404,832.5402096711211
1731655363.1679907,807.427116483684,812.958219217139,802.0770006989623,812.2508260809399
1731655363.1699436,790.0011402774123,810.8067218385569,801.0713577228942,795.9745836718262
1731655363.173862,790.4605473463122,806.8807774459735,800.2447048348012,791.9829351435101
1731655363.177549,803.1457073716482,802.6087956503806,799.7337246109021,798.8203832900867
1731655363.1777804,813.496788173109,799.6873678969067,799.4338273677854,807.42391684062
1731655363.1816986,810.6244910450367,798.912082896656,799.1528172494619,809.110589813736
1731655363.185617,796.3174822000954,799.6946889279635,798.7516432325167,802.7246210696511
1731655363.1866138,783.0744457539363,800.6644765481946,798.199137799641,795.0108019788395
1731655363.1895354,782.9764501876191,800.8313813809284,797.5930956817881,794.0482554479212
1731655363.193177,796.9288593365628,800.3398972907972,797.1809445063196,801.5464479960879
1731655363.1934538,813.4437935539729,800.2401499773229,797.2986861573456,810.8044930732084
1731655363.1973722,818.0313711009478,801.5433837351109,798.1545385349889,812.2300380456404
1731655363.2012904,805.3583873002464,804.3641113891471,799.5793114935567,801.7586073590453
1731655363.2028966,784.0834713195435,807.7875840438269,801.0105132388143,784.9886664670519
1731655363.2052088,770.3511525253123,810.4776186509711,801.8228082303939,773.4292866307231
1731655363.2055006,775.1071040103957,811.5088296915928,801.7730997219601,775.7650137334076
1731655363.208805,795.2905126785087,810.8396308227623,801.1758686185244,791.0656946681984
1731655363.2091272,815.9288079756183,809.1909563525213,800.6609319481221,809.334349130185
1731655363.2130456,821.6647136873651,807.5220274120948,800.7555705674688,819.0516558382134
1731655363.216964,808.7241601529108,806.4837131160302,801.6641198966325,815.8523334781487
1731655363.2208822,787.6979844355761,806.1319504167184,803.3597971579587,805.4310483916274
1731655363.2243874,774.7111049071956,805.9817611991144,805.7539372024232,798.2810920268466
1731655363.2244327,778.1158315852082,805.3416493783876,808.6664049817355,800.5721735810008
1731655363.2248006,791.736437703951,803.7779769936718,811.6313433675548,808.8339198306483
1731655363.228719,800.3158074045394,801.4664316050022,813.857059297288,813.0271647225392
1731655363.2326374,792.6010256828476,799.1804077893247,814.5545987330049,805.4524657147986
1731655363.2365558,771.150963975913,797.8701017345405,813.4467929413562,787.8850054527957
1731655363.2378025,750.7531293784369,798.1062870049763,811.0159726919154,770.7985856300857
1731655363.240061,746.7388848900164,799.795941969917,808.2318767383358,765.2622102147454
1731655363.240474,762.6246432675968,802.3553343389834,805.9427142676876,774.2088193793005
1731655363.2432742,786.9971187669743,805.1470846824271,804.3947019004709,790.2012462760637
1731655363.2443924,802.2811824550947,807.8121266794512,803.2375807609503,801.4679506941613
1731655363.2483108,798.6205499175534,810.2894017950874,801.9888511845929,801.3176302454392
1731655363.2522292,781.757569707591,812.60554100007,800.571714076409,793.3013920573031
1731655363.2556891,768.2689685241194,814.6493496660174,799.4761548360849,787.868979171824
1731655363.2561476,771.8074309859111,816.076460464945,799.3862618983892,793.2409660347986
1731655363.2600658,791.7265824552869,816.38973569142,800.5717880844193,808.1250934804754
1731655363.262161,813.604000749677,815.2011130773584,802.5812837924628,822.4113109499054
1731655363.2639842,820.9478044983241,812.5875014015731,804.5309076529862,825.1657548472144
1731655363.2679026,807.8488418128208,809.2654529691598,805.7264907698712,813.0553389947809
1731655363.2713172,782.1543104356742,806.3008922050695,806.0521265353547,792.2824904821005
1731655363.271821,757.7907924452279,804.4757548142583,805.8518927951368,773.1120531493781
1731655363.2727082,744.2541204797997,803.861415803594,805.5459687172828,762.4276878887953
1731655363.2757394,742.1093593865791,803.9660161039197,805.3627842585854,760.5128952936693
1731655363.2796576,746.0761528306298,804.2174334428358,805.3180032486798,763.316114060708
1731655363.2810478,750.6549753016532,804.3066728899548,805.3300789579121,766.6338812456113
1731655363.283576,753.2927356969351,804.2114526388714,805.3279473466496,768.4982088699231
1731655363.286945,754.169519782233,804.0403264238191,805.2898835405384,769.0258359839942
1731655363.2874944,754.4859813370342,803.8882022420788,805.2290876278421,769.1223103398207
1731655363.2914128,755.1177645656741,803.7841548587439,805.1655735676372,769.4553350334081
1731655363.2953312,756.2493950893802,803.7105802494387,805.1097985106903,770.1696549690406
1731655363.2992494,757.6517340369086,803.6407417655957,805.0615878163658,771.0937250753325
1731655363.2999349,759.0606757253684,803.5606624943242,805.0163128574012,772.0269679912508
1731655363.3025732,760.3620854187741,803.4705780246422,804.9703283138202,772.8816445130109
1731655363.3031678,761.5776866547042,803.3766856009406,804.922694480572,773.6734127878049
1731655363.3070862,762.7741408076627,803.2838744334056,804.8742268566112,774.4526922791698
1731655363.3076138,763.9959003307581,803.193418972878,804.8259908533649,775.2534516674447
1731655363.3110046,765.2502285939737,803.1042463522367,804.7784985773773,776.0814788854053
1731655363.314923,766.5239998365375,803.0149480389501,804.7317092618939,776.9269487808996
1731655363.3182013,767.8036609938304,802.9248543787714,804.6853748558029,777.7795811168942
1731655363.3188217,769.0840794609962,802.8340349148851,804.6393180319117,778.6354404894339
1731655363.3188412,770.3670852329049,802.7428367763941,804.5935074353782,779.4958947988312
1731655363.3227596,771.6564942459977,802.6515129798257,804.5479987595722,780.3638539684613
1731655363.326678,772.9547287604655,802.5601216956733,804.5028549661836,781.2411897553714
1731655363.3305964,774.2622358525232,802.4686049828224,804.4581073897962,782.1282753716821
1731655363.3338294,775.5784719263183,802.3768954225138,804.4137587209359,783.0247238789415
1731655363.3345149,776.9029450886752,802.2849679013792,804.3698021266355,783.9301803875557
1731655363.3377085,778.2356308222621,802.1928351695468,804.326235353261,784.8446421979218
1731655363.3384333,779.5768581541025,802.1005219630736,804.283063841875,785.7683757228249
1731655363.3423514,780.9270390635738,802.008046685647,804.2402971517572,786.7017118076155
1731655363.3425195,782.2864998385805,801.9154190235471,804.1979447405882,787.6449168333451
1731655363.3462698,783.6554626267808,801.8226468179619,804.1560141510007,788.5981775646125
1731655363.3494575,785.0341042002242,801.7297414655054,804.1145114521264,789.5616450335355
1731655363.3501885,786.4226108118005,801.6367150111663,804.0734424281101,790.5354760394534
1731655363.354107,787.8211935943763,801.5435701265518,804.0328132389211,791.5198453373747
1731655363.3565953,789.2300715296524,801.4502932603235,803.9926301152108,792.5149338425471
1731655363.3580253,790.6494481366112,801.3568658451283,803.9528984619637,793.5209121683597
1731655363.3619432,792.0795078687,801.2632995856455,803.9136223377957,794.5379378246748
1731655363.3650854,793.5204446785157,801.169674847987,803.8748054021567,795.566173978323
1731655363.3658617,794.9725082935518,801.0761298520607,803.8364535744394,796.6058191900619
1731655363.36978,796.4360198122185,800.9827513264169,803.7985776153272,797.6571158483086
1731655363.3736985,797.9112960533218,800.8893952942609,803.761191755567,798.7202988299705
1731655363.375482,799.3984756382115,800.795606080579,803.7243051882886,799.795482764657
1731655363.3774252,800.8973711350662,800.7008815865331,803.6879093846712,800.8825717345542
1731655363.377617,802.4075963386992,800.6053584333931,803.6519741483505,801.9813520867809
1731655363.3807137,803.9291472910511,800.5104778481808,803.6164697222135,803.0918752866812
1731655363.3815353,805.4631932279547,800.4186386572601,803.5814173493826,804.2149581386191
1731655363.3854537,807.012205636827,800.3309980201982,803.5469325204173,805.3522284765551
1731655363.389372,808.578359670853,800.2441593445601,803.5131883325153,806.505046813798
1731655363.3932903,810.1602399107699,800.1490842722866,803.4802462509393,807.6723803555936
1731655363.394369,811.7503897335018,800.0367555232543,803.4478243972343,808.849329976468
1731655363.3963416,813.3383854875499,799.9112979517297,803.4152573257229,810.0293173631794
1731655363.3972087,814.9222949996894,799.801328683796,803.381959770941,811.211607868499
1731655363.4011269,816.5229848666654,799.750537716125,803.3483887464291,812.4103107532321
1731655363.4050453,818.1842563539888,799.7731795491455,803.316766466029,813.6537324599306
1731655363.4089637,819.9398117814889,799.7912129893155,803.2901958771004,814.9622248745769
1731655363.4119697,821.7510669186338,799.6157630912952,803.2693222181989,816.3082002893775
1731655363.412331,823.4675233559194,799.0452325394889,803.2481381661258,817.5927739254205
1731655363.412882,824.8971914493881,798.0644211129597,803.2138938649118,818.6950196270896
1731655363.4132557,826.0305464891414,796.9776212629331,803.1566858152747,819.6184804306946
1731655363.4168005,827.2957227694712,796.2798734256709,803.0876182795773,820.6507205621299
1731655363.420719,829.5141834822903,796.2967130264963,803.0504882101,822.3205292409731
1731655363.4246373,833.2202077106087,796.9059030159232,803.1013558007757,824.9442607514866
1731655363.4275978,837.4779297975477,797.6342457125286,803.2429124078081,827.8686739994243
1731655363.4285555,839.213383391887,798.0729514875158,803.3485209964513,829.0865227456013
1731655363.4321427,834.605914179332,798.2589457894318,803.1708949438829,826.2110399447789
1731655363.432474,822.9102868908794,798.7224376850334,802.5296716102074,818.9888008536935
1731655363.4363923,809.90654068172,800.1763746433635,801.6258951737974,811.4689711363816
1731655363.4403105,806.2050008336724,803.0304205394975,801.1876714422148,810.7614703416496
1731655363.4432256,819.3182698721583,806.976354746927,802.1231712215507,821.8158757959234
1731655363.444229,845.6908640395867,810.8994146264232,804.7916407884875,842.3273649483862
1731655363.4472368,871.0310237039945,813.2873434728108,808.5084823597095,863.073578692488
1731655363.4481473,880.3953230556984,813.0287857678626,811.7995640308305,874.4025562176632
1731655363.4510295,870.1438799084473,810.1437990153495,813.2496527965687,873.6749412828349
1731655363.4520657,851.3582147939914,805.9270840265516,812.2806883054637,867.1229235043504
1731655363.455984,841.1419423087824,802.3574244655763,809.3333718549326,864.2400587039627
1731655363.4588535,848.6250730537179,801.1249392416354,805.491046242818,869.4291850238221
1731655363.4599023,867.4549773927694,802.8197978844156,801.9810304417321,878.2679142218229
1731655363.4638207,881.4014929848115,806.6422502506906,799.8614387870423,881.7902909590246
1731655363.467739,878.4782735236636,810.7109503057557,799.8009755527163,875.0121263528401
1731655363.4699163,861.4427600741135,812.8660177355868,801.7430748884608,862.0686864069846
1731655363.4716575,845.5379007033949,811.7154032596925,804.5960825676794,853.3217441199026
1731655363.4744818,845.371571204896,807.4703887176734,806.441773862054,856.8307615161732
1731655363.475576,862.1762164186011,802.0202198612288,805.5210481554504,871.3731615304566
1731655363.479494,882.2819248413998,797.9853505267281,801.500725692671,886.8210874830786
1731655363.4821424,888.0906440806492,797.1602235623083,796.0170507316719,891.6588741995346
1731655363.4834125,872.4529165521568,799.3443559799242,791.8823428277423,881.791369180012
1731655363.487331,844.6942041580759,802.4727847209349,791.3839876473446,863.8190178164347
1731655363.4888031,823.484089043145,804.0820208023777,794.8569565826784,850.1857397268092
1731655363.49011,822.3860207573058,803.1026834104397,800.5085455358686,849.8129529349735
1731655363.491249,839.6849387016696,800.6369902370586,805.5490289117977,861.3898923292395
1731655363.4951675,860.5026967680035,799.1113240595919,807.8183306359018,874.5914105417946
1731655363.499086,869.2367658855247,800.4473154733668,806.8814264205745,878.3348117589967
1731655363.5030043,862.0193536866451,804.6516218487398,804.0207511468409,869.4853920657995
1731655363.505738,849.0208120573329,809.8607626251998,801.2934105066611,854.9711569003889
1731655363.5069227,844.9738738352262,813.7162681437237,800.3487741045323,845.7129916918441
1731655363.50769,856.0952642860065,814.964968997346,801.7080408528208,847.5721017053194
1731655363.5108411,874.3848868426109,814.1281672249434,804.7655748364566,856.8155304985593
1731655363.5147595,883.9556856650497,812.8787543813896,808.2761941114215,863.5833538210692
1731655363.5170484,874.1211686736491,812.7028145214252,810.9144838501392,860.1731191254723
1731655363.5186777,848.565227015581,813.8347775496914,811.6667175195142,847.2443889059174
1731655363.521366,823.1290039204465,815.1555296455444,810.0665113497283,833.0541956335146
1731655363.522596,813.8269819944146,815.032092308889,806.344255572802,826.6085882533803
1731655363.5265143,824.516142876443,812.47628515761,801.4457748103039,830.4438506464606
1731655363.5265768,844.069949849555,807.8835336152034,796.8212589975409,838.9048870044211
1731655363.5304327,855.4490070692281,802.9598072183827,794.0033909809883,843.2284867291922
1731655363.534351,849.4568678511721,799.9228756828678,794.1225636887555,839.1010539105931
1731655363.536994,832.0214848499963,800.3846461908396,797.4867315559239,830.2594552614453
1731655363.5382695,819.0401860328095,804.441543905302,803.3010428354056,825.0355157195162
1731655363.542188,823.0400735452349,810.4636512426816,809.6938114287834,828.8128662034259
1731655363.5454636,842.6125890827192,815.8152305869603,814.2913168165813,838.9220247811852
1731655363.5461063,863.2091014380187,818.2240104316725,815.311499206424,846.4070098388852
1731655363.5500247,868.5796829226097,817.0119152586383,812.6087679996241,843.2463080355373
1731655363.551954,853.642034502938,813.3730589645523,807.8821029038254,829.1044450244548
1731655363.552622,828.5673790771896,809.5039615058661,803.7538805168618,812.1644972108007
1731655363.5539432,810.8670481638183,807.2228576348825,802.2865321514665,803.336710436132
1731655363.557861,811.686934626744,807.0561051590263,803.9469576742741,808.2397651225489
1731655363.5617795,827.1237401656326,808.3172072050435,807.648299393056,823.0131857596567
1731655363.5643506,841.5240708555624,809.8771848064547,811.6504039180489,837.1393835117149
1731655363.565698,840.1946871650832,810.8832783884499,814.533616968873,841.159541238578
1731655363.5682502,821.2370259205148,810.9748953709123,815.6165446409261,833.3918827664505
1731655363.5696166,796.8173801602625,810.1556856704262,814.819875234632,820.504339451039
1731655363.573535,782.9247409375624,808.7103609934983,812.4329402124391,811.661583332332
1731655363.5774531,786.2953482253176,807.2343885387193,809.1167359328862,811.1199579089349
1731655363.5813715,799.4033914689307,806.4905839338918,805.9927095315464,815.287114072127
1731655363.5832374,807.3655192935287,806.9313090975737,804.390902297332,816.4071949465583
1731655363.583878,800.5818719230922,808.1955451226743,805.1113033294063,809.5054190201505
1731655363.58529,782.5293762699904,809.1191299297075,807.6641162049709,796.714082197934
1731655363.5868597,766.578665216588,808.4461295071534,810.2628372902516,785.5073819701594
1731655363.5892084,764.7863624980837,805.7827410126342,810.8831922356046,782.4450785490717
1731655363.5931268,777.9136312186783,802.0151366001297,808.7356485976704,787.617368836799
1731655363.5970447,794.7524915702489,798.7858312765134,804.9446198240132,794.3843302226201
1731655363.599506,801.2881522820144,797.4108265191356,801.7728017587245,794.7438156872067
1731655363.6009634,792.1906933880732,798.0945743252722,800.9854687522721,786.0277702321679
1731655363.6021242,775.0912913803502,799.9937911525233,802.7091553984469,773.3397067162274
1731655363.6048818,763.9826933653501,801.9126219179211,805.6391652084329,765.4869684206766
1731655363.6088002,767.2367486769524,802.9645293961137,808.2191207887543,767.619227202265
1731655363.6127186,780.4092042337509,802.7936990633316,809.6819627335592,776.7623052187852
1731655363.6151342,790.011655256151,801.504242565439,810.2078089498809,784.1458670397199
1731655363.6166368,785.0977743510444,799.6346176101932,810.3671566445153,782.462436674695
1731655363.6205552,766.9206650282564,798.1906482791911,810.5275990840842,772.0055538493056
1731655363.621011,748.6320451429626,798.4075434628386,810.6823716451488,760.6599894581599
1731655363.6217656,745.2221793396752,801.0698445903704,810.6492654370081,757.8446282573841
1731655363.6244736,761.6393131924722,805.7835597494923,810.3293320544352,767.2315469664932
1731655363.628392,788.3494526614434,810.9034880842793,809.8104742723486,783.7612476338346
1731655363.6307623,807.8945431551391,814.3789312267639,809.3059979224142,797.0822539327664
1731655363.6323104,807.6449326788945,814.9291773310456,809.0154862818481,798.8331916171319
1731655363.6362286,789.0405071459178,812.6049045304627,808.983479062129,788.4389925080906
1731655363.6398978,766.0712526784221,808.3851508309463,809.0194051402536,773.1674048717608
1731655363.640147,754.1273988219693,803.3863363731462,808.7550867563452,762.4444017526172
1731655363.6440654,758.1602601432345,798.4959155545188,807.860440992402,760.838555066974
1731655363.6463904,769.6915959766951,794.5689986648595,806.2823693243407,765.202706298566
1731655363.6479838,774.8219451934929,792.5906661031412,804.2828517902103,768.1109246191659
1731655363.6519022,766.2729748409677,793.2910779051589,802.2115643372861,764.5665842106084
1731655363.6558204,749.442038077412,796.4657144586394,800.2401345366778,756.3203015669303
1731655363.6566713,737.763787284163,800.7520664999672,798.3511203637987,750.2576576824613
1731655363.6587846,741.4916511998803,804.2545089276468,796.576971856741,752.3289717139576
1731655363.6597388,759.0627196007733,805.6118449124549,795.1620408880954,762.1855618820564
1731655363.6620183,777.9214058538022,804.7223048127331,794.4062490141104,773.1142153200938
1731655363.6636572,784.2251607910937,802.68105420845,794.366076568238,777.5209350485396
1731655363.6675756,773.8613156334955,801.0933111520369,794.7794048733251,773.5015372310808
1731655363.671494,755.8977623883313,801.2408892473732,795.2845608649724,766.8013903764894
1731655363.6754122,745.3493546821359,803.5042096838229,795.664257376039,766.0720876985902
1731655363.6776464,750.8760520242049,807.233902706212,795.8987374825892,775.1117938284997
1731655363.6776714,767.567219520542,811.0925294914563,796.0685050669268,788.7719033871698
1731655363.6793306,781.0219086892682,813.7012467565667,796.2478324616633,796.4738411897076
1731655363.683249,779.4704564750507,814.2406180133923,796.4622189367968,790.8363936409958
1731655363.6871674,763.7831380415105,812.6661756438424,796.7003651423307,774.2943187646365
1731655363.6910858,746.9391150565177,809.5025662188172,796.9422431263491,757.9808815850123
1731655363.691577,743.4204645332936,805.5145628001416,797.1765928194651,753.5297338139866
1731655363.6932745,757.3742269840332,801.5522159534517,797.4029567695359,764.3430114277803
1731655363.695004,779.2356295747061,798.5367419232367,797.6258026941936,783.2363195504647
1731655363.6965585,793.4295047443884,797.3129085740707,797.848919253748,798.0839047880845
1731655363.6989224,790.7879171172116,798.2672698304538,798.0734315015513,800.7425359633776
1731655363.7028408,775.5935876280627,800.9989408333352,798.2986123240291,792.2428172240303
1731655363.7067592,761.5413329082721,804.4221332902505,798.5233886647974,780.5774327778081
1731655363.7089026,759.9967023117839,807.3006986165007,798.747205241257,773.4899722009267
1731655363.7106776,770.4216742533674,808.7858168735003,798.9700724910979,772.4903889881291
1731655363.7145958,781.1390204564466,808.5689680517692,799.1922341178752,772.8380465662656
1731655363.7154453,779.8350203754482,806.7221036182997,799.4138790781991,768.9236122315043
1731655363.7185142,764.7685127219636,803.5987023151897,799.6350526010935,760.0343846367048
1731655363.7224326,746.9480291421687,799.9465102699294,799.8557078005481,751.5446593892079
1731655363.7245307,741.2496010616787,796.9451668424495,800.0757845102264,750.675082031285
1731655363.726351,753.9037916008356,795.8174547328457,800.2952500599237,760.4282773029781
1731655363.7264829,776.8929765593784,797.1083524503312,800.5140995154205,776.6407076904998
1731655363.7302694,794.0564599077092,800.1991222522249,800.7323419498564,790.5852796478877
1731655363.7341878,794.0255622095679,803.5658098966393,800.9499930203334,795.2937606923884
1731655363.734332,779.4628924295713,805.6874827754908,801.1670734973,790.82922037753
1731655363.738106,764.9768626778392,805.9297350266864,801.3835999795804,784.2675694016342
1731655363.7401586,765.1990172602357,804.7469266345994,801.5995601533818,784.0239927719957
1731655363.7420244,782.5792943778554,803.1359480531163,801.8148896174478,792.748267751231
1731655363.7459428,804.8983877077992,801.8558383666566,802.0294919272495,804.6153266070086
1731655363.7498612,814.7378347214194,801.0068375252829,802.2433341195774,809.6409407770292
1731655363.753219,803.3888468734324,800.1875532901482,802.4565797252566,801.8702612661257
1731655363.7537796,778.003079978078,799.0146222211217,802.669614488712,784.8076760888445
1731655363.755787,756.2724579106012,797.5867104506341,802.8827838306245,769.4902965954586
1731655363.7576978,752.948320470813,796.5512176333,803.0958408101335,766.5374998410998
1731655363.7613883,768.8604295879137,796.7104732588601,803.3075231776614,778.3437064235031
1731655363.7616162,790.9086786451633,798.4340444352732,803.5160459376328,797.4411099451268
1731655363.7655346,802.7927221258357,801.3063083880173,803.7210081189711,812.2240507908069
1731655363.769453,797.8634918466486,804.2890293862343,803.9258181555923,815.52633061441
1731655363.7714148,783.8742137445951,806.3112784522244,804.1378007572495,809.3479301739206
1731655363.7721057,775.9078235254414,806.8922011663523,804.3627565926716,802.1130560838253
1731655363.7733717,783.3599846707857,806.3833808645358,804.5945319487847,800.9251300199481
1731655363.7772896,801.7966241637196,805.6890856781849,804.80816352262,805.4598700044563
1731655363.781208,816.5110183337027,805.6783490532787,804.9713741743493,808.7376223765847
1731655363.7851264,814.8236370244323,806.6874519582442,805.0822604457888,804.0095750779006
1731655363.7870429,796.8476412858636,808.4077932686652,805.2137727335432,791.5646955647336
1731655363.7890449,775.8068103424132,810.1648047594624,805.5113154588935,779.3067267891539
1731655363.7909925,767.6974881934968,811.341274207656,806.0908503656248,776.4512201817786
1731655363.7929633,778.6633519269524,811.6453669698584,806.8723549793001,785.7051174392222
1731655363.7962942,800.0818637409009,811.0821887056343,807.522879720773,800.5981773082458
1731655363.7968814,815.2101162535554,809.7414415897126,807.6641941354031,810.3292305176312
1731655363.8007998,812.2642911409107,807.6684867371279,807.1934215147484,808.3109636167608
1731655363.8026707,793.7161135278718,804.9808682416407,806.3258632869281,797.5294670289535
1731655363.8047185,774.3223441919303,802.0848854440295,805.2455254782784,788.2788717342789
1731655363.808637,769.2580132604809,799.6551771038313,803.7765299435456,789.9180240822492
1731655363.8098793,781.9117291110483,798.2414105697388,801.5536840681131,803.2201119669782
1731655363.8125553,801.4429499589322,797.8150853376007,798.6160298876882,819.5555656018212
1731655363.8164732,812.1433054136157,797.7636023602032,795.7933482759157,827.6456664568708
1731655363.8182988,806.6515397393431,797.4751741586923,794.3589139801069,822.4259060868761
1731655363.8203917,791.868249875327,797.0477557979273,795.1313622753835,808.8691561961951
1731655363.82431,782.8090065686551,797.4358055245315,797.7974883564208,797.8369032996354
1731655363.8282285,789.8750597641673,799.7863551984021,801.0715799590314,797.5017475905744
1731655363.8287663,810.2157999114496,804.4164374402509,803.5611205308365,807.2128145246741
1731655363.8312,830.025080532898,810.2267001200205,804.622368048244,818.4114822138305
1731655363.832147,835.5908791341486,815.0773423925924,804.5892284518477,821.5795077996978
1731655363.833927,824.1754945109578,817.0032830963812,804.3460178298324,813.7298500997458
1731655363.8360653,806.2021258152612,815.5397179021954,804.6823011691752,800.758672208083
1731655363.8399837,797.0470246049775,812.2331016393986,805.8727711213071,792.9362636296337
1731655363.843902,804.8369800992222,809.8231996754529,807.6307684439664,797.0132159560374
1731655363.8476532,823.950716085339,810.4692034625792,809.332561950803,811.0638017364533
1731655363.8478203,839.6036049713256,814.1983893106069,810.3426186034244,826.1375343189925
1731655363.849555,839.9923545770122,818.780328742665,810.3067820937174,833.4100352269952
1731655363.8517387,826.1283477691182,821.2574591955425,809.3165800907017,831.0499512416254
1731655363.8556569,811.1866724097774,820.0431986762026,807.8736461056062,825.2200168154134
1731655363.8595753,809.774882045967,815.9564513132843,806.6453181727779,824.4670832375712
1731655363.8634937,825.8263313219895,811.389079449905,806.1138596631721,832.2132198291026
1731655363.865183,848.9048615162977,808.3610935717812,806.3130664677218,843.5689756815128
1731655363.8661058,861.8878637271347,807.116720621972,806.8185966339254,849.0825218582183
1731655363.86654,854.0490960303845,806.3456643178223,807.0009679895637,842.3911789405856
1731655363.867412,829.4339445569375,804.6403247604511,806.3773829100451,825.5858429141887
1731655363.8713305,803.9644312375905,801.7786917882446,804.8483970094416,807.8599596199456
1731655363.875249,793.3076700984689,798.7453931430038,802.7107646485821,798.407813664792
1731655363.8791673,800.9587875977545,796.7012266962158,800.5006535411201,799.4054479554753
1731655363.880811,816.226845413324,796.0447024542691,798.8019765803001,805.0536336780004
1731655363.8830855,823.898653174629,796.3504136478371,798.0997267557705,807.4842141907842
1731655363.8854268,817.4187124486511,796.9360659494195,798.6582714446919,804.1554203014634
1731655363.887004,804.2298438576034,797.3660772450048,800.3974362693831,799.9648912627075
1731655363.8909223,798.7067667386283,797.5605815791179,802.8375996943319,802.2161854978839
1731655363.8948405,809.007369432077,797.6351988908841,805.23766827514,813.2141530603791
1731655363.8964393,829.405348783088,797.7149529771633,806.9263603958626,827.3701328285616
1731655363.898759,844.6966151526032,797.8500173420306,807.6213370849124,835.4557582343145
1731655363.9010117,842.7736660952861,798.0267912100815,807.4923861762068,832.2233587503797
1731655363.9026773,824.695786342957,798.2126781725087,806.9488582231605,820.8279787091818
1731655363.9043136,803.9771371312951,798.3872575135246,806.3883308701571,810.4091904045134
1731655363.9065957,795.8217913012447,798.5480927671451,806.1263746981755,808.8893779263723
1731655363.910514,805.1145351956557,798.7019973007164,806.4529432614246,816.7797802672225
1731655363.9120672,822.881199929503,798.8555026066563,807.585203448629,826.8916263837593
1731655363.9144323,834.093552641343,799.010938349667,809.4517674104394,830.2363555979887
1731655363.9183507,830.4186813099274,799.1673733872162,811.5366942191625,823.5268403087301
1731655363.922269,817.2468634601333,799.3230580460998,813.0326423819413,812.2453796810038
1731655363.9232004,808.9166737545517,799.4769856256155,813.2513497543263,806.5713305082311
1731655363.9261875,816.0271149732058,799.6290996391401,811.9818231550361,813.2014117350035
1731655363.9276953,835.6303913861042,799.779789473677,809.5601008327986,829.6134884020222
1731655363.930106,852.8119965171903,799.9293953284716,806.6795631523854,845.5223975538321
1731655363.934024,852.5644778919449,800.078026476411,804.1083338646256,850.5046177839129
1731655363.9359174,832.1986874868768,800.2256277541729,802.4229864937059,841.8071236363398
1731655363.9379425,804.0787903544165,800.372111196034,801.8054470577513,826.2570092189786
1731655363.941861,786.3671923544998,800.5174334156318,801.9829082766329,814.8846515451504
1731655363.9420872,789.0782791686127,800.6616013300215,802.3904035098691,814.4994236656246
1731655363.9433234,806.4277463346707,800.8046435401095,802.4960570306043,822.6970969014396
1731655363.945779,821.5417564445054,800.946584869093,802.0816365335886,830.0988558131746
1731655363.9496975,819.9443324691704,801.0874381617632,801.3138372264896,828.0800879029168
1731655363.953616,801.2366881530937,801.2272085301571,800.6321812506968,815.9233995807226
1731655363.9575343,779.5606045029193,801.3659001278402,800.5725562642963,801.6042770821839
1731655363.9589512,772.2348088069441,801.5035196872975,801.5536378813923,795.3939848748506
1731655363.9609742,785.5651664570004,801.6400766750155,803.5930738212113,801.3671252277653
1731655363.9614527,809.3396770412711,801.7755825154525,806.0757837767555,813.7911611074677
1731655363.9653711,824.6381892840785,801.9100505465149,807.8705251168246,821.474592984402
1731655363.9692895,818.8413553378216,802.0434960830328,807.9241264829187,816.6458658604803
1731655363.970823,795.8811321411349,802.1759345385835,805.997222016312,801.2634871208975
1731655363.9732077,773.5653448252214,802.3073767766825,802.9526805342578,785.7941370958407
1731655363.974579,770.0924551039466,802.4378248789326,800.3215440348697,781.5204956734977
1731655363.977126,790.3222129359162,802.567275535626,799.459051622933,792.3777580662053
1731655363.979861,822.3490088061325,802.6957365918855,800.8768326643203,812.3954536270844
1731655363.9810443,846.718159838494,802.8232502068219,804.1075585425502,830.3297669613714
1731655363.9849627,850.8282588908121,802.9498976204575,808.0505374350284,837.674681384734
1731655363.988881,837.263048516487,803.075754076979,811.5155302333711,833.9487249737243
1731655363.9902074,819.8826203163347,803.2007932516001,813.6798959609166,825.5292791193241
1731655363.9927995,811.4485193419574,803.3248131240681,814.2903613689688,819.4703200522137
1731655363.996718,813.3113867155182,803.4475195167292,813.5996639771478,817.6515539358129
1731655363.9987478,815.6235189793821,803.5688550050946,812.1590267934877,816.0942974054238
1731655364.0006363,807.4106308897071,803.689420539421,810.594478162814,809.7482525310587
1731655364.0045547,787.481404680266,803.8104998086826,809.3922368892637,798.3286697298149
1731655364.0057287,766.6404122951799,803.9331238644338,808.6719824946033,787.8751077705335
1731655364.0058355,759.2208112481569,804.0562624052052,808.039915998004,786.3683413818327
1731655364.0084732,771.0559134177657,804.1756118888661,806.7352546566059,796.9082965170528
1731655364.012391,794.1035133334946,804.2855319812128,804.1607680096737,814.2997871577396
1731655364.0163095,812.4887842127505,804.3854858517416,800.515406606088,828.3216772495136
1731655364.0176346,815.1424042871934,804.4875786124444,796.9794588857351,831.3860614825825
1731655364.020228,804.450731346622,804.6156367222745,795.1219263115645,824.3518624139286
1731655364.0214634,793.523833648016,804.7857752694122,795.845138673876,815.5228349542346
1731655364.0241466,794.4082628949071,804.9716219744306,798.6825798856486,813.536033300561
1731655364.028065,807.4448322163258,805.0827880456981,802.0690891077845,820.0923908196709
1731655364.0319831,820.9649921506053,805.0005018850042,804.4003704464342,828.6308608284238
1731655364.0359015,821.4938563914557,804.6791961797037,805.0263521776603,829.950097684513
1731655364.0365214,805.6344468861129,804.2306003491905,804.4289496301162,819.9827787581966
1731655364.0370915,783.6117785595227,803.8664348660612,803.5962314795489,803.3960178772378
1731655364.03982,771.6286827512924,803.7174075403304,803.2630322893019,790.3483558603499
1731655364.0406344,779.2806890742752,803.7420138454812,803.6466798795042,789.1404448014866
1731655364.0437384,801.9988831298513,803.8703804437014,804.7053381718771,800.3759648769375
1731655364.0476568,824.4010510514344,804.200357718272,806.4412522474693,816.8386277038811
1731655364.0515747,831.9696290253064,804.9171419997712,808.8379695575089,828.9553187203842
1731655364.0527196,822.0004438376445,805.9224072836374,811.5180321170828,831.5833542736457
1731655364.0554082,805.1937466723987,806.5959660955609,813.5813566023513,826.9042693579403
1731655364.0554934,796.5281713661439,806.0948897786728,813.9501176544269,821.3083130137156
1731655364.0594118,802.7184706010655,804.0488924995159,812.0521223826711,819.0856361426919
1731655364.0633302,816.57176445228,801.0196507447021,808.3129399615748,818.4726315410928
1731655364.0672486,823.0771455923665,798.2378897867726,804.0335965274684,813.6127575982362
1731655364.0683477,812.3440420998629,796.8135743721816,800.6971940151586,800.7830644196625
1731655364.0711668,788.6959408868814,797.1283936409353,799.1713593951897,783.3288123396569
1731655364.074295,768.2844606132013,798.9166120583271,799.327026668428,770.6510381962742
1731655364.0750852,766.881197105387,801.8246283078388,800.270886512941,771.5700357658253
1731655364.0755403,787.359442923186,805.7615361915709,800.9659406854314,787.199445659578
1731655364.0790036,816.716734018691,810.6146835094834,800.8114074754455,809.1553840551044
1731655364.082922,835.2646744320058,815.6346938433937,799.8766619121069,824.9508894709334
1731655364.0839758,831.2580217538945,819.2407169227245,798.7636351075593,826.8148488002004
1731655364.0868404,809.7336760224423,819.6916523395734,798.253639757763,817.22750422322
1731655364.0907586,788.4380665045792,816.2739704145814,798.9006158901951,806.6838512997449
1731655364.093182,783.8011282837325,810.0881783613459,800.698003412126,805.2067152320972
1731655364.094677,798.1238005523862,803.6995698050605,802.9821788807766,814.2876435972493
1731655364.0985954,818.4210154274829,799.7581870649354,804.7347730396649,825.8299581851414
1731655364.0996037,827.8046817859699,799.5311480368256,805.2283958157742,829.0332441568453
1731655364.1025138,819.7792500828377,802.3997929621285,804.607511904455,819.5366326921844
1731655364.1064322,803.4251983062234,806.5949532971334,803.8928228721819,803.2162647691639
1731655364.1103506,795.2873638415663,810.4449917546634,804.2911425470012,791.5648727650777
1731655364.110446,805.0360837665937,813.127964518032,806.2914972461069,792.6411175304556
1731655364.112069,827.0131332178187,814.5725590126328,809.2412454171621,805.0625435519872
1731655364.1142688,844.650491544896,814.9834892863929,811.7028053920633,819.6721330521893
1731655364.1152318,844.0680705566612,814.6101695043467,812.2907509300662,827.1011844806003
1731655364.1181872,825.6652052153917,813.8354751010493,810.4185776004,824.8919818328393
1731655364.1221056,804.0890845207797,813.1885308227992,806.5630356909753,818.5613902831567
1731655364.126024,796.377735662239,813.0214641669954,801.9996596574445,816.0942761380998
1731655364.1299424,807.8994470559264,813.0927919113069,798.206351924769,820.6984707270695
1731655364.13086,827.7824825360797,812.5454817154813,796.2237017167348,827.9781806365871
1731655364.1309557,837.7861435228345,810.4728690124301,796.242706612381,829.9026871686295
1731655364.1338606,827.3532613217463,806.7161418914804,797.575900339595,822.1571817135981
1731655364.137779,802.4175438717057,802.2464219663742,798.9969550038238,808.5201755494077
1731655364.1416974,780.7488039715116,798.736514343999,799.2974191201522,798.3435873203471
1731655364.1453516,777.711473390235,797.5544656569601,797.8504067280343,799.0193881086936
1731655364.1456158,794.0473913688453,798.9079732209311,794.9576168653902,809.6411641602849
1731655364.146488,815.4839304302504,801.787791364267,791.7864389973649,821.2653787143075
1731655364.1495342,824.3314266371293,804.7220900528167,789.84511518204,823.8403306243112
1731655364.1498425,813.6440841861642,806.6987370747178,790.2065591604589,814.3316625154979
1731655364.1534524,792.5657310554697,807.5343947313029,792.9184057798899,799.3913505174181
1731655364.1573708,778.6322897528081,807.5384065934959,796.9946154119579,790.2071154507654
1731655364.1612892,783.3566387053659,806.9675847513096,801.0123639696451,793.5714540627573
1731655364.162116,802.8773949358917,805.8523564934121,803.8975435289109,806.4341347589356
1731655364.1652076,821.2736119961473,804.2634765527295,805.3621606956945,818.4179857111532
1731655364.1687293,823.7041295666177,802.5810949844632,805.7722722563384,820.2141627481705
1731655364.169126,808.5006763867373,801.3682144008208,805.6718801851056,810.952058970012
1731655364.1730442,788.3722040274824,800.9422574785182,805.3732612473966,798.5963612780392
1731655364.1769626,779.9412219368841,801.1102682751994,804.8679556476725,793.2450649981678
1731655364.177744,790.2909791890627,801.3871946581162,804.0416048734921,798.9478029595267
1731655364.1802576,811.3845739723639,801.5168697827826,803.0038671681046,810.6660596309221
1731655364.180881,826.6583979324394,801.7734117026333,802.2982971297943,818.6562173960567
1731655364.1847994,824.308120127916,802.6822572363719,802.7900704554456,816.5444619125885
1731655364.187616,806.541039179312,804.3393639483818,805.1671993603871,806.4720573701295
1731655364.1887178,787.3944720613774,805.9511503809961,809.2718990018343,797.1373771677127
1731655364.192636,781.0018474821879,806.1419162668294,813.7668197427002,796.3923157494746
1731655364.193372,790.0442434824455,803.964576487451,816.6061030726725,804.5733123134909
1731655364.1965544,804.0041741856495,799.8696620792313,816.2331682618327,814.1602434388695
1731655364.2004728,808.597853425182,795.7601571625819,812.7078361464681,816.0414234486731
1731655364.2043912,798.2992471770199,793.9129641309692,807.8024840350417,807.1227372667103
1731655364.206503,781.3222625620225,795.4921445178638,803.8466543011648,792.9916569830506
1731655364.2083097,772.8832543509927,799.7638084388078,802.1642084962527,783.5547385389124
1731655364.209,782.339479632766,804.5670131093175,802.3214975416961,785.2560796517951
1731655364.2122278,804.7631881930763,807.6170624048951,802.710315754987,796.0143951654395
1731655364.2151632,823.9387414268506,807.6982772881993,801.8900716661188,806.7232044799598
1731655364.2161462,824.7186998798065,805.0849642946469,799.6033188174931,808.1278472142286
1731655364.2200646,805.1419746467558,801.187478016496,796.8050833988764,797.8922133871728
1731655364.223983,778.5539588849225,797.8414849131564,794.8923198213453,782.5038070440146
1731655364.2246282,763.6364583456908,796.6313009416533,794.821391191508,772.4833859665147
1731655364.22539,770.0006603388732,798.391108197178,796.670170871273,774.4721851528942
1731655364.2279017,790.8828235934191,802.8870067214729,799.7527125038357,786.3100508544279
1731655364.2318196,808.944665185175,808.7545135968398,803.0748181804706,799.0209858517624
1731655364.235738,810.4792035712189,813.8652550411675,805.8517857504854,804.1575321862761
1731655364.2396564,796.3418193139893,816.163434477507,807.8491218530751,800.5324826332736
1731655364.2402563,780.6690235731539,814.6450940281569,809.3694961991147,794.7702087015767
1731655364.2435749,778.6633696057283,809.8888146542728,810.8598831311525,795.2163170572869
1731655364.2442768,793.7196832784397,803.7323030490793,812.3607424292351,804.3291676269984
1731655364.2474933,814.4759526344732,798.2711940308778,813.2013130255747,816.018519718558
1731655364.250069,824.0835866917406,794.8608456142925,812.265841783109,820.3729991421105
1731655364.2514114,814.1027046965936,793.7665920692557,808.7853630902638,812.1084365121261
1731655364.2553298,791.7384626395894,794.5440395026116,803.158010092952,795.7777733572295
1731655364.2558842,774.40241770548,796.6479383986352,797.1253208584494,783.0841555731812
1731655364.2592485,775.7609811293172,799.6966948493343,792.9847621646175,783.9934826689384
1731655364.2631636,794.5553067119106,803.2862535554286,792.249314286318,798.7286052720597
1731655364.263167,815.5604177626388,806.7501478093214,794.7010745661779,817.4221478940028
1731655364.2670853,822.180491812209,809.287893914392,798.5846088832184,828.000801819901
1731655364.2710032,810.3195617876688,810.4238025360969,801.8126176901286,825.8322954345414
1731655364.2715125,791.8342741292323,810.3269042364684,803.2425904658893,816.9931607914136
1731655364.2749217,784.5376017354923,809.6354036187258,803.0806183089844,812.4005842591938
1731655364.27884,797.0723662986375,808.967790157506,802.2891818152727,817.8866224726376
1731655364.2820504,821.2733529917891,808.5909380027787,801.7032707239325,828.7576605104829
1731655364.2827585,838.3777166713782,808.4478955777589,801.5937610397209,833.5589491504611
1731655364.2849748,834.1044959526372,808.3716176618227,801.7977603456129,824.0036103929802
1731655364.286677,810.4931601413411,808.2500027002455,802.0553908428456,802.7904688098359
1731655364.2871404,784.9248985973752,808.0639230213125,802.2234671535392,782.5636258712151
1731655364.2905953,776.8282678877076,807.8459408724995,802.2971317940331,776.4125749506919
1731655364.2945137,792.4383595907352,807.6304164801991,802.3336021571072,787.4341785159517
1731655364.298432,819.8490765666852,807.4309887271979,802.3808945822954,806.031498201286
1731655364.3009372,838.5487518062064,807.2438590133561,802.4530302764282,817.4415124021152
1731655364.3023503,835.7845762846913,807.060103346284,802.5406496632285,813.3966260198122
1731655364.3027685,816.3229494187443,806.87416851314,802.6301935405484,798.2601924119426
1731655364.3062687,797.6679433698465,806.6854182859495,802.7147748282097,784.694294500519
1731655364.3101869,795.0605216065597,806.4957258919752,802.7946835845152,782.8185036571095
1731655364.3141053,809.025212000581,806.3068712293631,802.8731199364689,792.1022343531133
1731655364.3180237,825.6526555639431,806.1194803357074,802.952541830181,802.4922372912833
1731655364.3183963,828.802321273328,805.9332902939731,803.0335589329022,803.2801465711286
1731655364.319824,813.6867341926342,805.7478183264308,803.1156118663843,792.0260359997029
1731655364.3198805,790.7372959760577,805.5627867971533,803.197994272,776.3640681789234
1731655364.321942,776.9364562384012,805.378178191704,803.2803837444122,767.6396999799772
1731655364.3258605,781.8345430120899,805.1940969546157,803.3628304661306,771.7758016113901
1731655364.329779,799.597296420054,805.0106340720328,803.4455205544709,784.6768515065856
1731655364.3336973,813.6936000573854,804.8278157930536,803.5285904816867,795.7227886640592
1731655364.3340244,810.6924234442193,804.6456187758848,803.6120778282386,796.464717363633
1731655364.3376155,791.9064654612848,804.4640048364713,803.6959583552497,787.4943640711896
1731655364.3387108,772.9110481794703,804.2829475196888,803.780194956582,777.9419483224543
1731655364.341534,770.8340708224968,804.1024469242129,803.8647643634106,778.0144019074385
1731655364.3454523,789.731308579418,803.9225340086194,803.949668434386,790.5591472973829
1731655364.3493705,816.3186180368857,803.7432553158941,804.0349445238741,808.3467857852764
1731655364.3496523,829.9184975216222,803.5646268363602,804.1206676534374,819.2176480681242
1731655364.353289,818.7600513370145,803.3865723027991,804.206915635098,815.1873831414927
1731655364.3547862,789.5653953348886,803.2089094733018,804.293682882137,798.674014783213
1731655364.3572073,762.7530738080791,803.0314682374429,804.3807937589756,781.156814065274
1731655364.3575978,756.938823037278,802.8543462781686,804.4679424799701,775.0770803608663
1731655364.3611257,774.7330007504725,802.678115063955,804.5549734925976,784.7853228180223
1731655364.365044,800.9021025252152,802.5036113127253,804.6423163142223,803.3249380506918
1731655364.3652806,814.5071962540916,802.3310667393597,804.7311478880482,817.7804770877551
1731655364.3689623,805.6383304303868,802.1589628219467,804.822684125428,819.3335078522341
1731655364.3728807,783.3642612856972,801.9839104155909,804.9164745337713,810.094902695696
1731655364.3764846,768.2279373532393,801.8030888869087,805.0088563242639,801.0252380271057
1731655364.376799,775.1929015507271,801.6190948769298,805.0940270814465,802.5382844528652
1731655364.3807175,801.030502268403,801.4433499514024,805.1696510092069,815.6520643623589
1731655364.3809087,826.5889648874349,801.2912058550847,805.2448646797658,831.1803886552381
1731655364.384636,832.0161071168274,801.1648618833982,805.342232419443,837.5842572088462
1731655364.388554,812.4031666543603,801.0327980366352,805.4827981686212,830.7011983751408
1731655364.389692,781.367826855376,800.8311181426348,805.6535881742763,817.0776788229541
1731655364.3924725,760.2646426862739,800.5142785580283,805.7816721820294,808.2271450078639
1731655364.3953714,762.113957337999,800.1480892386303,805.7616398585155,810.870621730484
1731655364.396391,782.8575726648253,799.969310601724,805.5687903710167,821.4845604966221
1731655364.3965366,806.102399404937,800.2914896386329,805.4114484421121,829.6740872581559
1731655364.400309,816.7700088673108,801.2225324976329,805.7659778025609,827.3716237301899
1731655364.4042275,812.426937707068,802.4034605654098,807.1282535706106,815.9642859229803
1731655364.408146,803.4468994535788,803.1273577072745,809.539487269163,805.2407719105374
1731655364.4120643,802.5244839007827,802.909598497664,812.2715331476144,804.9961011540297
1731655364.4121647,812.8342354920146,802.033615155409,814.0719182709033,816.3760842191155
1731655364.4142582,825.0408502904381,801.4608032287236,813.9150581389131,830.315994854939
1731655364.4159827,825.6450241241909,802.0379379765873,811.7153100878198,834.5429656912663
1731655364.4199011,809.3900212464297,803.6404269655906,808.434234976951,823.5245347461389
1731655364.4238195,784.9727808868154,805.0480930076102,805.4759309228685,803.28889981665
1731655364.4245975,768.9840638363963,804.7750937193654,803.819378741658,787.1639860843234
1731655364.4277377,772.9345957103516,802.2578298018303,803.5383790952508,785.7881042923672
1731655364.4277928,794.0262619581264,798.4611292360325,804.022873515335,799.3012986127827
1731655364.431656,817.2649020439727,795.3822281466921,804.6192549629136,817.7819909722128
1731655364.433145,827.2566709072921,794.757827865783,805.1025296466586,829.3226963277893
1731655364.4355743,820.1584956882077,796.8779599410665,805.646092489946,829.077397359267
1731655364.4394927,806.0845155991583,800.3657092234338,806.45479013914,822.0303982908977
1731655364.4434114,800.0165447689617,803.1220529396236,807.4640590010182,817.5626606951022
1731655364.443421,808.7737693176406,803.7877391250818,808.3407476004292,820.73243094898
1731655364.4473295,824.9830703421176,802.6494353781435,808.7265237481221,827.8110255129984
1731655364.451248,833.1954357946029,801.30910797816,808.5190692981499,829.7983881975181
1731655364.452032,823.0892873764462,801.4086357094021,808.0032619152719,820.7267745010138
1731655364.4551663,798.7658053619357,803.442653025015,807.7228491184145,803.5296422811507
1731655364.459049,776.3901886317758,806.5246385742261,808.1075045260839,788.4152920547562
1731655364.4590847,771.9162782650143,809.088222378922,809.0537726058687,784.9839191703325
1731655364.4595034,788.5363957118313,809.8102770341295,809.7879640865843,794.4649717349934
1731655364.4630032,813.7459171263516,808.150419552082,809.228311089132,808.3829047767238
1731655364.466921,828.5229600668268,804.4788869148799,806.7005169455351,814.8756284400695
1731655364.4708395,821.7513359877889,800.0278662291012,802.5244921664107,807.8301453639946
1731655364.470919,798.7735832876922,796.6413117163441,798.0161415038516,791.7162986060947
1731655364.4746768,777.2763856067335,796.0945030353956,794.8577190580625,778.3076270465772
1731655364.474758,773.5151584768781,799.1051440564153,794.2378877643549,777.7915860246585
1731655364.4786766,789.5939424921244,804.7106084241126,796.2891313281472,791.1171467322043
1731655364.482595,811.8588503240176,810.6503484459957,800.1113563333148,809.4054042923397
1731655364.4865134,821.7146874948265,814.6183420733578,804.2958589221189,820.7214488622944
1731655364.4898057,810.2864025868747,815.5111436841826,807.6064491504454,818.8760004976571
1731655364.4903047,785.3564210856334,813.8562024764533,809.4528122366855,807.5664739979269
1731655364.4904315,765.2552150907422,811.3090354969244,809.9674710612838,796.9389793406086
1731655364.49435,764.6500889194032,809.6878854484471,809.7308154694538,795.4469294462191
1731655364.494409,783.3330313305673,810.0726641352921,809.344991503323,803.3283393128291
1731655364.4982684,806.6338971949351,812.2964505419286,809.0963099391689,812.7179705862836
1731655364.5021868,817.0671449220639,815.0204619592951,808.8825827693028,814.3313056590057
1731655364.505933,808.0646479375091,816.4310242529947,808.4253118870062,805.4559537117899
1731655364.5061052,788.8700118464658,815.2733909817124,807.5896579719027,792.6871988001745
1731655364.5086925,776.5801502069797,811.633299184048,806.5463224026023,786.8484505365566
1731655364.5100234,781.7707369514196,806.9516252693193,805.6459827969414,793.9775101504938
1731655364.5139418,799.6013646307088,803.2409907217785,805.1409085260093,809.8152408696193
1731655364.5178602,813.8836047093773,801.9890670998848,805.0188529731842,822.6188605349083
1731655364.5215611,810.7662673866786,803.4033185225371,805.0748760966227,822.2899091982499
1731655364.5217786,790.6498276697438,806.4180713717722,805.1041130670359,808.5086788201439
1731655364.525697,768.5123914166518,809.4353768649403,805.0238407438427,791.300961361348
1731655364.5275793,762.4189913767433,811.3344174287234,804.8612779020103,783.5387449726157
1731655364.529315,779.4104930918317,812.0781804064643,804.6776555568598,791.2388579505493
1731655364.5296152,809.8380617008401,812.4636406875418,804.5118899423196,809.1827288309377
1731655364.5335336,834.5457205655636,813.1830398502505,804.3694146476955,825.2114077116817
1731655364.537189,839.3856444855153,813.9770397069306,804.2380088204172,829.7790443383551
1731655364.537452,825.7642463972406,813.6816478692965,804.1055364504786,823.1468673518807
1731655364.5413704,808.8143149656358,811.2334906168576,803.9674872142798,814.4269992202024
1731655364.5452888,804.5897041246753,806.7869941308619,803.8254428996157,813.368180928301
1731655364.546466,816.7621855128754,801.8951285682546,803.6826084450921,821.8706204831856
1731655364.549207,833.9053213344965,798.4946810765152,803.5408758403684,832.4233775792386
1731655364.552817,839.6531581981155,797.5268333277156,803.4003821786517,834.7123606297341
1731655364.5531254,827.1222263283241,798.3800103160709,803.2604161435133,824.7068437697543
1731655364.5570438,805.3177342628525,799.6029364610456,803.120337779637,808.5070529325966
1731655364.5609622,791.9966347311671,800.1888806519554,802.9799293187905,797.6789384266682
1731655364.564221,798.8966530762773,800.2658002609842,802.8392822668811,799.8747888206581
1731655364.5648806,821.6727577449044,800.665394449614,802.6985556892087,812.4237848119276
1731655364.565353,842.9828732798559,801.9200242499217,802.5578301059684,824.210770164893
1731655364.5684452,846.3308441919502,803.6861887440713,802.4170937437798,824.5072921211391
1731655364.5687988,829.4434426337493,805.0545122961074,802.2762943601607,811.7463368985518
1731655364.5727172,806.2029836943716,805.3231444665013,802.1353871267609,795.0526248141235
1731655364.5766356,795.3314641838922,804.4700400292654,801.9943511733261,787.0214581224307
1731655364.580554,804.9242366432351,802.9835195486954,801.8531822526464,793.4693335554139
1731655364.5840733,825.6354699175264,801.3622496754249,801.7118789641773,808.6587946490216
1731655364.5842395,838.3803090169758,799.8218172614899,801.5704335680318,820.12214724927
1731655364.5844724,830.32220395651,798.4031001283938,801.4288299517443,819.1165267269173
1731655364.5883906,805.8601018203623,797.1945485554027,801.2870478074813,807.9051243272496
1731655364.592309,783.421286386261,796.2929504562377,801.145071673609,797.75292666279
1731655364.5962274,780.671173074425,795.5373249646129,801.0029010840207,799.4086747629186
1731655364.5991266,800.278502556262,794.4797002360872,800.8605524195541,814.0859746675403
1731655364.5997014,827.7474029271515,792.9122426434639,800.7180406304468,832.3454428622348
1731655364.6001458,842.8817987724159,791.5587866242188,800.5753405403382,841.622676769661
1731655364.6031263,835.5421182305287,792.0322421644682,800.4323559737574,836.1482593813771
1731655364.6040642,813.1268321924713,795.6365450465178,800.2889512927361,821.2404112790848
1731655364.6079824,793.9587596165246,801.8335219895487,800.1450821466284,808.6156168978433
1731655364.6119008,792.1194691126852,807.9358329987058,800.0009671551688,806.6959998433239
1731655364.6153293,806.2606142947424,810.7708786050207,799.8571054590113,814.0067556666957
1731655364.6158192,821.6425833009605,809.1900347698983,799.7139102610292,821.1177609881563
1731655364.6197376,823.4733497097426,805.2121175514227,799.5709816833778,819.2352338234647
1731655364.6220136,809.9320823284755,802.5864162371269,799.4265975419125,807.8563954274778
1731655364.623656,793.5784877587982,803.8480236045198,799.2784515501579,794.935421910725
1731655364.6275742,789.9972831759504,808.3179276110202,799.1262212427304,789.7275016031671
1731655364.6309574,803.6203996463946,812.650038297196,798.9746618755544,794.7450610377333
1731655364.6314926,823.0846147869152,813.3377643039798,798.8334327256886,803.6924123990843
1731655364.6340322,830.2866362386553,809.1260756269493,798.7095930114523,806.8981310709394
1731655364.635411,815.6177470964221,801.6610833311722,798.5940114293473,799.5029806832295
1731655364.6393294,786.5525728573006,794.2770804032482,798.4535545220111,785.6036871315614
1731655364.6409004,762.2008677079006,790.0767563161365,798.2486373132028,775.0270635284053
1731655364.6432478,758.0723879803462,790.5574986335608,797.9859955039321,775.3863232683185
1731655364.6465857,773.5346660601184,795.2884369700083,797.7820050552609,785.8286021872151
1731655364.647166,792.4133142018217,802.4064232363698,797.8748526341084,797.5677055626104
1731655364.6510844,796.4359320862987,809.4790327911346,798.5394755302906,800.9327817156898
1731655364.6550028,780.5529080018443,814.417899498213,799.9474139450792,793.383390901607
1731655364.6589212,757.4910032879039,816.214491414123,802.0760057838245,781.9575766226974
1731655364.6597872,747.7018314554322,815.2242331117977,804.6991572061517,777.9168440380379
1731655364.6622136,762.8032284978959,812.7949315372066,807.385501324025,787.6454059070279
1731655364.6628397,795.7920299684264,810.3776029183523,809.4832024066895,807.0650561774522
1731655364.6667578,825.7604723232877,808.6535334370594,810.2223815612493,824.2304056492187
1731655364.668938,833.3949968395929,807.2747683304523,809.0520043610909,828.3139198982635
1731655364.6706762,815.2591364213561,805.4059606112088,806.0862655102372,817.9678157571678
1731655364.6745946,785.9485841104726,802.6550983308567,802.315935288431,802.3313026073602
1731655364.6778417,766.6486081682424,799.670046410873,799.305088549033,793.738130551026
1731655364.6785133,769.1452690619634,797.9159590718414,798.4362658868746,797.9289615815586
1731655364.678674,787.7731204502265,798.7451378026457,800.123584699203,809.7017241052719
1731655364.6824317,805.3495287670174,802.3752238739316,803.4964534979549,817.5249662015009
1731655364.6863496,807.8858351915408,807.4737124613845,806.7879124711199,813.2587998870287
1731655364.690268,795.8615822253745,811.6859988963782,808.2294891826695,798.9318895550651
1731655364.6934695,782.904695165803,812.8644526156576,806.9622222883646,785.0435540039124
1731655364.6941864,783.3473830863795,810.2911649664053,803.4939725574848,781.9434798130554
1731655364.6975608,799.3922498682202,805.1309704234501,799.4898906450671,791.4846042529024
1731655364.6981049,818.7588754465465,799.7782670806075,796.9845453553646,805.7028457401758
1731655364.7020233,824.7670850661215,796.444649759914,797.3512981781022,813.3628495624972
1731655364.7038436,810.4625415011471,795.8645772198532,800.5381692017132,808.8798784647907
1731655364.7059414,785.0815656771092,796.9991446979848,805.0679189257007,796.460440623021
1731655364.7090976,767.3738019733096,797.9832108801631,808.9306824041556,786.3761257482427
1731655364.7098598,770.9414040901594,797.6326893605485,810.8540324623181,786.6268737954272
1731655364.7137785,793.3355992219832,796.3286927071008,811.016977489464,796.7840507872443
1731655364.7164476,817.8671557839933,795.5636348043203,810.6024760919519,808.8304945269624
1731655364.717697,826.9280462279214,796.575270657582,810.5513102131536,814.0444668684557
1731655364.7216153,816.1206410605114,799.2742336895734,810.6417683561324,810.1177595629999
1731655364.7247255,797.5810154104843,802.3330139622357,809.7593341333444,802.6835560572933
1731655364.7255332,789.692383891122,804.2210172847894,807.0906098883488,800.1900190880765
1731655364.7294517,801.7188524593897,804.2343649242549,803.0712126887717,806.5665707394755
1731655364.73337,826.0866358773854,802.7832824270096,799.1640136897638,817.816124253502
1731655364.7353344,844.5296723382121,800.9409313869269,796.6943899032136,825.2776356173501
1731655364.7372885,842.8347096803063,799.7442976716518,795.8594462824905,822.8144009639796
1731655364.7387495,822.1634435126269,799.697101524954,795.8039688237549,812.0664057234862
1731655364.7403538,798.0386111171878,800.6426022318699,795.6050703172114,801.4690085696545
1731655364.741207,787.9965246941389,801.9619828215509,795.1831670869682,799.64201369474
1731655364.7451253,797.7379581264505,802.955320821659,795.3101620059483,808.2838727263164
1731655364.7490437,816.7759117456868,803.215241399567,796.7956614908094,820.3885789950538
1731655364.752962,827.1764817200626,802.8227303714431,799.6816218276837,825.601469658383
1731655364.7542214,818.4741156230717,802.301484569355,803.1611771764298,818.6610248597725
1731655364.755982,796.5324102846157,802.3873190201157,806.1604618254721,803.9615162227722
1731655364.7568803,778.7905006956477,803.7174254513571,807.9449144296287,792.1823606588423
1731655364.7607987,779.6183504505591,806.5388850423423,808.2854288080406,791.5617231119693
1731655364.7647169,798.0029582446375,810.5351722865388,807.3047770726432,801.0616052196438
1731655364.7686353,818.0346768121805,814.8586632974503,805.3882858125984,811.1830588594853
1731655364.7716098,821.9591550649926,818.3895807732291,803.2575466272802,811.7844479537644
1731655364.7725537,805.0470768128429,820.139966465864,801.9258675166903,800.4899885972347
1731655364.7731082,780.0619067593346,819.6510777870992,802.283044496493,784.9292129359155
1731655364.7736552,767.6005263566608,817.2171018779525,804.4787872533371,777.0864479953635
1731655364.776472,779.8730872134964,813.8013473283281,807.6282563847705,784.1915467374189
1731655364.7803905,810.7187499922425,810.61722399603,810.2372999266527,803.1625128961942
1731655364.784309,839.9234691378006,808.5364187192761,811.1702680930817,822.8499907529032
1731655364.787238,848.7168990739373,807.6602803455335,810.4422968647991,832.3143549032587
1731655364.788227,834.2122175809643,807.3665894690014,809.1529351902506,828.637722373522
1731655364.791995,811.0430076523836,806.8524384697921,808.5622569942542,818.1958278517698
1731655364.7921455,798.7532835516557,805.8162873255396,809.0746170925111,810.7670245306608
1731655364.796064,805.3977873758691,804.7760932297738,810.0021883577668,811.7962600390989
1731655364.7999823,821.1204225335855,804.7619877071046,810.2756074077939,819.2927570408793
1731655364.802866,827.0611804446897,806.5732260295392,809.4058853223905,827.1670542279489
1731655364.8039005,811.9243157804633,810.0942615395805,807.8177020986083,830.8971611394879
1731655364.807819,782.1768034890636,814.1191998476586,806.3304448695098,830.1976757494022
1731655364.8085608,757.4284209756044,816.8249466350749,805.3788180313526,827.5007372589093
1731655364.810882,754.9290016790851,816.6786518404217,804.7352228517332,825.1279913746944
1731655364.8117373,775.831431318529,813.3168810086191,803.9157508183299,823.9044560170349
1731655364.8156557,804.2058670446961,807.881184263533,802.7700268249498,823.4764117472399
1731655364.818494,819.5545970650792,802.5200492495268,801.6562726706619,823.1980097821943
1731655364.819574,812.852325486511,799.2460522602777,801.1066367736252,822.6992638501018
1731655364.8234923,793.2135375465867,798.8077244526371,801.3959270841165,821.9592409207347
1731655364.8274107,779.7192494965439,800.3213250888737,802.4176143704486,821.1198827848211
1731655364.829769,785.1137160819565,801.949828971697,803.8530342658727,820.3043627732404
1731655364.831329,804.9881383086278,802.1814704377811,805.3365741197665,819.5507869389877
1731655364.834122,821.5828660898126,800.796797162186,806.4708955325864,818.8368658319897
1731655364.8352475,819.0244295317063,798.8362476713398,806.8571553336193,818.1282613440399
1731655364.839166,797.1531611529716,797.6696827727529,806.3217731221044,817.4068975362784
1731655364.843084,772.3288685612329,797.9697919021164,805.2011417493217,816.6729684917767
1731655364.8434668,764.5403963628717,799.375646495417,804.3084782320245,815.9343848476165
1731655364.8470025,781.411689422485,800.9540117764072,804.414515556482,815.1974146770511
1731655364.8486557,812.0205838828108,801.9196945796041,805.5798958822284,814.4636863026036
1731655364.84975,835.3605682295208,802.0342575227183,806.9544288275588,813.7318009268181
1731655364.850921,836.6252014813128,801.5411758212465,807.3480100636316,812.999922179578
1731655364.854839,818.4053959249758,800.8781455275658,806.1938480393981,812.2671674027897
1731655364.8587575,797.953233933597,800.4409210985449,804.1002182104232,811.5336070429641
1731655364.862676,792.8120861906438,800.4971975918885,802.4740626189424,810.7996523652747
1731655364.865378,806.5906633315631,801.2007826477377,802.4853388707579,810.0655545341308
1731655364.8665943,826.542768145468,802.6050411303296,804.211286760218,809.3312811097288
1731655364.8675425,834.7328812833279,804.6016538810456,806.6365877260909,808.5966822576395
1731655364.8705127,823.2552927849321,806.8205924614473,808.4622023194751,807.8617333679391
1731655364.8744311,800.848923258669,808.6525164618524,809.042198095786,807.1266462470811
1731655364.8783495,785.6808092482827,809.5158712613548,808.7276186354649,806.3917009486031
1731655364.8783724,790.4831211850835,809.23746451953,808.4232180573363,805.656804824015
1731655364.8810062,812.2103670170072,808.2089296365243,808.7968254332359,804.9210839559012
1731655364.882268,834.4811754133898,807.1213765947451,809.8112131051313,804.1831077778247
1731655364.886186,840.7689711727068,806.4750256251551,810.9061755217273,803.4422200881475
1731655364.8864293,827.7422321617842,806.2818770824847,811.5651468888552,802.7004924005389
1731655364.8901043,807.9173758596706,806.1806834493093,811.6987007392029,801.963289354709
1731655364.8940227,799.2083175414115,805.7927557721473,811.5230814647207,801.2357933821496
1731655364.8966343,809.6534828225286,804.9735295323858,811.1263643127563,800.5151872169328
1731655364.8979414,829.9306461048858,803.7883284157422,810.1875653782818,799.7840995444695
1731655364.9018598,840.2575994890763,802.3368752952096,808.1348254962503,799.0165156556309
1731655364.905316,826.493815995508,800.6785390166352,804.6410121976237,798.204095018491
1731655364.905778,792.4577188422749,798.9676139805894,800.1087304453749,797.3917109005854
1731655364.9096963,758.2775798957485,797.6272750841835,795.7997994627998,796.6827915290397
1731655364.9122622,745.7278748524162,797.2484603351122,793.4308004474113,796.1666690252338
1731655364.913278,761.8727582860636,798.11664994747,794.3267855750977,795.7701798126626
1731655364.9136147,793.7419064810825,799.7328445375925,798.5521119056518,795.1490389368474
1731655364.9175332,818.2496420903973,800.912530957134,804.6149579813788,793.8305130470299
1731655364.9214516,819.7219931669217,800.617099481187,810.0953081378259,791.7359756974025
1731655364.924203,801.3106486453788,798.8888252041995,812.9094070143916,789.8357282184992
1731655364.9253695,781.2437278864732,796.9815414555923,812.3899474013064,790.1845243624529
1731655364.9278903,777.0628107057054,796.4557389301515,809.4538293721075,794.5412148951489
1731655364.929288,790.9773142719325,798.0100655898401,805.8213492395078,801.9364826537302
1731655364.9332066,808.5887849928121,801.0737467298004,802.9431082027753,807.5912543280089
1731655364.937125,811.8446234015992,804.4197689847487,801.3988736050227,805.7888532917058
1731655364.9410434,794.9405022143147,807.118411914759,801.0283878730486,795.4389661156152
1731655364.9430895,769.6318658297187,808.9769946042038,801.4382663884954,782.8094062455981
1731655364.9435184,755.7359653497612,810.2424974461626,802.3348901819242,777.5323907959348
1731655364.9449615,765.0111232627723,811.0403995132924,803.4605667058277,784.6732732196366
1731655364.948184,791.6441680721264,811.1506864188115,804.3841570699275,799.901252078499
1731655364.94888,816.8199244312692,810.2933322289472,804.546458678079,812.2888722101368
