timestamps,eeg_1,eeg_2,eeg_3,eeg_4
1731305660.295369,840.5996166836546,475.722384887942,750.1392224774132,818.4324707068223
1731305660.311,842.953314350921,476.42169490903734,750.0783359864843,822.1870681681457
1731305660.3266313,844.3819908043774,486.16273670698405,754.8082288761159,824.4925921443115
1731305660.3422625,845.1574723404951,508.6537065265757,766.4151375674442,825.4509856973785
1731305660.3578932,846.727560293773,536.9882785084749,781.6979480333497,827.0327482864811
1731305660.3735244,850.1242345636048,553.562899756337,792.057994342217,831.5024484931754
1731305660.3827567,853.9760422499629,540.4651594553304,788.1956865441664,838.7546522011922
1731305660.3891554,854.2499595568838,496.14704447476845,767.7854845835994,844.918283051854
1731305660.3917649,846.8281511474512,443.33560601106115,739.6654690261759,844.3477558208688
1731305660.3956664,831.4195809514284,415.6970660338292,719.1010382442338,834.3557452328195
1731305660.399568,813.4747847623021,429.755187773172,716.4208930051218,818.8655370223869
1731305660.401621,801.8192073576159,466.75974055712624,728.7321074313738,807.0498890078024
1731305660.4034696,803.1708840962193,484.62342929545116,742.7625463803835,807.0323464707369
1731305660.4047866,817.5902362661229,452.3683686659491,746.2868739591288,819.5001157043077
1731305660.407371,838.4477045534059,375.6754504955229,736.8728984432668,836.750916420989
1731305660.4112728,856.8965398722747,289.1232930977851,719.8568572319259,848.1566771245356
1731305660.4151742,867.2707952378356,223.95309202818834,699.532628456434,847.4836314865091
1731305660.4190755,869.4275487542203,185.1122476107297,674.8918717150573,836.2242991431807
1731305660.4204178,866.9474829044789,159.97733350150395,645.0832381097487,820.9955209329407
1731305660.4204855,863.4627802043386,144.88269966679894,617.0480235857209,808.1061728779872
1731305660.4229772,860.2664646621643,155.21510738642934,604.064275845997,800.0055801288022
1731305660.4268787,856.4781282996088,205.1525259640652,614.7337651222106,795.6899994801391
1731305660.4307804,850.7124304405693,281.6632375304642,644.6232996151326,793.3924042403858
1731305660.434682,842.7221027860396,347.51229884377096,680.7199556131576,792.5823168880022
1731305660.4360487,834.6272173858725,374.70737443627263,713.2320034314656,794.1034520752605
1731305660.4385836,831.7853081694849,371.493981293607,739.8706377177778,799.6153515666449
1731305660.43935,842.0868919630256,370.42334949968006,758.1261702942264,811.5740583489527
1731305660.442485,871.8292264951928,389.57266049472344,758.6890835449103,833.0166151450765
1731305660.4463866,919.1085199286989,411.340665231903,733.6698115818117,865.4941741708743
1731305660.4502883,970.1173290664982,403.925139588311,692.9968208545924,905.6163644503117
1731305660.45168,1003.96768481253,361.1271095109044,666.3708409290788,943.6017164889447
1731305660.4541898,1004.9405409031831,314.2168745768846,680.1313416475489,966.7809285433167
1731305660.4580913,973.0652348549437,301.4932149480256,728.7223436162741,966.5380523369861
1731305660.4582143,923.7305069944183,330.43350685722555,773.4738163850681,943.3036993742595
1731305660.461993,876.2897361745815,376.33697646358826,776.909794508895,905.5831643496049
1731305660.4658945,841.4422939162248,418.36521041636763,741.4336900516585,864.3923387546247
1731305660.467311,817.522454853196,468.24153995132997,710.9769298122881,828.0241264605658
1731305660.469796,796.7585183143029,553.2470289056616,728.9140642275777,800.3563304697108
1731305660.4736977,773.8247523026967,669.4288589945313,791.8802337515708,781.7764319828934
1731305660.477079,748.9405808255589,761.7750961742227,847.6012828829171,770.2135827932942
1731305660.4775991,724.8123416336755,764.8889395985962,842.9862280380574,761.6344285931426
1731305660.4815006,702.5477559990344,670.249481557124,776.9204914100703,751.2155035610407
1731305660.482942,680.9536800787167,548.077593820939,704.1095058079915,735.5994453652411
1731305660.485402,658.7652748611059,491.1600328605419,683.3793584569875,714.6309305848426
1731305660.4893038,636.3325635392414,529.5283252448016,720.518832662043,690.8540672081857
1731305660.4932053,614.8195871630387,601.6084982413786,763.4471578350706,667.3052335363376
1731305660.4959433,594.4987048951026,614.3856760472407,755.5682857616968,646.0392233747833
1731305660.4971068,574.9807151635905,533.9927496068083,693.3955642404301,628.906930153675
1731305660.4985733,557.7523351885219,415.6193547473524,629.2218220604459,619.1864420007583
1731305660.5010085,547.9358916732664,343.8898593431208,615.6684692320441,621.1455401843174
1731305660.50491,551.965197833804,346.9024172156614,649.1957708768431,636.675184150319
1731305660.5088117,571.9743121476401,372.8243107712633,671.8380868722548,661.9476219736025
1731305660.5127132,602.0869147427421,351.72488775582144,631.5382131407794,688.2255041198779
1731305660.5142045,631.1293924163979,276.9464134956836,541.0431746535279,707.371391688221
1731305660.5148077,650.3140883311205,220.80695131403598,475.01851893830917,717.4964271353878
1731305660.516615,659.1985605903856,267.4429229696497,505.61438656421706,723.2090666346772
1731305660.5205162,664.5806423971865,429.6660148323434,637.0418971797524,729.8839118079878
1731305660.524418,673.74346747698,630.8153245338868,799.6650386943599,737.5586405889126
1731305660.5283194,688.5527404539516,765.8493784105598,906.1608170203478,740.844824587965
1731305660.5298357,705.2894108978592,780.8530523852573,916.4492598523154,735.2916192501827
1731305660.5322208,719.0823881827367,701.5631546483532,857.0336575909716,723.855163548464
1731305660.533672,727.9362055400669,598.3395347285144,787.5873141881273,716.5656121925798
1731305660.5354252,733.0233588141833,531.0914890332022,752.2892097563931,722.8936870809013
1731305660.5361226,736.3168617317469,520.6214136094575,756.7857268371843,743.4156590568051
1731305660.540024,738.7958771556671,554.528367869261,780.0383104738728,768.3719227863194
1731305660.5439255,740.7920172134114,605.0250015312336,799.7408351679313,784.7837666842884
1731305660.5454664,743.2231614448201,639.4233606238374,807.152441735244,786.3631156483782
1731305660.547827,747.6819009159431,625.439129357474,805.6043836383433,778.0166368866958
1731305660.5517287,754.9971923335672,542.8917073878613,801.927943698265,771.2893793313451
1731305660.5525362,763.8171490452638,401.96312238203495,800.3182394422713,774.6300874374547
1731305660.5556302,770.9180794053815,252.0471063706205,801.2578338424014,786.5236607280041
1731305660.5595317,773.3223976027091,164.63047249071275,803.3458263639374,796.9938889060826
1731305660.5610976,770.60163910756,193.24708001765794,805.2517976317464,796.0569345041113
1731305660.5634334,765.5393419730146,337.53112965013486,806.508669760582,782.1862924060841
1731305660.567335,762.6899473257512,542.1074207228829,807.3130950468249,764.086692689531
1731305660.5703332,765.9655042690284,734.5595225615428,808.024628306017,754.5670253642473
1731305660.5712364,776.8622637796209,871.2364402434739,808.8485732581206,761.4111499981631
1731305660.5714006,794.1372946269289,951.8508409785636,809.7960132769639,782.1025260309547
1731305660.575138,814.633340439889,995.4327211231414,810.7879794728289,805.9405651022379
1731305660.5767286,834.5233513499778,1009.4765827189052,811.7564912106935,821.4769164963379
1731305660.5790396,850.536222006835,987.8996866301432,812.6811178503103,823.6135076549501
1731305660.5829413,860.988082040482,936.6983226274092,813.5749768605418,815.4943528743015
1731305660.5868428,866.269134189963,890.2633760874826,814.4577458587836,804.5433927571073
1731305660.590265,868.3464933905227,888.5717588938975,815.3399636701137,796.393910481573
1731305660.5907445,869.4484648331241,930.8199273599907,816.2220107587008,791.7231003424989
1731305660.5923598,870.9166734480189,955.288868071618,817.100051198814,788.1390213404562
1731305660.5946455,873.0962884534686,877.8043588344356,817.9712400253375,784.6065994362517
1731305660.5985472,875.9669191500035,665.1698773540484,818.8352993852315,783.6119377665467
1731305660.6024487,879.3872385497916,380.3066000668365,819.6934658114193,788.6548655870415
1731305660.6052413,882.468489504344,153.5945789206907,820.5469524308979,799.5564294061293
1731305660.6063504,882.9822548670553,96.35520929209991,821.3963326078907,810.5807177363862
1731305660.607991,878.104463364638,223.09600349033656,822.2420508549557,813.8547013634108
1731305660.6091294,866.5703194751901,444.72130944355786,823.0853533557624,805.4680830233762
1731305660.610252,850.6546452488618,638.3823947960437,823.92848800943,788.9283270101942
1731305660.6141536,835.9982547341793,736.718429688731,824.7732563650771,772.8335663777968
1731305660.618055,828.716764901537,762.5716433003219,825.6182633263314,764.568901938331
1731305660.6219566,831.3919122425566,782.8174396227901,826.4573315031603,765.0985645030183
1731305660.623622,840.735573864793,829.0978718432136,827.2829040998458,768.8566779440897
1731305660.6258583,848.9418576549954,865.1584625114508,828.0960012016573,768.5426830375997
1731305660.6279936,848.3928769135503,834.0740760963167,828.9168749312192,760.9551388140429
1731305660.6297598,836.8852831363411,735.2677924443967,829.7817863695177,749.5798825573963
1731305660.6336613,819.6433587008416,646.0590356062778,830.7121994250967,742.2980121697022
1731305660.637563,806.2079807382758,656.13862092454,831.6646068853486,746.0342643739423
1731305660.6392531,804.0794580936042,774.3621094915812,832.5082450495756,762.1204990044158
1731305660.6401494,813.8258836299934,902.4416653124093,833.1000925692414,785.5026556165211
1731305660.6414645,829.4217784268518,910.9763531034198,833.4771948307387,808.143224372486
1731305660.645366,843.2642422831241,755.4100992955177,834.0424336316487,823.9480827930031
1731305660.646858,851.438319714084,526.8755385402106,835.4652043798186,831.5396374270881
1731305660.6492677,854.9633085232246,386.9950662787666,838.0638491145742,833.1020220686981
1731305660.6531692,856.7123204298188,438.2844630768777,840.8821230477889,830.8632913612578
1731305660.654884,857.6359907895653,640.4781561090529,841.4024843680083,824.7221347143646
1731305660.6570706,856.1548125205398,844.7175087109549,837.1766226724858,813.3093198652472
1731305660.660972,851.0641633584588,915.537367782895,829.6042378349462,797.4023421418804
1731305660.6648738,844.5779090710936,835.6220895185642,827.3950935489673,782.1270747184718
1731305660.6657224,841.8813020534102,706.8711901355314,844.8105024832503,775.1519791926172
1731305660.668775,846.9756948752698,654.7852543586349,891.918701882449,781.5688105854906
1731305660.6705153,858.352566929679,725.3211856393908,962.8996015897563,799.328888047137
1731305660.6726768,868.6185969605007,861.4052966952157,1035.249236012512,819.1666578302094
1731305660.6750574,869.088684296074,967.7523731738729,1084.298283149706,829.7415351111001
1731305660.6765783,856.2020252014363,994.3816394961727,1100.0165583161815,824.75763250238
1731305660.68048,834.806626504919,962.3879668997288,1090.2821921304508,807.1193184121237
1731305660.6843815,815.4641889692009,919.8587031145371,1070.5862624626752,787.0694910657636
1731305660.6845868,807.4777658143049,884.1138714407614,1052.4755288957188,775.4519059402942
1731305660.6861465,812.787162801091,832.2461596300301,1039.4922832977647,776.7463399875859
1731305660.6882832,825.322027196441,744.3066359495313,1029.819419393722,786.7347916873631
1731305660.6921847,836.144608868913,645.448163949193,1020.5673789087133,796.2779752588538
1731305660.6960862,840.1668191498078,595.7640336402532,1010.2222950501063,798.1396657214426
1731305660.699988,839.1132714661605,634.9807846687726,998.8176869426875,791.604111349901
1731305660.7017777,838.628567790758,739.7164524492891,987.0345707981072,781.6346532792355
1731305660.7034512,842.3071566700236,839.4947703429608,975.4078640443088,773.9124022656451
1731305660.7038894,847.9120117136739,877.1928776517159,964.0758389392748,770.3365239814179
1731305660.7077909,849.1121150672194,854.5530515673636,952.9200303233691,768.7032924040508
1731305660.7099657,841.3468242938989,819.9142240489085,941.7857116271684,766.2887799043552
1731305660.7116923,826.8172624658943,814.2519300802155,930.5992907541789,763.6265816702271
1731305660.715594,814.088708186194,831.5724094404716,919.3680556573279,764.8131407329549
1731305660.717409,812.0658838181557,831.6232321018543,908.1295031229446,773.8961443675313
1731305660.7194955,822.8299873316238,787.965425488866,896.9106554773796,790.4178238230429
1731305660.7223155,839.1762199882164,719.2701298941424,885.7171111981212,808.1253357641116
1731305660.723397,849.3329307014427,670.185537129258,874.5417655608843,818.5168901433669
1731305660.7272987,845.6445036132509,660.4552795937753,863.3765802229987,816.98960927925
1731305660.7312002,830.4786688374982,655.6082886618848,852.2182785346852,806.8187714761598
1731305660.7330396,814.4715018584843,594.8259365936156,841.0677133182822,797.2835910786264
1731305660.7351017,808.3400808171867,455.4970021916742,829.9266855986759,796.7004200544
1731305660.7390034,814.8278955456259,292.1877137732357,818.7956030477387,805.629347662643
1731305660.74118,827.1785628958357,205.12728786375357,807.6733863416663,815.9922937593258
1731305660.742905,834.979340533876,259.74202825905047,796.5593161456276,817.2907991529794
1731305660.7448735,832.2610356694781,430.6351840239072,785.4552893908505,805.1983555999105
1731305660.7468064,821.4597556090276,624.4075069699578,774.3660766012672,785.6953886598105
1731305660.7486708,810.7902251594758,759.8892357724369,763.2954299182467,771.421029488542
1731305660.750708,807.8537355729607,828.0354061974657,752.238758865035,772.9582704545377
1731305660.7546096,814.5804461179375,876.3826028659973,741.1785454846749,791.4712044807269
1731305660.7585113,826.7358042033134,941.3982948585067,730.0926179641958,817.926734192968
1731305660.7600443,837.4549371937866,1003.6607726135528,718.9801347885111,839.3037315540323
1731305660.7624128,841.7425335958011,1012.3197797448597,707.8909342716453,847.2716382274792
1731305660.7643018,838.9994395611833,949.0844001031824,696.9200722454821,843.1748387608708
1731305660.7663145,832.5123967188307,859.399940629233,686.1293571578824,835.9484124976719
1731305660.7702155,826.7381003985238,813.1990323243929,675.413135614404,834.8722704043374
1731305660.7741172,824.1929575493326,832.3541725439102,664.4294882990952,842.8293232626953
1731305660.778019,823.8105385624835,859.6739004636026,652.7836296889127,854.9473111235982
1731305660.7789087,821.8402400323696,806.7338318837633,640.5314970019379,862.9733404924797
1731305660.7797816,814.819009977762,641.3881034054156,628.6963407163246,861.4662690802243
1731305660.779933,802.5632394741494,433.4161495864804,619.065023294113,851.2299649803605
1731305660.7819204,788.7892362634259,309.11830881833663,612.6059550749076,838.1111935575215
1731305660.785822,778.5789548449184,346.44043529254066,606.9840552771315,828.6343714355775
1731305660.7897236,774.5027309084402,501.16354096665,595.5996887795925,825.7048395108608
1731305660.793625,774.5829797797569,635.7028191777051,571.6080937002065,827.2134569408934
1731305660.795564,773.9264196404666,633.976352042314,537.799418439362,828.2875496014308
1731305660.7975266,768.7281766600765,504.085950754922,516.1090311625285,825.3171352096816
1731305660.797773,759.2971050604314,374.4232635767095,543.5436085890176,818.5627010934669
1731305660.8014283,749.6992372062227,382.00693885136593,645.8124156818868,811.4228649214115
1731305660.8053298,744.584117038595,550.3701762800482,803.0819911929283,807.399333610914
1731305660.8092313,745.9408780599649,764.9335932572906,944.5301816791117,807.673440690821
1731305660.8111951,752.1742146500626,866.4631235617077,992.3962186622664,811.1678144884463
1731305660.813133,759.7486885497545,780.2998252156732,924.9902335127279,816.2488539679478
1731305660.8146896,765.777690011902,572.923109077806,800.1263467850865,821.81910557369
1731305660.8166373,769.6051054358998,394.31368103626846,713.2561981357004,826.7865852660235
1731305660.8170345,772.4343840277185,359.30302109588513,724.0672270892952,829.0784627494276
1731305660.820936,775.5069799975241,464.435812407934,812.4991101072112,825.9608861351636
1731305660.8248377,778.408869250634,601.0398153951064,898.8459131777739,815.9687608320771
1731305660.8268263,779.1115767650309,645.8898708048846,909.1617862809323,800.978544955109
1731305660.8287392,775.9953740632363,552.768114893774,831.6519283184176,786.5651704978644
1731305660.8326406,770.1230869951471,375.4582307844649,720.1949348334165,779.844544608196
1731305660.8355017,765.299982880204,215.0720013410625,647.2805652551424,785.5711966276461
1731305660.836542,765.1995296916386,145.7526529467607,649.8943952531313,802.5539489434386
1731305660.8404438,769.8177588878698,180.00214457624276,712.5310169326935,822.8928037030126
1731305660.8424573,774.7278242145544,287.96295077613746,793.6211316979093,835.4249641504397
1731305660.844345,774.3753942599117,434.5298690843375,862.9565996515328,832.0737704737408
1731305660.8482468,766.83193998048,592.774287571012,914.3679050452057,813.2183549080961
1731305660.8495977,755.7847408360213,730.0124083278466,949.1467148190413,788.1849371837826
1731305660.8521483,747.878772306078,798.2023390517678,956.7218960272922,770.0856615208866
1731305660.854366,747.6783803198166,754.8218778895971,918.4927995456629,768.2183533579197
1731305660.85605,754.5722370626456,602.1124364088695,831.9713603287857,782.9961771195043
1731305660.8580885,764.0995994872154,404.5678448322228,727.652750296731,806.6501522619177
1731305660.8599515,772.2376530315383,258.5999158220392,656.5873100491526,828.9796755906195
1731305660.8638532,778.6717759109821,232.39209281618298,656.2546352386025,843.8884049462149
1731305660.8677547,786.1282979185656,324.029407993927,724.7106032162685,851.9367823313079
1731305660.8716562,796.5729633772755,470.8496966886155,824.8850455927362,857.3983557747601
1731305660.8732305,808.1517852963054,597.2950965363061,911.8779554288985,862.9268797309928
1731305660.8737197,816.1647296051084,657.9954280471438,957.1917619969399,866.8374723192146
1731305660.875558,817.3703673289095,645.4875289823156,952.8823153503904,865.2866274030713
1731305660.8794594,813.3281757373148,570.4268306259845,902.1132568627286,856.8541026118244
1731305660.8833609,809.148453446155,445.373556275237,813.6707014665697,844.8072397066138
1731305660.8845055,808.6127608535535,290.2467758754651,706.754104929103,834.7358055376138
1731305660.8872623,810.498027522063,145.9740223775146,614.5614879379789,829.8211108314115
1731305660.889351,809.8777027232668,68.6349590221098,573.0130969922137,828.2795033181533
1731305660.891164,803.1336664469786,96.80035528550212,598.2222879028969,825.3768721031004
1731305660.8920949,791.6647960597365,219.04671597828366,673.4661207783706,818.0278994254122
1731305660.8950655,780.7270797952879,376.97417009201894,761.3808587080418,807.6301967772786
1731305660.898967,774.8317240625261,506.58911985127224,831.8885484353145,798.6175682459537
1731305660.9028687,774.3684841316363,580.0517519269767,878.4212115200595,794.3179275450676
1731305660.9049816,776.4376515520214,607.9772411279548,907.0257409442852,794.0694616708201
1731305660.9067702,778.4241633854324,605.5484995016633,913.7714811942445,794.0995040757224
1731305660.9106717,780.4212263130614,565.9905170750466,880.4512984804883,791.0998584808436
1731305660.9109592,784.3394459230047,475.07792739277136,798.3219235447606,785.2047380561277
1731305660.9145734,791.0532338142581,350.08505059311517,695.4342042518905,779.9485565584756
1731305660.918475,798.5646568851091,253.05029354769266,632.787168057486,779.5064131934403
1731305660.9194138,802.832418558111,250.9242331338029,661.8048088436758,785.5727798912873
1731305660.9206128,800.483208826625,352.3118509814715,775.5911974979052,796.2031078566147
1731305660.9223764,791.3057587200944,482.9455797577825,900.0640747453233,807.2927476292206
1731305660.926278,778.8215095378204,534.0607133725097,942.0459337774677,815.4889001699552
1731305660.9298236,768.5811590114452,451.8959143596722,861.7341328996645,820.3727127411162
1731305660.9301796,765.209923099256,292.3969524713983,709.8798172541087,824.207849731643
1731305660.9340813,769.9639901241648,186.65409399081273,593.4559853419559,829.2826737685753
1731305660.936244,780.2689848644385,237.1440206610887,592.9588644304101,834.9189030263743
1731305660.9379828,791.4578351684829,429.7032204524189,699.3932565065551,836.9328194142656
1731305660.9418845,799.5022603567438,639.8489955914964,825.6936757020713,830.6031116902292
1731305660.9457858,802.9954748350876,732.6901749834587,882.8492096438166,815.0280963937157
1731305660.9486878,803.3481980565199,671.4952722544527,853.0089602799924,795.0203629556345
1731305660.9496872,803.4181186913095,540.9221360891097,795.6631711360825,778.4236667659542
1731305660.951875,805.6130219180681,468.8489380776884,785.6047909230933,770.6832725182369
1731305660.953589,810.5201898169495,521.8699048404874,842.8925511443481,771.0365685799584
1731305660.9543216,816.660519756346,665.8811828478481,918.2027058637881,773.4424644669629
1731305660.9574904,821.4488716194851,813.2220882688398,942.249428639246,771.5014782565107
1731305660.961392,822.9005360983261,898.1500294941343,889.4536522728135,763.503120143331
1731305660.9652936,821.0623971576485,912.4693796281834,797.2108456870791,753.7836943940472
1731305660.9675062,818.0249721341875,887.7187152055628,727.0460710458848,749.4548338106023
1731305660.9675522,816.2484023777168,858.5759049409888,707.781122017133,754.9419681304228
1731305660.9691951,816.452055509015,841.6245581459907,714.2039286611504,768.3119794913408
1731305660.9730966,817.0148590032418,836.0319160943261,698.4911733792278,782.1627432779476
1731305660.9769983,815.634936286611,834.2345175251812,641.9727512333477,788.6870869474976
1731305660.9808998,811.7957648295894,830.5780791159409,577.7221114051313,785.4158751978944
1731305660.9831371,807.642786172756,823.7866432029288,563.7790054958061,777.3255427599892
1731305660.9848013,806.3081563007163,815.2713975354297,633.0145661003467,773.4154915802113
1731305660.9864166,809.1209194969491,806.7193030004531,764.8870947208686,780.023966644583
1731305660.988703,814.1360821179323,798.8825465886667,900.9455903322804,795.86760800712
1731305660.9892297,817.2389577258135,791.64172440651,986.004997836076,812.748837752968
1731305660.9926045,815.0302474574285,784.5774168806158,999.1708491749226,821.6721380402632
1731305660.996506,807.4448985341604,777.4032693733122,955.38313344464,819.830635559671
1731305660.9987683,798.2338776766776,770.0689730453716,886.5910440762294,812.8721486955353
1731305661.0004077,792.7614379915117,762.6570128896226,823.3249019428919,810.2072559225974
1731305661.0043092,794.4108662986064,755.2552844028924,786.6155321595745,816.7765828905292
1731305661.005281,802.2151188615865,747.8989552599618,785.027667795472,828.1804316253933
1731305661.008211,811.8289844277526,740.5784755010667,810.090760210013,833.8555061410418
1731305661.012112,819.3497665265149,733.2710708755242,834.089183180793,826.1532521000288
1731305661.0143993,824.7034978744628,725.9626204321792,820.394672776467,807.5633460760725
1731305661.016014,831.2650066746124,718.6515421561561,747.3130569509614,789.4822699937322
1731305661.019915,841.7568110665701,711.34223583958,629.8011279518635,783.3013618029959
1731305661.0238168,854.2633994990216,704.0380467332776,518.4174443791732,791.4535659380263
1731305661.0241375,862.4738334589734,696.7389099934738,470.67512097471024,805.9950152291954
1731305661.0241454,860.4513927568871,689.4436008903212,514.1467493158591,815.5435295369782
1731305661.0277183,847.9168312217704,682.1535191846323,630.0108450225981,814.3376951142336
1731305661.0300305,831.3532494031416,674.8739565058629,769.5231370033545,805.9555135266054
1731305661.03162,819.8225454116229,667.6097346550534,887.9193675751549,799.3088385682416
1731305661.0355215,818.911669715201,660.3560051241832,966.568661698277,801.0271571235776
1731305661.0394232,827.6347460797504,653.0918191753232,1007.9873305712212,810.7570852156555
1731305661.0430098,840.2897584824757,645.789192789299,1016.0199425246622,822.6773796678582
1731305661.0433247,851.0019942132271,638.4445223211484,987.0552843468807,830.9612528125297
1731305661.0456617,856.9518222174403,631.1160397259429,923.34915669696,833.9840137538896
1731305661.0472262,858.3254563182002,623.920859998041,851.6617534960961,834.002276226715
1731305661.051128,856.3293984216975,616.9424275844542,819.5558014095515,833.5640984225137
1731305661.0550294,851.8240272706046,610.0641473269297,861.7245941978845,832.6904541479507
1731305661.0589309,845.5761537109697,602.8731646183725,961.8968312250322,829.529790171596
1731305661.0590458,839.026307610459,594.8672203385464,1048.9380821908908,823.3713153861686
1731305661.0612926,834.1069113583591,586.0659347483722,1041.9942248285874,816.4944760863507
1731305661.0618742,832.0237778565293,577.6745190335525,915.9630108741067,812.6382940271343
1731305661.0628324,832.225710607366,571.9050703032593,733.1106486267156,813.4342864527877
1731305661.066734,832.6609902636006,570.099102090392,606.4427554797387,816.3230411642174
1731305661.0706356,831.1667410549802,569.6312875724055,616.0852362780391,816.1532758142785
1731305661.074537,826.8122209064675,562.4915100740551,745.8851765696269,809.2656491843106
1731305661.0769238,820.1686125697496,539.8723423128567,897.2150444843079,796.6907523897888
1731305661.0784388,812.5322561338131,504.18117016240524,971.3126372229783,783.9206055045928
1731305661.0807383,804.9997695654397,481.2381374235756,948.4125369225987,777.4232305666665
1731305661.0823402,798.1958382512559,516.3251133659892,893.8386457877275,780.3701141574505
1731305661.0862415,792.5990776107391,641.9472384553758,888.9736280120225,790.5899456445736
1731305661.0901434,788.7568485436681,832.9330205393073,953.7659436431553,802.2948652532334
1731305661.0925548,786.9852854223785,995.7347926295267,1031.8970100409738,810.2162732888446
1731305661.0939538,786.9860858458782,1025.4808912055191,1048.4284952907474,812.6823456763216
1731305661.0940447,787.963802804369,896.8187918248552,982.8433550444133,811.4033846486919
1731305661.0979464,789.1373704036264,702.3844789631374,889.0844395632666,809.0775095125318
1731305661.0996027,790.1103566314857,587.4385374477179,845.2339253344461,807.3964613715374
1731305661.101848,790.8637318620183,627.122443409249,880.0903316893978,806.6450992831681
1731305661.1057496,791.5409849766007,755.7677686668965,944.3982595291187,806.3523532294562
1731305661.108186,792.2620249527749,818.6550299878332,953.9163185424566,806.0251554307669
1731305661.109651,793.0604606164532,707.1072851007923,866.4872122522358,805.4717327243837
1731305661.1135528,793.9113862757605,458.7022476394453,723.8763637083072,804.7503845089195
1731305661.1174543,794.7801502420909,231.85369037327405,620.088858743628,803.9905881371462
1731305661.118467,795.6494890001409,175.90609199700606,623.7509681957586,803.2714285103921
1731305661.1213558,796.5203492400536,311.3077340400776,722.8646641381778,802.6007652461702
1731305661.123817,797.4008675444445,522.5821557182187,838.6854440419955,801.9507609267544
1731305661.1252573,798.2971395907983,662.7757938668701,892.9435808109848,801.2954500616271
1731305661.128862,799.2105242221965,671.0956769676259,867.8099356121171,800.6257156850346
1731305661.129159,800.1394402234687,603.5427939231414,809.9458825698811,799.9451989450167
1731305661.1330605,801.081971291052,563.3820739653318,782.7038060232051,799.2605695975076
1731305661.136962,802.0371906632691,606.3466609362224,812.8462200991506,798.575452199976
1731305661.1373315,803.0051077472955,704.8048802340696,874.8747249408335,797.8897188645377
1731305661.1394482,803.9860557898635,788.682157168663,918.0101881228496,797.2015307746209
1731305661.1408637,804.9802218904135,811.1264036316165,906.8794586036389,796.509285778112
1731305661.1447651,805.9875318660746,776.9365640832696,843.3751145753232,795.8123087813406
1731305661.1486666,807.0077596258275,718.6972771911319,758.619802145607,795.1105702100341
1731305661.1525683,808.0406647900631,656.2089733193354,687.6791027771503,794.4041621852916
1731305661.1550794,809.0860565364568,583.1747373726446,648.3908608697714,793.6929975549855
1731305661.156196,810.1437858012727,490.3356718016546,637.2411435074932,792.9767933163444
1731305661.1564698,811.2137113258937,393.93225250634464,639.3345482043045,792.2551884725544
1731305661.1603713,812.295675358007,332.5390414759839,639.8792743914338,791.5278482961419
1731305661.16377,813.3894986522896,330.33097842919574,628.5775851594923,790.794497663146
1731305661.164273,814.4949875923377,365.3123339272196,599.6017081252909,790.0548980109127
1731305661.1681745,815.6119434883618,382.0651444717911,554.358589833234,789.3088049338503
1731305661.1707103,816.7401680443418,343.78052513021845,506.54482559596937,788.5559379732682
1731305661.172076,817.8794624512954,272.81726122315575,480.07555336165296,787.7959855807601
1731305661.1750605,819.0296194529448,234.58503427280147,494.70287069817493,787.0286568008478
1731305661.1759777,820.1904113398518,275.8174991083735,549.4922370719578,786.2537600939008
1731305661.1798792,821.3615837712072,377.70702494569935,621.8837600525474,785.4712376182546
1731305661.183781,822.5428701210703,472.3286502495306,686.7293324484903,784.6810544438243
1731305661.1863415,823.7340320645185,506.94929329197964,737.4034688637125,783.88291517237
1731305661.1876822,824.9349025944517,491.6138290626695,786.0568838690024,783.0759905344474
1731305661.191584,826.1453727978958,482.95033109688495,841.4487049311141,782.2590627050886
1731305661.193925,827.3652674109172,522.7387838790938,888.7511537883776,781.4314322270658
1731305661.1954854,828.5941426227838,594.7768436491531,896.6249830722691,780.5942782908543
1731305661.198678,829.8311968934914,642.8584678599307,849.1063357217346,779.7510968320346
1731305661.1993868,831.0755743428705,629.7005622706139,771.1654872118215,778.9053568253964
1731305661.2019725,832.3271405173086,575.8243805317354,717.8894812778684,778.0550919942772
1731305661.2032886,833.5872295757677,538.5463051287679,730.3577132224434,777.188224969454
1731305661.20719,834.8582389704154,552.422542380625,796.3007097534888,776.2863936010502
1731305661.2110915,836.1411321739733,592.8775895573971,855.1120209977903,775.3429982778952
1731305661.2127893,837.4317049008068,603.0867336708253,848.6182566623909,774.3881081703034
1731305661.2149932,838.7194027143644,559.5004297676143,774.4093091721928,773.4931451515698
1731305661.2176037,839.9937942589098,507.6816798302846,691.5326114977642,772.7217912707515
1731305661.2188947,841.2594479160706,525.2295066234369,670.0867719024723,772.0273963412093
1731305661.2227962,842.5487403914834,642.6457468174731,729.4921784430428,771.1758150752543
1731305661.226698,843.911255780295,801.6688056661337,822.6971433049183,769.841918991567
1731305661.2305994,845.3641983360997,899.1440804993854,880.7701702208844,767.9770713616382
1731305661.2316537,846.824390267037,879.8097891041386,875.034057172842,766.2949650473344
1731305661.233235,848.0969059322279,789.1073441110414,838.2958373722458,766.3947290200382
1731305661.233586,849.0139175285522,732.5120612344764,827.2760715259471,770.0393404467839
1731305661.234501,849.7270878517683,777.3157336871599,864.4649096542927,777.7956397407027
1731305661.2384024,850.9503388010762,888.7309259608478,915.7446518100671,788.1941418707328
1731305661.242304,853.7902219622919,960.5317761522513,924.6527221532531,798.5549528639814
1731305661.2462056,859.0355872030028,911.5898313319044,869.6040228990056,807.1710828019807
1731305661.2488658,866.4879854495714,758.1157312660354,788.0946971163604,815.0465402100604
1731305661.250107,875.210073883406,595.2070890712322,742.9470386895546,825.5866323636815
1731305661.2505178,884.5566953301735,506.9346315965068,761.1333055725336,842.3255990171617
1731305661.2540088,894.6740283514481,490.2221762766618,803.3268748348762,866.2164877601382
1731305661.2579105,905.6674506905979,463.4121325763015,795.5034114217974,894.1615791072975
1731305661.2618115,916.2870099199386,351.2773723139603,696.9574542227792,919.7172809856581
1731305661.264497,923.681063343669,168.28333055831962,544.5524020618901,935.8953126392164
1731305661.2657137,924.8174974649214,23.78472727881308,432.76817946775947,938.8430345549534
1731305661.268494,918.5494877551523,42.39656456920943,444.84494926850573,930.2493822896841
1731305661.269382,906.5130233316986,265.85217214129716,591.3266226985716,916.5443787974766
1731305661.2696147,891.9547588517694,615.6505171718021,803.5165418460059,904.8990154603657
1731305661.2735164,877.4881856084024,942.2182090694577,982.3603562358212,898.603366110432
1731305661.277418,863.8066998086535,1117.4483668912249,1061.313018952222,895.3226856200545
1731305661.280128,850.4273293087208,1101.4355053082102,1037.832937234207,889.6858434713861
1731305661.2813196,837.51012980782,945.050458206819,958.8310243112726,878.0438787242819
1731305661.285221,826.749382138342,742.291588898752,880.5127837762651,861.3282716865226
1731305661.2882464,820.3292233951838,574.5686701924046,835.3323040439076,843.7525053467456
1731305661.2891228,818.9755401753638,479.55869603441204,824.5813723716548,829.027729477053
1731305661.2930243,821.1609819731653,451.41253287496966,831.9357153641482,817.9173774620434
1731305661.2957592,824.4342145347122,460.9803084347377,841.0297933389957,809.1935000274801
1731305661.2969258,827.6242062077105,479.2967248613741,844.4280635517173,802.3187067009497
1731305661.3008273,831.5433103858895,491.0505816847708,842.7171805820033,798.4410742633299
1731305661.3034022,837.1280108533085,494.60351985653074,839.4152285552485,798.354034092592
1731305661.304729,842.6695453389154,494.64481985434526,837.0533405102221,799.7008016934576
1731305661.3071108,843.2145610746277,495.4673643652556,836.141125924877,796.9833107306166
1731305661.3086305,833.6123810319067,498.4509100011982,835.9958139380193,785.3354166896693
1731305661.3113902,813.1864567657648,502.84142692222923,835.8471586954896,765.020535308925
1731305661.312532,787.8613822771185,507.4326237250313,835.368142525358,742.3065142562237
1731305661.3164337,767.1535821821335,511.5756148305395,834.6265086015038,725.3250981170844
1731305661.3203351,757.7503777304146,515.2660198246722,833.8173876945879,718.0589890610245
1731305661.3242366,758.6758288508273,518.7791509546989,833.0688164615891,717.3896703489336
1731305661.3259752,762.1033809306416,522.3385966465361,832.4000783325679,715.5673758708202
1731305661.3270214,759.3081518775075,526.0061389519115,831.7717525338259,706.070581968525
1731305661.3281384,747.0145497594148,529.7355561581517,831.1439063674062,688.438018145377
1731305661.3320398,729.1750138067642,533.4632389506888,830.5014262712531,668.7661979516995
1731305661.3359413,713.125412051027,537.1580065473089,829.8493963123892,655.7232324822439
1731305661.3383102,703.6913895559559,540.8222581033914,829.1984898484354,654.799363958412
1731305661.339843,700.2589900204875,544.471486978701,828.5551962717931,664.5701031752077
1731305661.3426526,698.936437890787,548.1172947912305,827.9202325665718,677.5193683665864
1731305661.3437445,697.2939702920586,551.7625230169464,827.2914653582181,684.9877616479854
1731305661.3448396,696.9066060750545,555.4046348538501,826.6669458532356,682.7969774844353
1731305661.347646,701.1378444273081,559.0405300593259,826.0460969271921,673.3959250986446
1731305661.3515477,710.3216413988245,562.6689670994481,825.4293641572589,663.0188830015575
1731305661.3554492,719.2575521214955,566.2904431959779,824.8174245735204,656.4385570927781
1731305661.3582835,719.9294222640979,569.9060564135524,824.2106996437246,653.7361526073197
1731305661.3593507,707.3991574964477,573.5166410925442,823.6093033813773,651.3133792634112
1731305661.3632522,683.7572801115448,577.1225611697708,823.0132101031279,645.4729854742188
1731305661.363704,656.8273722737254,580.7239158398822,822.4224119870736,635.2168182580821
1731305661.367154,635.079691170052,584.3207941014523,821.8369736999389,622.4982870520331
1731305661.3710554,623.1423971452398,587.9133903565713,821.2570079474614,610.5275530448403
1731305661.3732183,620.8293700358017,591.5019857766334,820.6826312118939,601.5173866050518
1731305661.3739147,624.8332612830159,595.0868812362617,820.113938188385,594.8892396139748
1731305661.3749568,630.3700145796589,598.668351960053,819.5510019580458,586.9004523820588
1731305661.3788586,631.7597302216496,602.2466463119671,818.9938893747563,572.6947724873878
1731305661.3825684,623.633282502574,605.822014746585,818.4426773419918,550.5429197045778
1731305661.38276,604.4414107714356,609.394737878357,817.8974568269435,525.7104292822582
1731305661.3866615,580.6368037819906,612.9651200717213,817.3583152505677,510.32448487853634
1731305661.3895457,566.8257800261642,616.5334310879401,816.8253004346284,517.6698936707572
1731305661.3905632,578.5467976810731,620.0998231312814,816.2983936435915,553.4380094487456
1731305661.3944647,620.4471320226407,623.6643120575692,815.7775399835414,609.4375325469911
1731305661.3983662,678.5737894758352,627.2269306810856,815.2627658549269,664.7862327729243
1731305661.4014328,724.8733582970217,630.7880554145862,814.7543277538596,695.5605534201029
1731305661.402268,733.3555179687298,634.3486596627899,814.2527183260393,688.2570259716696
1731305661.4051769,697.185143044311,637.9100286776559,813.7583322604889,648.6676824423714
1731305661.4061694,633.7229317775947,641.4726366839872,813.2708268597344,599.419923580458
1731305661.4081264,573.4211650913011,645.0347075520014,812.7887018427263,566.8500649149556
1731305661.410071,541.2325423442536,648.5921312619182,812.3099999691242,566.0516921624338
1731305661.4139724,544.4699714953292,652.14165554791,811.8345967904154,594.638678273835
1731305661.417874,574.4265908836816,655.687057184626,811.366859053236,638.7183714235532
1731305661.420297,617.2463197560885,659.2432740059407,810.9152964296056,684.7980761090914
1731305661.4208078,663.5108244843232,662.8297855688567,810.4857245499906,727.7178790360684
1731305661.4217756,710.1610302481434,666.4486026928297,810.0692708422433,769.9413343752522
1731305661.4256773,756.8791294891472,670.0584452296772,809.6358179023374,815.6635484143791
1731305661.4295788,802.9640972419139,673.5775888788158,809.1496288022537,866.2816632375348
1731305661.4334805,847.4817415335862,676.9492725266714,808.6138647883794,920.1502095230047
1731305661.436439,890.4109644801118,680.2575712174241,808.1176060260603,974.4557864584599
1731305661.4373815,931.7230032302538,683.792231625891,807.8203386223173,1025.986907870937
1731305661.4391613,968.911640420582,687.9005049392732,807.8134951189209,1070.5679865443635
1731305661.4412837,996.4974867693037,692.5587772155802,807.8971997689582,1103.581925079788
1731305661.4430344,1009.6169720812552,696.9149118569071,807.484175125493,1122.9754192820733
1731305661.4451847,1009.2622030743454,699.4274230120247,805.9388650614837,1132.594422195736
1731305661.4490864,1003.9261875362845,699.1898861912642,803.4351410438629,1141.7753374836707
1731305661.4520702,1004.8347690131734,698.084496542701,801.7706476343827,1159.5820920751937
1731305661.452988,1017.9578637266941,701.7246396054884,803.887166416469,1187.3229529292912
1731305661.4568896,1039.7562260768655,716.1808865789034,811.0491435790515,1216.0026614409683
1731305661.4580257,1060.773350556155,739.5672817789884,818.5874652877123,1232.2885814540384
1731305661.460791,1073.916997093807,753.6267829599448,814.2219302337663,1229.0907266045435
1731305661.4646928,1079.805192172612,726.703707083994,783.9894704753796,1211.8127328456956
1731305661.4677012,1084.6072675670575,636.4463361166431,725.5880360163123,1194.3594777859992
1731305661.4685943,1093.2685132094373,501.4796085445926,659.0286723066074,1188.079894654265
1731305661.4724958,1105.1039541676798,389.7978777579733,620.764542544403,1193.377813558017
1731305661.4763973,1115.5066297283201,379.8161349475789,639.3906851067578,1201.1197869330388
1731305661.47689,1120.885864500568,495.3990863240311,710.7232078467034,1201.6987381692193
1731305661.4779425,1121.1415253939304,673.9540027596265,796.151062612446,1192.846862517334
1731305661.480299,1117.5323364147864,806.8097992221152,849.6090848364556,1179.3762904941575
1731305661.4833324,1109.2403775244943,824.4277252796714,850.9207383857351,1166.2727110441556
1731305661.4842005,1093.1745284470148,751.3738772118829,815.9015694107285,1152.6197245546605
1731305661.488102,1067.5545752034043,678.9804375001493,776.8957021587213,1132.2683405949972
1731305661.4920037,1035.2975285362902,679.7121901333138,756.05735677691,1100.2519108930549
1731305661.4957545,1003.1633940593003,743.8741860602644,755.263190971589,1058.5924074638015
1731305661.4959052,976.9328043753341,798.7972925883407,764.2803796292727,1016.0465572304478
1731305661.4989634,956.9589862336417,789.7748898058852,773.0653370702028,982.0594079125299
1731305661.4998066,938.2205714054776,739.8577170588237,777.6064181672418,960.2085497811831
1731305661.5037084,914.9199112117817,726.2365674264598,778.885608121544,946.4694350479231
1731305661.5076098,885.6649206699965,796.1722246929519,779.3833397713549,933.2000838781956
1731305661.511511,854.8796463348888,909.2908545385251,780.6630751484641,915.0706943172615
1731305661.5128503,829.4522032616544,968.7715314636589,782.9135860233928,892.1897191652581
1731305661.5145946,813.6223025917375,914.5463562853422,785.6136140098414,868.675676662049
1731305661.5146189,806.2410965772883,787.2849466582115,788.2620024208777,848.7265541845453
1731305661.515413,802.1239312383327,697.3006095193305,790.6792218799757,833.5971890508789
1731305661.5193143,795.8045048376446,723.0640994487871,792.9360926957748,821.3646501411774
1731305661.523216,784.6051750276055,833.0909123602238,795.1667476137336,808.9384712510592
1731305661.5271175,769.2364802078544,907.0436117330128,797.44868864151,794.4482460018975
1731305661.5302255,752.3893370555832,841.9210443751276,799.7866237122488,778.3833610099924
1731305661.5310192,736.9498655094382,648.8977615766848,802.1510088235731,762.9811652099248
1731305661.5334833,725.0062452193953,450.71293545187837,804.5160162160405,750.5006700775469
1731305661.5349207,717.6883563505172,377.48919274477345,806.87352090283,741.6248112633847
1731305661.5388222,715.2733999656243,452.12867197870094,809.2280303865346,735.0710409746755
1731305661.542724,717.2014724721577,569.2627113403175,811.5865990146908,728.647783224415
1731305661.5458567,722.0895409800278,589.650594604832,813.9529252697034,720.9737108738173
1731305661.5466254,727.9173844522801,467.4099845450221,816.3269864312209,712.6037450643372
1731305661.5477586,732.3310317732672,295.9074798283905,818.7072919921294,705.741012309657
1731305661.5505269,732.9298412652804,229.77776416045037,821.092754986828,702.6786429342731
1731305661.5523477,727.6602792241141,350.9162610976492,823.4830190693966,703.9069922919361
1731305661.5544286,715.6311513855076,595.4292301318976,825.8777547789723,707.0752131672388
1731305661.55833,698.2598982168468,803.2089285598527,828.2761381959222,707.6909821687698
1731305661.561488,679.8177704399125,843.9997959033692,830.6774602240304,701.5581640279042
1731305661.5622315,666.1907713462535,711.1557071670857,833.0827697006669,687.6790104739271
1731305661.5661333,661.8345923961424,510.1041845430954,835.4959831897062,669.54271874197
1731305661.5700347,666.7613584078247,364.64789777736104,837.9220036608946,653.424602956773
1731305661.571212,676.0268021723901,329.48124697067544,840.3607413183142,644.4480225157815
1731305661.5739362,682.5614080030244,375.7415582137722,842.8004531542699,643.1076791954922
1731305661.5771189,681.586310869986,440.23284038723625,845.2192549162049,644.9360028445294
1731305661.577838,673.6009625914746,479.601396387751,847.6034400588617,643.7897195921095
1731305661.5817394,663.9836980405942,487.6282411648489,849.9782312829499,636.4666177494487
1731305661.5826666,659.5360149972995,479.91340365672875,852.4227247598693,625.2048588380039
1731305661.585641,664.1523695832117,472.5718371268862,855.0263244633545,616.1022434879188
1731305661.5895424,676.2964031906619,472.1580177211126,857.7723776647903,614.6285585502127
1731305661.5900762,689.9938131745565,477.1150396429183,860.4215700705581,621.7273601213678
1731305661.59275,698.9205238851725,483.40267840861316,862.5641551680176,633.4786071316109
1731305661.593444,700.8433165009255,488.4476325564656,863.988692672289,644.2413629621465
1731305661.5973456,698.9252779684276,491.9181919042211,865.2500032642657,650.3186169442956
1731305661.6012473,698.5624518930898,494.654427137472,867.8715326918223,651.1685894507447
1731305661.6051488,702.3568052371064,497.4754924132607,873.3923954281345,647.953690001596
1731305661.608381,707.9618768802627,500.67982045179343,881.0792662391145,641.8264606345822
1731305661.6089406,711.0975619172882,504.1555898611433,885.7580180298662,634.0344136589642
1731305661.6090505,710.7509049102126,507.68452904807566,878.7678859642422,627.1808462706425
1731305661.6129518,710.8613693401368,511.139007228456,853.8451106084724,625.1145412812118
1731305661.6168537,716.0895751532339,514.5101072527042,814.2926182647078,630.3245638648441
1731305661.6175747,725.6934372487632,517.8455066308996,773.360149060369,641.0095929261826
1731305661.620755,732.2849980822215,521.187414107496,745.165220621613,651.3874914459467
1731305661.6240122,727.897005951787,524.5493349095443,734.7444729311035,656.2610305341823
1731305661.6246564,712.3611845204832,527.9240733128993,736.9522766260391,656.4759279322049
1731305661.627805,695.9803800197699,531.3001586921732,743.1444879366192,660.075396440996
1731305661.6285582,693.1371898311335,534.6715538641383,747.5917999597366,676.9862811805892
1731305661.6324596,711.5880572791331,538.038276521561,749.078249018526,710.7078674172561
1731305661.6363611,746.1959087645291,541.4026509283367,748.9837856940949,753.6778398659449
1731305661.6396432,782.1293669778878,544.766192179927,748.9081844824075,790.5799195466419
1731305661.6402628,804.6881027808571,548.1292013089736,749.535170767737,807.6630733441694
1731305661.6441643,808.0182748274958,551.4923077997223,750.7239786092197,801.415934774645
1731305661.6466694,796.8496980303938,554.8577315771633,752.0662820962033,780.5083838885084
1731305661.6480658,781.4276341661622,558.2281166960386,753.2935424734349,759.9581739489533
1731305661.6519673,770.4486161620894,561.6025625795723,754.3650085154193,751.8229285005457
1731305661.6524827,766.9263637332078,564.9728063672252,755.3632961674749,758.6120357997485
1731305661.6552744,768.7055787065023,568.3255374316194,756.372449897304,773.2892512347194
1731305661.655869,771.9602047500268,571.6554122931318,757.4246480351909,785.1942760724093
1731305661.6597705,774.6075114481724,574.983783061383,758.5097103311449,787.4687677809649
1731305661.663672,777.3704064621411,578.3633693072122,759.6056611255285,780.9293488575806
1731305661.6655338,782.2526998725776,581.8434482306479,760.6992462810344,772.1651480560315
1731305661.6675737,790.1094807765747,585.3938561342752,761.789304351977,767.9701797412241
1731305661.6709056,799.5664365896747,588.843688934751,762.8806447695791,770.7483942126983
1731305661.6714752,808.2587175742979,591.9433261331426,763.977657584305,778.1730049003604
1731305661.675377,815.1320712927337,594.6232123967815,765.0818152479803,786.393306884418
1731305661.6792784,821.4162531269264,597.3342528087394,766.1924664748933,793.1998078260563
1731305661.68318,829.1603606132335,601.0834125877923,767.3086243183891,798.4187651639127
1731305661.6843982,838.7789618853793,606.7089533025925,768.4300699078565,802.1840295125685
1731305661.6865366,848.1772023047022,613.4417945242349,769.5573079163901,803.8446525722344
1731305661.687081,854.4074591416528,617.902129709815,770.6907354228415,802.9648733618642
1731305661.6873908,856.1985237082373,615.5819529222667,771.8297738033691,800.9866253119181
1731305661.6909833,854.928708600249,606.0011135307085,772.9728651522066,801.1637697955709
1731305661.6948843,853.379161252451,599.0534135598114,774.1189832730894,806.3609651865534
1731305661.698786,853.7612873446163,615.3230220692428,775.2702017010266,816.740457313363
1731305661.7021675,856.7292699861982,673.2259987669677,776.4329862048781,829.4424633221655
1731305661.7026875,861.5685958248075,766.9376227803413,777.6147557377343,840.3098342803917
1731305661.7032626,866.6856044684487,855.8665197486116,778.814527840238,846.0657892685097
1731305661.7065892,870.0618258602335,886.3695388947535,780.0134257658679,845.6300253887078
1731305661.7104907,870.1677829981022,835.8123114663898,781.1786442645855,840.4025316950783
1731305661.7143922,867.2911278663403,736.7706777257072,782.2929356048061,833.7318385759381
1731305661.7177987,863.9500186049543,650.6095233208532,783.4005919855174,829.507518351427
1731305661.718294,863.2534326756966,611.207884920297,784.6249619740697,830.1127663666427
1731305661.722127,866.2551523621969,594.3168050304525,786.0942764945338,834.9478429623439
1731305661.7221954,870.970651755227,545.174037957048,787.7619655580521,840.8986736854798
1731305661.7222989,874.2065049909421,439.3051855384663,789.242650050866,844.5960492754676
1731305661.7260969,874.2081307630704,317.5896908827145,789.9228354294906,844.56850394015
1731305661.7299986,871.4971781630583,260.0510159245151,789.5492293010554,841.5910710156099
1731305661.73343,867.7076194906558,320.68615110397934,789.071300093895,837.4260720910856
1731305661.7339,864.1293012486027,482.3624877738645,790.8451823991043,833.4280552706675
1731305661.7378016,861.1630305549468,670.9555021699641,797.0389145255895,830.0308248165848
1731305661.740991,858.5983257509249,811.214731677235,806.1208470149297,827.0343720548603
1731305661.7417033,856.1006010880615,870.3384991334237,809.838020783287,824.1021651579749
1731305661.7456048,853.4935130963235,855.1824974066001,795.2494241594985,821.0530297954955
1731305661.7490609,850.7799478816473,781.3402919388831,754.0947334855074,817.8872057131691
1731305661.7495062,848.0385655173598,658.0959423097573,693.2229878675298,814.683438628983
1731305661.753408,845.3318261588695,505.10910789963833,633.8331427220407,811.5054517727349
1731305661.757207,842.6765259814485,370.4914788262786,596.7776482652165,808.3710547263761
1731305661.7573094,840.0596459279301,312.7811677037868,588.0220588708559,805.2675309285574
1731305661.7598555,837.4637852912767,352.17521057556655,598.2962280733373,802.1773196262297
1731305661.761211,834.8808268825909,440.22817462926093,613.9519918268225,799.0920812323511
1731305661.764692,832.3120064640115,488.78768145481854,626.4892521508414,796.0129827608228
1731305661.7651124,829.7620952730475,441.69524733934804,634.44499981661,792.944882368765
1731305661.769014,827.2346871480908,325.32412669128826,640.136953441555,789.891525266986
1731305661.7729156,824.730905102059,228.31775445116034,646.0084215585787,786.8541759685911
1731305661.776817,822.2503857191891,226.47364725912234,653.0134937731407,783.8325820333049
1731305661.77872,819.7926274219883,321.4078247831601,660.8647567300429,780.826337617405
1731305661.7803233,817.3576525951644,448.33505345088554,668.9191666884064,777.8355666772346
1731305661.7807188,814.9459609691347,541.3497575650865,676.7822180650063,774.8608865461829
1731305661.7846203,812.5582073753475,589.9108021865213,684.4127192420667,771.9030845618332
1731305661.7885218,810.1949622267801,631.8245761182033,691.9471881845312,768.9628730972647
1731305661.7921147,807.8566570539891,694.4002874831789,699.5133727798699,766.0408313963632
1731305661.7924235,805.5436435082573,750.041607221923,707.155589153601,763.1374645437803
1731305661.7959542,803.2562642930409,738.70911063787,714.8547653600879,760.2532764715274
1731305661.796325,800.9948850412661,638.6507157974333,722.5766633598881,757.3888029138559
1731305661.7975843,798.7598895426037,510.0459622013642,730.3020750722812,754.5446041153037
1731305661.8002264,796.5516618307041,455.6265000397241,738.0303945972256,751.721240990516
1731305661.8041282,794.370572850888,524.9536873062921,745.769513387526,748.9192572865829
1731305661.8080297,792.2169763344939,654.0063299875912,753.5261664929792,746.1391806498331
1731305661.8115854,790.091211259457,708.6346653927219,761.3025374847979,743.3815446458149
1731305661.8119311,787.9936080960496,603.9013803143741,769.0976988050438,740.6469188929184
1731305661.8158326,785.9244971776519,392.9210411142153,776.9101986626309,737.9359161895835
1731305661.8164487,783.884215050969,238.01254867078984,784.7394086643827,735.2491406319924
1731305661.8197343,781.8730999024076,280.4855646508877,792.5853538245652,732.5870765757156
1731305661.8236358,779.8914682508708,518.4073668506172,800.4479976669692,729.9500010700849
1731305661.8270228,777.9395805156759,798.8340837208646,808.3270741670394,727.3380763652858
1731305661.8272164,776.017629438644,934.6575209784622,816.222882838882,724.7517251234849
1731305661.8275373,774.125797896875,850.7069840402283,824.1373896966131,722.1921168362833
1731305661.831439,772.264394021333,638.7969312594206,832.0740497189026,719.6612053077281
1731305661.835313,770.4339697670009,477.3774724895393,840.0349337725722,717.1606667312755
1731305661.8353405,768.6352284961816,484.68601061274137,848.0159447494655,714.6898230613702
1731305661.839242,766.8685757524331,629.2929476446623,856.0046811919644,712.2442226256046
1731305661.8428476,765.1334925768307,770.468268601745,863.9875982838771,709.8178122938597
1731305661.8431437,763.4284066049478,786.612289409333,871.9683555204259,707.4103069567623
1731305661.8470452,761.7519083181087,674.9097659812319,879.9854768173617,705.0359368809559
1731305661.850947,760.1053284676462,537.422304238556,888.1027184690313,702.7226839259811
1731305661.8541777,758.4947352103574,476.3377170534533,896.3499421432219,700.4904993224051
1731305661.8548484,756.928677636223,501.7862767772239,904.6347890680553,698.3122855531436
1731305661.8584788,755.4093130567693,535.9305410086282,912.7147988526498,696.0914992797611
1731305661.85875,753.9210394325238,501.4646930687566,920.3505984724694,693.7109859782684
1731305661.8619308,752.429848697187,405.05613537181915,927.6573945523451,691.1765608371222
1731305661.862651,750.9085644628266,336.90097811836915,935.4060284794249,688.7723422558529
1731305661.8665533,749.3856190631844,389.9797611046327,944.7664848366913,687.0177608856395
1731305661.8704543,747.9777091384639,575.8133140532885,956.1192332573971,686.2260886128507
1731305661.873042,746.8375363232493,811.5180841733346,967.4015708435027,685.7789876040382
1731305661.8741095,745.9801555954988,984.2287088863263,973.7015095837568,683.7990599885946
1731305661.874356,745.0799405377894,1032.076193067986,970.1152086898013,678.2370074185162
1731305661.8782575,743.4961974846736,975.1109933440061,957.3380071363207,669.7084057556365
1731305661.8821592,740.7992252085533,881.5405818999136,944.6950906693564,664.3968085616908
1731305661.8860607,737.7135501816025,810.1596862345089,944.8986097442582,673.258842555105
1731305661.8897407,736.7147087186216,779.9031331783976,963.4301052752135,704.913078335092
1731305661.8899622,741.1190342976296,781.3884406685469,993.3214540131877,756.0288934105156
1731305661.8919065,752.5029877618624,804.3345062368141,1020.7663591544108,809.0373671646593
1731305661.893864,768.7256143384022,847.9003400857331,1035.2346142247056,842.5608729307156
1731305661.896839,785.5038676483005,908.2675250081118,1035.0903649140814,847.2505267806904
1731305661.8977654,800.5838184029071,965.3235531469152,1026.4417015636893,833.6780704425793
1731305661.9016669,815.5702658610272,988.9640297319704,1018.2358298317187,826.0215333317998
1731305661.905372,832.9786296326586,960.4524231135111,1016.2350746375976,846.5905659913991
1731305661.9055686,852.108322051644,885.6491796616522,1017.3136272967331,901.8593874862113
1731305661.90947,868.7411480255255,785.5116119031802,1007.2900196060991,978.471338073225
1731305661.9107704,879.1712598179868,674.9237929509727,966.9827370047724,1050.726791334956
1731305661.9133716,884.2969576121363,554.9518094985707,886.9161565366602,1094.1413715761987
1731305661.9172733,889.332207819907,429.54752277408295,782.0069387336094,1096.8905830780448
1731305661.921003,899.0453851089676,328.7366815957541,692.2893719703586,1063.5136549629767
1731305661.9211748,912.9513182983342,307.20130136757587,662.7673968520444,1010.5853880535536
1731305661.9250762,925.0716168239344,407.66840938280876,712.8503408616177,958.1825426513806
1731305661.928978,928.5476848219816,616.4058369777823,819.0529682560805,921.8179860467367
1731305661.9296348,920.9462739417872,854.8185414317988,928.2898864070482,907.8991325227543
1731305661.931747,905.8778460449888,1024.2678699541814,994.2229928366428,913.5038054401717
1731305661.9328794,890.2748882003664,1072.113481688847,1007.2735885424828,929.4978156546752
1731305661.936634,880.2341572230389,1023.3527432645112,992.8459083465243,945.1585876307563
1731305661.9367807,878.5596263608662,950.1690652609614,980.9607043453666,952.5495358839614
1731305661.9406824,884.7828577421633,907.2142088818955,977.0947885314878,949.4786161363497
1731305661.944584,896.3829860233895,891.4079701996111,962.2064326003485,940.3002846259033
1731305661.9484856,909.8469593125626,861.3799572309786,920.8309721092836,933.9629446053099
1731305661.9484992,921.3713975947096,794.7281521662463,867.7783074590739,939.322917854576
1731305661.9522653,927.756230580362,724.3258215836847,843.8546205688657,959.4924299400076
1731305661.952387,927.6389146222177,713.718341086563,879.9718922604904,988.862451838214
1731305661.9562888,922.3178089676001,790.7506680997668,960.8099490403492,1015.9045935457259
1731305661.9601903,915.2114179419424,903.6380489747085,1024.3234196076644,1030.761266506687
1731305661.9640918,909.9731334658943,949.6354130749721,1004.8455049351184,1032.000268263475
1731305661.966655,908.5483239344285,860.7717490696406,888.1579849619277,1026.8104414103284
1731305661.9673636,910.5939505772166,672.4874216940126,731.5439992879225,1024.4337586441047
1731305661.9678965,914.3793947245842,507.91252258868326,627.2519526776248,1028.6080123054624
1731305661.9679935,917.9257148805025,483.3494267982667,635.3517795958551,1035.2924593919095
1731305661.971895,919.264696499975,614.8518117789289,740.691366159056,1036.862540583832
1731305661.9757965,916.1669666582426,809.4302727189635,870.3709279053433,1028.6217146329855
1731305661.9796982,906.7154547575524,948.4373647793168,955.6734707922019,1012.4849146722165
1731305661.9835274,891.236676205422,984.9093647039117,982.7352435090596,995.7343313138592
1731305661.9835997,874.0226861182226,965.5294440301063,988.0149280433184,986.3395377831736
1731305661.986228,862.3715152008631,963.6790415535794,1007.8220980640388,987.9818178964683
1731305661.9875011,862.3489697834073,996.3148642224392,1034.2851386157836,997.6702640508777
1731305661.9914026,874.0216257899586,1007.7518871476939,1021.5498561277525,1007.4698401312247
1731305661.9953043,890.3563918136425,931.4973530427155,935.4573934487731,1009.5628639479723
1731305661.9991586,901.5259917481742,763.5169911177345,797.1125888274825,1001.3838195088521
1731305661.9992058,901.7938129174406,573.2992758316263,675.9030827825666,987.0161052076271
1731305662.0015633,893.5921964351447,444.0286882212808,634.8906920767315,973.6976911946333
1731305662.0031073,885.3635467997274,402.1009690345408,676.9227739169265,966.2190380902094
1731305662.0050924,884.7374811994277,403.3901713607626,741.5480611654245,963.609717481317
1731305662.007009,892.5034983390694,386.4781537312955,758.2424891867261,960.4497566463017
1731305662.0109105,902.2346056862478,338.61623174332743,709.7500215380937,951.5084494036594
1731305662.0147896,905.6525946527578,309.40337272313394,648.1140833028137,936.1503984372707
1731305662.014812,898.9952512842648,359.135982567148,647.8534751832391,919.2629747122743
1731305662.0187137,885.177457862457,492.87876626667025,738.3239084938308,907.8429155881199
1731305662.0226152,870.7665379060703,644.7798389479839,875.9630377111914,905.567053988218
1731305662.0239568,861.3213028470136,727.2795987158376,979.0866586702534,909.689100628189
1731305662.026517,859.0259893485824,698.0676782889867,991.299711059315,913.293279912986
1731305662.0304184,863.1667344276494,585.5627130458811,918.5344700530507,911.3524746206754
1731305662.0304208,871.1922770265339,458.0020117415103,814.3208050329874,904.9930226042056
1731305662.03432,878.8113711102781,371.5306032399096,734.3704451402118,899.4679608660738
1731305662.0364711,880.2238738063493,341.2654465774845,701.651677113827,897.5412063450173
1731305662.0382214,870.4508380353155,348.6435289320351,704.6738443440961,895.3026201016752
1731305662.0421233,849.4039797279238,366.60414078706816,719.0292517785679,885.6717099420202
1731305662.0428212,824.2221666278992,378.48043021301885,727.7958918020792,866.798128920425
1731305662.0460246,806.2712017629033,381.414774185227,727.3250347706698,846.3436146401061
1731305662.0460515,803.2953693441555,379.91926962570153,721.8530219753194,835.5987873414101
1731305662.049926,812.3893831677013,378.7398898259994,716.325615337565,837.7116410783066
1731305662.0538275,820.4628007366557,379.72019232628793,712.8923044480719,841.6816563300342
1731305662.0577292,813.4427643366474,382.2918241938695,711.1537826562871,829.7371017924515
1731305662.0616307,787.6384422002365,385.2005377097462,709.8632041638482,793.0929202636883
1731305662.0616827,753.8156776746177,387.67929764049364,708.1877540026127,742.0640824992059
1731305662.061685,729.9649848397653,389.64895540424857,705.9924543748202,700.4655338548644
1731305662.0655322,728.0307056439394,391.3749805844654,703.5262090400945,687.9943353092332
1731305662.069434,744.8953199720829,393.10469054532393,701.0470321911855,705.1399565264521
1731305662.0713792,764.5356186527138,394.92270933520626,698.6552909119262,733.2009808857665
1731305662.0733354,769.5830946505832,396.7905234628015,696.3205489058806,749.1774562755862
1731305662.077237,753.6025652508629,398.6404449551434,693.9748503601625,743.1043921326172
1731305662.077314,725.3374727307609,400.43424153250476,691.5762699707619,724.0894196065839
1731305662.0805497,702.3914421975338,402.1699355108585,689.1199665085552,711.2775522759481
1731305662.0811386,699.2445116234012,403.86207057128195,686.6197606637452,718.1265949098479
1731305662.08504,717.9569034599743,405.52291711455905,684.0885639995997,742.7278857820074
1731305662.0889416,747.6174626975682,407.1558616645399,681.5305725600185,770.7894489702559
1731305662.0928433,772.4686425291842,408.75820389263157,678.9434285578739,787.3069780517707
1731305662.092945,782.6785225941901,410.32623869189206,676.3233098554156,786.8060410801324
1731305662.0967448,779.9708441512297,411.8580315687093,673.6680085357599,774.7335501890052
1731305662.099414,774.3344634441459,413.35328167007793,670.9770687250317,760.7618361192447
1731305662.1006465,775.026817929492,414.81193294959286,668.2504960834424,750.9151424636902
1731305662.104548,783.4136399598915,416.2333893169658,665.4878690615242,744.7749614634204
1731305662.1062872,793.1552328176497,417.6171928782198,662.6887524353939,738.3887581190766
1731305662.1084497,796.7266355667746,418.964604759116,659.8540008965306,728.709432933353
1731305662.1085763,792.0653588990394,420.279233490361,656.9863973276167,715.3996878092861
1731305662.1123507,783.6663182842872,421.56457821054846,654.0887997935139,699.5273308040478
1731305662.1162524,777.7985204554959,422.8183252768258,651.1595352793635,681.7998396361509
1731305662.1182785,776.6707886426179,424.02765310247673,648.1883717798007,662.6855122882137
1731305662.120154,776.843150891246,425.17377105598547,645.159772968086,644.0300247871185
1731305662.1240556,772.9250358660444,426.251277888373,642.0683068245486,629.795147921747
1731305662.1242073,762.8047189476173,427.29377696269,638.9398497259707,624.3042659711227
1731305662.127957,749.6973657073518,428.37677505590113,635.835408773456,628.9740472441033
1731305662.1318588,739.6506781068398,429.56352180930946,632.8089507628927,640.3456512575938
1731305662.1357603,737.1908490025766,430.7968518926599,629.819549902919,651.4844621347529
1731305662.137143,742.7386715931169,431.82264567622246,626.6649841374948,656.0574466406018
1731305662.1396618,753.0813856986368,432.2981292444273,623.0617752012784,652.0968572344124
1731305662.1398385,763.5506670791868,432.17280449090345,618.9496054844875,642.7405540037715
1731305662.1411953,770.1006387020491,432.1500084234943,614.8753080004715,633.7711617296375
1731305662.1435635,770.6557750601133,433.6654184403858,612.0040452545583,630.1155131477104
1731305662.147465,765.798994244373,437.7739697613631,611.2476959909832,633.6415244653422
1731305662.1513665,758.4804997025338,443.11833675014884,611.6089666048734,642.9885559426591
1731305662.1552682,752.3400129606707,444.72338106179154,609.115740802218,654.6761570919525
1731305662.1554694,749.3677726214839,436.4940746254465,598.7015390669748,664.5216208144302
1731305662.1560073,748.7197744760152,418.78870666712066,580.2797222262265,668.99278473636
1731305662.1591697,747.7808107919429,407.0683931981432,565.9695290367948,666.4345235618105
1731305662.1630712,744.4575531893788,431.3308965070004,580.189544837247,657.7811840822321
1731305662.1669726,738.5614065507523,517.5540172283347,645.1502212495645,646.0761417505751
1731305662.1708744,731.3471694425124,659.1490695499621,757.4102074791329,634.6928510407217
1731305662.1711006,724.3617015018543,806.6353693458723,877.699648858806,625.4310237195657
1731305662.1747758,719.2488588601188,896.5702665652643,952.0084740131152,618.2746854786969
1731305662.1748717,718.5277855649836,900.283302943137,951.3907102406027,613.2987697656815
1731305662.1761034,725.6329927620325,844.6860941554874,894.2610282600882,612.7251458507226
1731305662.178677,742.8735097926433,782.4925417866857,829.4276782702515,620.1516178876278
1731305662.182579,768.2790191257836,742.1980359411164,795.810199620477,636.4311754479659
1731305662.1864803,794.165098393163,708.282131603666,795.1412097557977,655.8427174264077
1731305662.1867318,809.5927872812252,648.6873716016235,799.1731862544084,667.5165763795694
1731305662.190382,806.0813469239432,557.9028787995735,780.879817839495,662.948988053264
1731305662.193736,783.2498900687744,470.1106435456909,739.8406613695399,644.0217843892842
1731305662.1942835,750.5221941717094,429.31104598996274,700.5267372989908,623.8635139063707
1731305662.1981852,723.0018549889219,447.8684163955189,688.6789566085433,618.2338790710401
1731305662.2020867,713.1212665386606,496.83057094436566,710.3191563140613,633.4736710087711
1731305662.2023628,722.8870758754739,538.3626088743074,752.1957812709244,660.6211373058077
1731305662.2059884,742.228291413132,565.5504825764123,798.489833128819,680.696614258826
1731305662.20989,755.6515972694043,605.1301533429105,842.3916127108689,677.5455156120485
1731305662.2110114,753.4693357681092,677.5989335891875,880.3546987090028,649.1656002000536
1731305662.2126005,739.5871677788107,757.7999691471505,900.1589543854675,609.8198180900488
1731305662.2137914,729.3141833361844,784.0559996495099,883.1497575290141,581.5857400921003
1731305662.217693,737.7731836241338,715.0845242599665,823.8581951304225,580.6770730223548
1731305662.217994,767.1543636671331,579.6113390513353,745.891566858354,607.0623451386743
1731305662.2215946,802.9199019652057,463.22399334812906,691.4623120238736,644.0842527889633
1731305662.225496,822.8404486047291,437.31792970577396,688.8229358964279,668.784807074366
1731305662.2293975,812.7237310302393,497.1540191120839,728.8954881136464,666.5893468025586
1731305662.2314646,776.9245875136313,572.6235635516723,776.9313182076623,640.4965910834703
1731305662.2332993,735.4059909288305,603.3889109567631,808.8959700922779,608.2068662971426
1731305662.2336247,709.6863492892438,601.5187688135462,833.9203373393526,589.2046522363272
1731305662.2372007,708.7601502442187,634.0800000676984,877.0781914489165,591.4125678175334
1731305662.2411022,725.5704023717117,740.4861792049703,939.6778332968285,607.3387315850695
1731305662.245004,745.3591535479227,870.6019590390315,981.2724881922096,622.0360424027832
1731305662.2459197,757.5079366657826,913.7028203121076,948.2396523729531,625.8181256851448
1731305662.2489054,760.921081557552,798.6698308698451,826.3487775553007,621.3199709800722
1731305662.249256,760.3803469353406,571.6894064387254,666.9928427049334,619.792657222026
1731305662.250329,759.8078444266393,373.632013852144,557.4801837137345,630.7119034661288
1731305662.252807,759.728585606531,331.6367157061204,557.0778477028107,653.9857671421904
1731305662.2567086,760.168484161373,461.0041840518884,654.4109192124699,681.1084005612981
1731305662.26061,764.0540281430365,665.6557347556962,784.2736597508438,703.4354723928811
1731305662.2645116,776.2437512983421,832.7799118408386,886.6120009777347,719.6645540821689
1731305662.264887,798.5996664595913,927.7643919030346,950.3452729300816,735.9015785950844
1731305662.2684133,825.927000328831,998.2985028714886,1001.4151361161428,758.8829050404443
1731305662.2691934,847.0536917561493,1090.694756748675,1052.691999592295,789.0821780994278
1731305662.2723148,851.0217898650736,1172.0947184083634,1073.3366779275689,819.9411479543344
1731305662.2762165,834.3462153287363,1146.495470530566,1014.8833218878552,843.3527777941924
1731305662.280118,804.3490040538113,955.6288108756685,870.8947549036211,855.9743972501894
1731305662.2805183,775.8983213148599,664.6802628952432,707.7817671554776,860.9233385687412
1731305662.2808275,762.9763800875152,438.8631216856271,626.830832949367,864.1749625472058
1731305662.2840197,770.1301774547777,417.41699130848576,682.5585890930571,869.5652864130057
1731305662.287921,789.6672090118008,593.4491662235027,829.4409436453201,876.690579487356
1731305662.2880578,807.1785076678232,813.060633231898,950.970711342178,882.6831370014352
1731305662.2918224,812.0325600526346,903.6070930906576,953.2841065251345,885.5095938424814
1731305662.2957242,805.1129688018941,820.037861611391,843.8919305293306,885.877827885242
1731305662.2961495,797.4056751360607,675.5183101778696,724.243851559417,886.6436334375478
1731305662.2996256,800.0103012295011,626.6378997935824,700.2968130129689,890.5767996029555
1731305662.303527,813.4854915440186,720.0488868706203,789.8741650318748,898.1505387251866
1731305662.3069222,825.7424998668052,844.9675084144807,908.8833509341903,906.8564310562119
1731305662.3074288,821.1756587315001,836.519594129365,946.8280931304389,912.8156458504545
1731305662.3113303,794.2086239810073,633.7005445104567,862.9055133932138,914.0762107432018
1731305662.3117805,755.8757438080844,346.7016307141105,719.4559902699391,913.3372450345925
1731305662.3152318,726.9825786898448,173.48645589524597,628.4701072462111,917.3612904726707
1731305662.3157356,722.50446751285,240.57287713393322,661.7018711842209,932.2537062368667
1731305662.3191335,739.8910356851773,504.9650194735705,800.0210608241682,957.3293452500169
1731305662.323035,761.3304025956431,794.6865191227228,957.4156839065812,982.6301223080611
1731305662.3257866,768.4003132059165,944.8932923557804,1050.836697249759,993.6025393632519
1731305662.3269365,756.9531864076304,911.8045343620981,1054.799086742888,981.1259635633533
1731305662.3274117,739.9685438789672,776.7463438893835,1001.6133667776758,949.8030834446781
1731305662.3308382,736.4113271420405,653.4790567259633,938.8436027374917,917.1641069447041
1731305662.3347397,755.6290332741122,591.5983698161299,888.6492583471928,902.7753247038675
1731305662.3386412,789.841538837124,559.306394784431,843.1384907998344,914.7193393588379
1731305662.3425426,820.0309063541604,506.0353579724353,790.868934644446,943.9664395490925
1731305662.3430426,829.745817569999,431.8086941869319,741.4474524773002,971.2228069206756
1731305662.344651,815.871997052831,394.39932483884365,722.7767167828495,980.6774860366432
1731305662.3464444,789.0009827051181,454.87507853475756,756.5211925907407,969.7632438431384
1731305662.3503458,764.7644557977198,620.8863034307747,837.8865371180844,948.152291366098
1731305662.3506436,753.8351569295968,838.8574462313543,937.4132987913264,928.4788636959486
1731305662.354247,757.6112922113273,1031.3157663576112,1019.2926729900428,917.2987248807226
1731305662.3581493,770.7152931402375,1138.5372482776743,1058.963456561136,913.0044811073253
1731305662.3586738,786.2290794686315,1136.5103303843844,1050.1882422097747,910.5075266765106
1731305662.3620503,799.2454726843669,1036.4164207383583,1003.6360401161384,907.0232384814524
1731305662.3635154,807.638285880899,880.4038111866183,941.1537067559159,903.655817223942
1731305662.365952,811.4748729399477,731.8289176266285,886.3183964008635,902.5278455010763
1731305662.3698535,812.1851171805376,649.0044224666306,853.5526339979124,903.605725109714
1731305662.3737552,811.5892712210327,648.6975856782105,842.9120625413927,904.6984359358562
1731305662.3743048,810.9999938537702,687.8967673818856,844.6349658359313,903.7920924175287
1731305662.3776567,810.8817976106704,687.8441328354635,848.3412124793622,900.6151167938845
1731305662.3815584,811.1065825362689,591.2387959230173,848.8409916314785,896.2115023456754
1731305662.3823795,811.3921350014473,411.83635516259835,846.0836135433301,891.7167023555768
1731305662.38546,811.5733725901769,235.13638869813752,842.1503754408711,887.6543118919792
1731305662.3855517,811.6413480839755,162.91998164791096,838.7033342716157,883.9770544407567
1731305662.3893614,811.661027896474,239.3449718234952,836.1745503553923,880.4284088735338
1731305662.389936,811.6893041686063,416.76375373159937,834.1938978077234,876.8246580325002
1731305662.393263,811.7446493465509,592.489612954942,832.2766922525037,873.1292816965423
1731305662.3971646,811.818030403782,687.9511975688515,830.1916394451611,869.3925153430716
1731305662.401066,811.8947707494185,700.945360862457,827.9609183989635,865.6710134239438
1731305662.401244,811.9674681843755,684.6985797613835,825.7019150154109,861.9892534942625
1731305662.4049675,812.0370002024114,678.3098613120717,823.4997245705977,858.3430284627204
1731305662.4055672,812.1077816639358,661.4933853968015,821.3725251590788,854.7188572745833
1731305662.4088693,812.183515251936,580.5215708303324,819.2984997476515,851.1081125154716
1731305662.4127707,812.2658088270863,417.8552679410325,817.2523905818013,847.5100508213372
1731305662.4166722,812.3548887175497,232.13670937157212,815.2233528448864,843.9281801673252
1731305662.4201083,812.450767932964,123.49969698895768,813.2136122269661,840.3660329802998
1731305662.4204595,812.5538797143055,151.1724069866977,811.2297058781369,836.8253249097586
1731305662.420574,812.665085171984,276.610696282604,809.2760056282611,833.3062896043871
1731305662.421198,812.7854068959886,385.78136553539343,807.3532741268261,829.80873995836
1731305662.4244754,812.9158109713616,377.97268562916594,805.4603024885686,826.3327788147823
1731305662.428377,813.0571456418398,250.84081285901834,803.5958676028272,822.8789146381281
1731305662.4322786,813.2101851637746,109.5421049748494,801.7596010363136,819.4478478643139
1731305662.43618,813.3756910484607,87.01695336886883,799.9517991692104,816.0402474228823
1731305662.436829,813.5544424126647,237.8397741210057,798.1728135793327,812.6566623224003
1731305662.4389727,813.7472344980483,494.35490066632656,796.4225977292206,809.2975499862453
1731305662.4400816,813.9548650492968,722.684663856611,794.7007152292839,805.96334433091
1731305662.4439833,814.1781237977327,829.5380661663676,793.0068523953656,802.6545039570389
1731305662.4478848,814.4177876868224,827.4765856508645,791.3415513783598,799.3715152041029
1731305662.4517865,814.6746175528325,806.7496118332052,789.7064633696876,796.1148488139199
1731305662.4524603,814.9493546785179,846.6832097961461,788.1032649763486,792.8848918330623
1731305662.4553678,815.2427230748899,948.7052482432034,786.5311275353085,789.6819100423959
1731305662.4556878,815.5554458005738,1044.6454568611587,784.9845059293881,786.5061186245945
1731305662.457837,815.8882726545794,1061.7486013198445,783.4548533234544,783.3578925940342
1731305662.4595895,816.2419939377554,979.7855296094788,781.9389483412901,780.237996470594
1731305662.463491,816.6174002776218,833.1458427701102,780.4504918003704,777.1475288573203
1731305662.4673924,817.0151738442751,667.7530387249195,779.0224567976193,774.0872875440867
1731305662.4680915,817.4357771516572,502.8146419086221,777.6845172032198,771.0567102888986
1731305662.4712942,817.8794974411562,335.3108083711408,776.4153095634015,768.053367514387
1731305662.4751956,818.3467882013178,176.22146112886827,775.1055341773022,765.0744756018776
1731305662.4767015,818.8388051148154,72.24300251696593,773.5998914472141,762.1209108601245
1731305662.4790971,819.3576147083469,81.62734134801462,771.8614041937742,759.2012063547988
1731305662.4829988,819.9053376237932,222.80087036877927,770.1814065701122,756.3296989324051
1731305662.4837227,820.4820580820348,446.7111481764805,769.1899220126935,753.5137603536789
1731305662.4869003,821.0839012980315,662.9773367672109,769.384717602613,750.7341945072297
1731305662.490276,821.7042959590758,797.3278520070373,770.2195051588525,747.9382324091137
1731305662.4908018,822.3408110614367,829.386622502352,769.4745821294289,745.0720218027691
1731305662.4947035,823.0050223958399,784.2687889138483,764.1460193822795,742.1577796958538
1731305662.495566,823.7250839004445,699.0258119446582,753.4107529438427,739.3627213268394
1731305662.498605,824.5275870510061,603.0221398319292,741.8929548502352,736.9487251476132
1731305662.4993536,825.3976000741246,523.9448586311624,739.2995707707992,735.0179132628449
1731305662.5025065,826.246021313108,494.8452817806314,753.8884960477296,733.1539333769377
1731305662.5064082,826.9413740073813,536.7480882192957,782.7554364805723,730.344093111774
1731305662.5103097,827.4452045985648,626.7710813618097,807.1203352866478,725.6743769028743
1731305662.5142112,827.9913784896195,690.8011627418906,799.9103233644987,719.8315700669118
1731305662.5144303,829.1059045719854,645.5352718373092,744.4588848167875,716.3589242107142
1731305662.5149848,831.2239760636928,466.81700771421055,652.3070027116887,720.6958292189928
1731305662.518113,833.9175533492859,226.54078388313684,564.2931469389423,736.020129580499
1731305662.5220144,835.3118061646514,56.835569962577665,528.6775895589631,758.5679605472628
1731305662.525184,832.7033957638132,59.915626981398304,568.8531614373487,777.8709902353
1731305662.525916,824.8119497102194,234.2816999753249,665.9793799571933,783.8828732527387
1731305662.529817,814.1708550788431,481.0901401306177,773.3777737535521,775.4256433841499
1731305662.5306158,806.8229481364988,686.3563147338895,852.282404102521,761.9712581248098
1731305662.533295,808.4938765936805,805.0359032069265,897.1832107057361,756.7609600365812
1731305662.5337193,820.413559581221,871.6822443527052,927.7487185791622,766.969817169238
1731305662.5376203,838.8178379242489,935.278677509024,957.732827364599,788.7854786855198
1731305662.541522,858.3743170374519,991.5289787135493,975.2946320559081,810.8958167446069
1731305662.5454235,875.8090331287358,986.3554590002294,957.1190130955904,823.1906958895561
1731305662.546247,890.2469340573916,887.7552810201105,902.0631990788644,823.7824549916777
1731305662.5493252,900.6496184969294,747.7185037105627,847.01902389749,819.248387158114
1731305662.5521588,904.0074208801728,679.9068980749691,842.8088789177827,818.5133417631794
1731305662.5532267,897.1839285305787,761.0280463257927,907.2880767024025,825.6236179219409
1731305662.5571284,881.1941183894716,944.8587367642797,998.7047555589584,837.1785935166088
1731305662.560092,863.3996211149534,1077.3447339727118,1039.1774264675546,846.1293319439737
1731305662.56103,854.2626646857411,1014.5138396900146,975.3133123452253,848.3202366237234
1731305662.561878,860.2622287558326,748.5981632155356,827.1712905743659,845.9536855498662
1731305662.5649314,878.7096963501206,430.9550729956169,681.2222894908641,845.0568158546048
1731305662.568833,899.2767316615747,263.98049673005323,628.0158243654633,849.5578264550608
1731305662.5710232,911.4982020250332,348.2673223285972,694.2231690302011,857.6737416553701
1731305662.5727346,912.2475508792766,613.2498611704266,826.6176768014866,863.9658971015715
1731305662.576636,907.0510105206508,887.232401963396,941.0129196018494,864.8579106453335
1731305662.5775092,904.3828656078488,1038.935139738473,990.8026840202032,862.1356801344896
1731305662.5805376,908.1357421566158,1062.6471306788378,993.3337663660785,861.1524696716865
1731305662.5844393,914.85579981246,1039.6987580279624,994.8574115763573,865.6976318488138
1731305662.5883408,917.7957162431627,1029.6219101297288,1014.2113942924997,874.419449352517
1731305662.5898876,913.6040192479782,1006.1543902221258,1022.8217837996754,881.8165379273055
1731305662.5922422,905.3976191910812,899.300516229995,979.0301659309546,882.595962329556
1731305662.5931404,899.7764782726263,694.2758315530177,879.9980535588003,875.7113447715171
1731305662.5949998,900.9553985156081,481.40707351533916,777.9454507166939,865.1367249789853
1731305662.596144,907.19393157397,399.4976604351693,742.4118207047584,856.985851092804
1731305662.6000454,911.9452959725855,518.8043967630595,801.5207459342648,855.0285708644869
1731305662.6039467,908.1503612047347,770.373154767802,915.4087778623812,857.8355825224247
1731305662.6078486,892.525074561287,990.2829197872582,1006.5714140189248,859.9401721789192
1731305662.608752,867.6854205056172,1045.163267899175,1021.2094334508946,856.5048031323853
1731305662.608771,841.3897486503429,931.9913919931731,968.5555634424959,847.8574529221182
1731305662.61175,823.0342038045662,767.3565334969493,905.6471441911439,839.8673637990244
1731305662.6156516,818.6236974519342,679.1412883994863,883.7563193840575,839.440785516092
1731305662.619553,826.976893929049,698.518205797038,905.2626586305264,848.7141802196599
1731305662.6234548,840.1706099420752,745.877470293915,927.591031547379,862.7854476109867
1731305662.6244023,848.6973141604905,716.4062159843319,906.9538870743798,872.8687684314563
1731305662.6273563,847.9943859853375,582.3032267742915,840.3667009427058,872.3801249368106
1731305662.6276164,841.4374076950079,420.17545880231125,769.6597666797243,861.4167410379001
1731305662.6299078,837.3639090564,345.80274581554534,747.230897137761,846.5900883973293
1731305662.6312578,842.3059519472588,419.7490042730025,794.8216613738438,836.5282399231386
1731305662.6351595,855.6204354890035,603.6287745751304,887.9528153505909,836.1967395081979
1731305662.639061,869.7429280937433,794.1198134602195,974.4172097744085,843.9801560452718
1731305662.6400335,876.0160272488675,896.4202342797379,1009.3006218119272,853.6909503893222
1731305662.6429625,871.6120455614727,876.8880337413088,980.5787220875136,860.0562497702216
1731305662.6464808,861.9675855240735,764.3853861340109,910.2821974264505,863.2172721870944
1731305662.6468642,856.5350120643587,615.5165477010263,835.0288475667203,868.2084865225411
1731305662.6507657,861.1015233208927,480.11011524720595,782.4886018167348,879.5639837578265
1731305662.6546671,872.9769399711071,389.08876270417926,759.6025698560469,895.7041017841245
1731305662.6556647,883.164751319055,358.3566266535894,756.7532208850083,908.3171379928534
1731305662.6585689,883.7506470316539,389.21389674562283,759.9956416944201,907.7773274605315
1731305662.6624703,874.2052248458606,459.3094819588618,760.4994598417443,890.4100776643944
1731305662.664816,861.2491009530603,520.5767177836645,756.4894455963071,861.7442173291506
1731305662.6653452,852.6256349502182,522.4197059738244,750.1170419402991,833.0740402032844
1731305662.6663718,850.4529699065815,451.4756767378027,743.8070452838637,813.8962735037337
1731305662.6702735,850.0304353574628,351.58300575199405,738.5636223817851,805.9513897620212
1731305662.6712956,844.9692306611623,295.9635279843129,734.1451666298456,803.3547494743214
1731305662.674175,833.8118318672094,328.4528770392929,729.9228384009082,798.525856581364
1731305662.6780765,821.9530059784552,426.7760502718834,725.4931670539493,788.8918945778602
1731305662.6819782,816.8951831573995,524.5928930340475,720.8010775372504,778.6402380928023
1731305662.6842096,820.9597352790566,571.5714740794698,715.9752599625679,774.1285159637573
1731305662.6858797,828.1005474267541,572.0698039711306,711.1426490549196,777.3441797425268
1731305662.6869268,828.076475077142,565.9991138138835,706.3498079686126,783.6596162285609
1731305662.6897812,814.8232683562975,576.185447312878,701.5793739344393,786.0972303421042
1731305662.693683,792.0471316803745,580.2660509562697,696.7970842834255,782.0717653479826
1731305662.6975844,771.2241166242775,537.088248737701,691.9825581619057,776.0372789296998
1731305662.699724,763.4548884771082,438.5245765368283,687.1338549011551,775.1622838942232
1731305662.701486,771.5825766407868,329.3620234827625,682.2579082120329,781.8007293446943
1731305662.702558,788.59783780926,269.60338937613767,677.360875656062,790.0136741220736
1731305662.7030735,803.3224400890692,273.7288144323938,672.444509502278,790.3016246218107
1731305662.7053874,808.8945182086682,289.93941709890174,667.5074144171159,779.3292738630986
1731305662.7092893,807.6082691984249,248.12503134913214,662.5476135370736,766.0114467761507
1731305662.7131906,808.3272544809614,137.17700869344287,657.5639897927266,767.0877139424392
1731305662.717092,818.1892231039105,35.349253459819465,652.5562011392075,793.7968342633951
1731305662.718189,834.9343469323023,53.315451956340326,647.5239218379872,839.7892791571401
1731305662.7209938,846.2831316907302,232.21295740541552,642.4664659465512,881.1174868957373
1731305662.721938,837.7057104624633,490.714327848612,637.3833460938995,890.2953638312374
1731305662.7248952,803.3322783276968,679.2276807635818,632.2754284067797,854.9530762371638
1731305662.7287967,752.0017205036397,701.6174029236593,627.1453931912754,787.3365428338401
1731305662.7326984,703.7863169488913,597.0421407367588,621.9959168643577,717.5637040583862
1731305662.7338202,678.9797628376618,505.6232856137894,616.8253730885765,675.532772309242
1731305662.734632,686.484325366598,545.9957313364077,611.6241520324074,674.0415761086725
1731305662.7366,718.7739279638074,712.6235210980307,606.3778050311691,703.7720019130481
1731305662.7405014,756.573178745421,882.1397023877369,601.0814664111207,741.9317405850785
1731305662.7408023,780.535116327321,920.2677049512185,595.7595063142544,767.4843937562168
1731305662.7444031,782.6214483203228,793.8671463151209,590.4687648497518,772.6702400447889
1731305662.7483046,769.6284520866359,592.0778916971142,585.2588880101888,764.2203820240996
1731305662.7494512,756.4845109908781,443.5340184540344,580.0905293101184,755.2727191923289
1731305662.752206,754.4948126867635,408.04870706463066,574.7744444022428,755.0759432717736
1731305662.7561076,763.5745254716262,440.1069327091025,569.0477432584403,763.8616327051698
1731305662.7596667,774.0687977831064,451.957275700671,562.8584271182849,775.1467357413261
1731305662.7600093,775.8304229708413,410.4174708525311,556.7209756245688,781.9307004202149
1731305662.7639108,766.6936539627479,371.42870623569934,551.7206285913645,781.4298987819451
1731305662.7650824,753.7739906771772,418.68463079075036,548.695073279827,775.6291302021488
1731305662.7678125,747.3504495635639,567.2457725901778,546.6948491189187,768.7382726230207
1731305662.76954,752.771495452826,727.9922105447437,542.0127956504043,764.3554815846609
1731305662.771714,766.6185232669812,771.0259527474293,529.9760717466027,764.2353409615135
1731305662.7756157,779.4957526481589,633.2940289796576,510.6458312524135,768.6509858539134
1731305662.7785313,782.8296223695501,376.266378684491,495.5856000980436,777.057605356589
1731305662.7795167,774.5404272803199,146.04297375188696,508.0859073487653,787.8143790768465
1731305662.780713,759.7308193774853,71.96128036612379,570.1606492115255,797.0607280029324
1731305662.783419,746.3796349442559,184.63615737609655,681.4359385822494,798.5239276115312
1731305662.78732,739.6358628865493,408.74740640220324,808.9043393380708,786.1616196261297
1731305662.7912216,739.0707210647915,622.3164043384396,902.3535387701775,759.0239547147428
1731305662.795123,740.63265950365,729.8210408372121,926.1996066132597,724.5087508702522
1731305662.7963445,741.209290808189,701.164932692564,881.2963815651002,696.0999239993862
1731305662.7973957,741.772650208497,566.387148328116,800.2598534308776,685.8775978806099
1731305662.7990248,746.502491319928,387.98569698202516,723.9935865580898,696.9150471133931
1731305662.8029263,758.691963483642,234.5516041043058,679.70311691611,721.3725025251323
1731305662.804448,776.8695714293897,161.07260566718588,673.5350048506575,745.8756090007319
1731305662.8068278,794.4344183096152,190.9975382470123,696.5355167682517,760.2829375280782
1731305662.8107295,803.3279560540768,304.78933481837294,735.5692530179255,763.5271972885831
1731305662.8119757,799.0257314890895,450.3723541240057,782.6580958193207,762.4671888818509
1731305662.814631,783.1142433606151,578.388783856558,838.89898443474,764.8956146883625
1731305662.81626,761.8261760332637,676.327419726718,909.7153157896774,772.3268223315898
1731305662.8185325,742.2199960634966,766.8615860845341,992.293015217891,778.5126584035476
1731305662.8224342,729.180532337058,868.049750017874,1065.3482878657205,775.1093477550575
1731305662.8263357,724.9413893056025,957.1159233394308,1095.3508087398732,759.8020223887507
1731305662.827607,730.15907374626,982.7493032831256,1061.3650919742104,739.7362843465959
1731305662.8302372,744.4194386694686,920.9790049182886,979.9743987974921,726.9293212216246
1731305662.8341389,765.3522680183053,816.9061279900397,904.1977537566497,729.3428112452309
1731305662.8351245,787.6680431308287,759.4906355139974,888.5298725222876,745.090760393581
1731305662.8380404,804.0718849790916,801.3400704408034,943.2660313811069,764.3398132715728
1731305662.8393562,808.4316163019186,897.0387472427808,1016.9691091461825,776.788521585674
1731305662.8419418,799.2945305813131,927.0378559335757,1028.7670874807093,778.4140174795024
1731305662.843238,781.0655078651672,798.8989438184861,932.0436663287055,772.689278414655
1731305662.8458436,761.7144386094078,541.1749385085429,759.9382323610241,766.4267291659612
1731305662.849745,748.5212913632752,301.41354302294013,610.7024521635816,764.1893802186822
1731305662.8536465,744.8377936318699,239.13365735403312,577.7388794803093,765.3705432778013
1731305662.853989,749.8655113624324,399.51411198785445,678.5521859439998,765.4570006897607
1731305662.8575482,760.9356499920359,676.3902899499705,842.6767749801548,760.0016212137367
1731305662.8588688,776.0016467734071,898.3135560911497,969.9092627137777,748.2776689622217
1731305662.8614497,794.3934589903849,963.5282062480294,1008.3942672105379,734.1209953162594
1731305662.8653512,815.5794050156992,907.0455644373465,985.1583484286016,723.5513426412256
1731305662.8692527,837.0840557578098,845.8178411486855,966.3565118430529,720.9671953509152
1731305662.872853,853.1650238867015,858.9433676927503,988.5482576376937,726.5527407138547
1731305662.8731544,855.7232969279377,916.2341802637721,1025.96756279141,736.5465866951281
1731305662.8742642,838.1543573725205,919.0404800178696,1022.091864226233,746.0119404220135
1731305662.8745,800.8283639280613,809.933345674106,952.948908296835,752.1006568991465
1731305662.877056,754.33331149209,643.2629640599837,860.3064092036475,755.5325997451598
1731305662.8809574,716.3651430764377,545.8138051794845,820.6287252177319,759.2681285359923
1731305662.884859,702.2437144898115,600.8100820281483,875.412393998912,765.3802653802375
1731305662.8887606,714.9536536599682,763.278039167274,986.7749324762865,772.5811233845154
1731305662.890131,742.4991358823506,889.7845691252883,1062.7293605495051,776.5515757992933
1731305662.8917174,765.3431929589583,861.4662402247518,1034.1291302183768,773.1455390284491
1731305662.892662,768.7623189663244,691.4778581243888,915.9790682572104,762.1279747019165
1731305662.8965638,751.1477135651545,519.0555540008809,797.1396236259744,748.3346626566066
1731305662.9004653,722.7649577214307,493.6323280931087,766.4885979935799,738.9209562965922
1731305662.9043667,696.9980265984401,650.8078181366893,841.1575705302454,738.5198065004977
1731305662.9057622,681.4697719529197,887.0362459752712,958.8388725094412,746.0614319226158
1731305662.9082685,675.6236594906986,1049.34675132426,1035.8615831630602,755.885278914211
1731305662.9091723,675.3624768936997,1056.7772994682068,1035.1410779931712,762.3534294678138
1731305662.9105818,679.3058620953389,951.1189448095364,986.1396341228238,764.2940789958975
1731305662.91217,690.3147950108709,844.68102009338,947.6685751132911,765.6880427869133
1731305662.9160714,710.8911413634917,821.0677757784996,953.3800060260862,771.9927764619194
1731305662.9199731,737.3568875009096,875.0288402103926,987.5506001703346,784.9886843143288
1731305662.9213934,759.3926838602588,933.2470453293175,1006.4432274095122,800.3157633677573
1731305662.9238746,766.6989113200285,926.1105104992364,980.9508941332463,809.9596405983135
1731305662.927776,757.5483318108348,842.9429622232316,921.4134133091201,808.2192878942459
1731305662.9294462,741.5175163111123,726.4666556692646,864.0805359811801,796.8051470493991
1731305662.9316776,733.2943869609912,620.9721101066339,833.5300862807245,784.8244196642753
1731305662.9355793,742.0264066988736,529.4351958414387,817.1886787095008,782.8001552608541
1731305662.9370244,764.444101082585,421.82273083763596,777.4289727382312,794.5480120621866
1731305662.9394808,786.959117842081,283.4406216294853,691.4309137630036,813.1873278469897
1731305662.9433825,795.0208412177911,150.7175013772278,581.2799436461971,825.1294329708999
1731305662.9440804,782.8325454640675,94.34147153353007,504.4987167628928,819.6468833691774
1731305662.947284,756.6954425544303,163.6597619266409,512.0657813457749,796.6381632690762
1731305662.9483106,730.168004215815,345.1067714195518,610.4416175401911,766.3169860737779
1731305662.9511857,715.0511629850711,571.191888898808,757.89875659777,741.2979697230857
1731305662.9526556,714.7214313323636,765.9040007429638,893.2454568731563,727.905938253505
1731305662.9550867,723.9231736805621,883.0327542496701,970.728966905592,723.6648318051892
1731305662.958989,733.9654770671261,912.4245908508474,978.0922355001545,721.9762754839738
1731305662.96289,738.6077595094562,866.8927724262176,934.1444930563772,718.8503960347285
1731305662.9667916,736.5694468278421,774.7204354008613,875.1855037996105,715.7925004168382
1731305662.967175,730.4122936621142,681.2877257887346,838.4831489139963,717.4899458930823
1731305662.9682865,724.5102379468718,640.8534705349086,845.7509306525455,727.6925921603539
1731305662.970693,724.1508562976516,686.6399108596979,890.6035113966207,747.1580662597038
1731305662.9745948,734.8993393230071,797.2707096056491,938.6792226099576,774.208732845427
1731305662.9784963,760.1507793096694,894.9264069883377,946.5107200505087,805.5260102744976
1731305662.9789884,797.149290309093,890.9194240096158,891.2013034443487,835.4423090498544
1731305662.9823978,835.0791136711484,751.5372995595492,788.8831204254665,855.1471910779634
1731305662.9839177,858.8938842222152,531.2027968696033,683.96704347224,854.9919132495428
1731305662.9860394,858.1954711908141,339.6997974121274,616.5888685954292,830.7703033425869
1731305662.9862995,835.2394033998855,263.73570075542074,597.4967455465952,790.0374393770811
1731305662.990201,805.2139478058724,305.6064611335938,610.2318724593691,752.0864041424974
1731305662.9941025,787.2358910825096,392.10426830780864,631.304521321329,738.7626752845321
1731305662.9980042,792.1445090456954,446.6000916972234,646.5398053254501,760.9045465196143
1731305662.999549,816.263507408496,457.71515153259963,653.862858441467,810.143321090346
1731305663.0019057,845.5529759770296,478.6840303106822,657.4489549142983,862.8736502664019
1731305663.0049038,866.1122956260641,558.6996878418183,661.4707069641204,894.2496985767084
1731305663.0058072,872.4696000020275,677.7624018536383,667.4663746959076,892.5451380423818
1731305663.009709,868.0841874953195,756.0632943659568,674.8723616486049,864.2904585434195
1731305663.0136104,859.5375031948402,733.4030167753743,682.5711292783692,827.8003448877311
1731305663.0138965,850.5384333351119,639.0148866571695,689.9045066743975,800.8914301024749
1731305663.01518,840.6542553676412,576.1191276993185,696.8228076387117,791.5362787194666
1731305663.0175118,828.5609888850391,627.9436367001549,703.5689145118882,796.5678394868079
1731305663.0214136,815.592016721896,772.3314033806723,710.3597415580679,807.2059141322233
1731305663.023768,805.8478454366076,890.385854834085,717.2655629871908,816.1602152098304
1731305663.025315,803.033682829318,869.2622876592275,724.2497774323749,821.4949931783308
1731305663.0292163,807.4049778851002,708.5331394912555,731.2527833422198,825.8393610550377
1731305663.0308113,815.7826980851427,529.4505163365106,738.2424002440239,832.9009393647946
1731305663.0331182,824.4144986975464,471.0425300254619,745.2183920209176,844.3908381600338
1731305663.0370195,831.8302713291894,562.4692778960273,752.1944215807778,859.1861515811539
1731305663.0409212,839.1297799978825,689.3069365010647,759.1815849773668,874.4212149774775
1731305663.0426323,847.7749046563742,690.9117289909173,766.1829547042249,887.0840863010566
1731305663.0448227,857.3280577956352,506.4564335583652,773.1963321676993,895.102167696536
1731305663.046442,865.495814653836,238.9312439290531,780.2188382484954,897.8032085198204
1731305663.0487244,870.455965222303,76.60856651029837,787.2493234655548,895.9416444839987
1731305663.0488043,873.1062960578929,137.9102323266198,794.28807546159,891.2570765496858
1731305663.052626,876.8879666936768,373.7415434552123,801.335299249043,885.5718183874835
1731305663.0565274,885.1702491735292,610.2442367075779,808.3901584456715,879.9333315941799
1731305663.060429,898.463315601279,691.9703374864636,815.4514947447374,874.5420910838999
1731305663.0614967,913.7482543646404,601.1229011639965,822.5200657023154,869.5897859219501
1731305663.0620732,926.2102474683367,455.11282105627333,829.6004218410326,866.1491310059291
1731305663.0643306,931.7850640919744,393.65561982657647,836.6992768725374,865.9870560956573
1731305663.068232,928.7841389111086,459.0934707491847,843.8184125909338,870.0584021107082
1731305663.0721338,918.0728288031296,571.1591085636053,850.9454176289441,876.7817418649613
1731305663.0760353,902.3830840515208,608.6532061368207,858.0528995374209,881.8182199080068
1731305663.0777042,885.4746744273234,518.2294344583505,865.1184949535265,880.2552978103577
1731305663.0799367,871.3075021405806,354.93710894888727,872.1641080601637,870.1705718741209
1731305663.0803611,862.9757137021484,227.3531034424003,879.2828121863699,854.9008760682832
1731305663.0837126,861.3946232805083,204.56395890912984,886.5979447474103,841.6377918079554
1731305663.0838385,864.4326044362492,267.76071637346996,894.1239171258222,836.6521668097554
1731305663.08774,867.5846899165829,340.6184492781675,901.6006759559923,840.6497950261859
1731305663.0916414,866.6219443560776,361.25682726719526,908.5073946173709,848.3571164201426
1731305663.0933354,860.9454447477923,329.43484444069793,914.4728938853898,853.113207697328
1731305663.095543,854.9361757217932,295.41950059068836,920.0113618701928,852.5779671136856
1731305663.0992255,855.2645520706434,312.7466204184819,926.9420726355758,850.2477180173205
1731305663.0994446,865.2833064576337,401.0249309395695,937.4535956769275,851.2095710146413
1731305663.103346,880.885235177247,542.1278280111362,951.3434036332694,856.1760840167384
1731305663.1072476,892.0393034642742,697.9087096755136,962.9289044309309,859.7623093137785
1731305663.1089666,889.7738883786251,827.9926389895891,961.3880654289828,855.0421105815442
1731305663.1111493,873.2872906298895,901.4495492646989,937.6721871727736,840.3097785514375
1731305663.1150508,851.1448592768768,907.4434069120139,895.0432513059135,821.6159225071294
1731305663.11809,835.3043537718129,862.7947924839377,852.9416875500768,808.3830808416062
1731305663.1186206,832.7607924472242,804.6103528772378,835.7475764036158,805.7447999633497
1731305663.1189525,841.4379192851998,764.1660685745871,851.7895528403669,810.3308919802453
1731305663.122854,853.0976432478668,739.9808609216847,880.8217980886591,813.2816459344264
1731305663.1245975,860.1132694288606,697.9421078605357,885.2372698725353,807.9699460460341
1731305663.1267557,860.2213687541961,606.9393440929903,841.053895873089,795.7937226309705
1731305663.130657,856.0781220513193,482.7511363726587,764.3419225782923,785.0893316494289
1731305663.134559,851.5346990914085,395.74215519801527,706.601454953839,784.2421314400883
1731305663.1369543,848.6663866316611,422.57861407786277,715.5347273840725,795.0475303360688
1731305663.1384602,847.4038464019849,573.6499089000315,789.7675841782972,811.8280286618182
1731305663.1402287,846.7453283765793,760.3390726327585,868.2019353004483,826.4416774080134
1731305663.1423616,845.896743840777,842.9826875481225,870.6054553605813,834.3117385749251
1731305663.1462634,844.6437809850929,732.6537849481853,761.8393223135736,836.4416227469117
1731305663.1501648,843.153429086206,465.7428912867374,586.6245156241733,836.5815148196765
1731305663.1535287,841.6516639978796,184.42563052851034,441.8520643056278,836.9160327559588
1731305663.1540663,840.2484524882282,33.67193473293821,405.6511810622875,836.2457874169971
1731305663.1558187,838.9351461021719,58.84262252786334,481.1971634297154,831.8698301112984
1731305663.1558597,837.6575113874198,188.21135589799655,602.0748854931171,823.1618999646137
1731305663.1579678,836.3756098707265,309.4474973920999,692.7520718644911,813.6430143064479
1731305663.1618695,835.0806014019129,366.76574191803866,729.42830320912,809.5696776794273
1731305663.165771,833.782529754947,391.652692920909,747.5094532296316,815.587872325987
1731305663.1696725,832.4932666366801,446.34841411562195,792.3247293729737,830.3445451154488
1731305663.171491,831.2180316360188,542.2782016678608,863.1791826585522,845.5952689658468
1731305663.1735742,829.9558973095515,617.1764380292773,906.86939300788,850.3690325886175
1731305663.1746829,828.7038413266739,595.6261308131773,869.0159567967927,837.9880332364128
1731305663.1774757,827.4597915398011,475.130655618968,754.8582686302956,811.0123818191674
1731305663.1813772,826.2233345750545,351.7357109543583,639.4406752832913,780.1488572205618
1731305663.185279,824.9949752122554,352.4738989046916,612.5670588793361,757.5422762749499
1731305663.187122,823.7752339039467,528.4608666006744,704.9633748401145,749.2136268548949
1731305663.1884367,822.5642406461922,802.964796526272,861.4395129609468,752.1014822382175
1731305663.1891804,821.3618039106229,1024.297487537273,985.4511822768446,757.6235432644244
1731305663.193082,820.16765105668,1082.1248800050669,1015.7079088478058,758.7483283596976
1731305663.1935472,818.9815933004342,989.5823720249047,968.6091978130671,755.0661738505106
1731305663.1969836,817.8035332576795,863.1163256244461,913.4563101779224,752.1283325596099
1731305663.2008853,816.6333567545796,820.4465319981555,907.381201904968,755.9648357887766
1731305663.2027533,815.4708124850075,885.4207403522297,948.7740890342243,767.5065613759854
1731305663.2047863,814.315506491326,977.9181662280888,986.5111723861467,781.501077517361
1731305663.2086885,813.1671034614008,990.3330236154341,971.124254805932,790.6001922580859
1731305663.2124116,812.0256754309532,879.3735636677507,899.6406852946036,791.0611975660607
1731305663.2125895,810.8918829864589,695.0712238778741,815.5867391309789,785.4876823616589
1731305663.2164912,809.7665183972528,529.0345830258125,767.4965702366096,780.681196206287
1731305663.2183845,808.6492422273305,434.5973686860152,765.4009588241744,782.4054729478539
1731305663.2203927,807.5372850010909,391.12176722364256,774.6224415945528,790.8716164205301
1731305663.2233448,806.4259531252952,339.90656818429466,751.4161816020198,800.1134003060355
1731305663.2242944,805.3125936487032,253.33734283317733,687.1768564084167,801.8904928873629
1731305663.228196,804.2028407985393,171.60019344350144,620.8681184414459,791.7219911193165
1731305663.231276,803.1130906348097,174.37790783808225,608.6414789856348,772.8039141425983
1731305663.2320974,802.0606033223634,314.5182967348358,677.5982484565036,754.5170334783985
1731305663.2340152,801.0392076226101,571.1324352257965,802.7823587911994,746.0714130189426
1731305663.235999,799.9968201299678,857.2434182648201,924.2220602200337,749.9772222682126
1731305663.2399006,798.8498451170859,1069.4369000117026,987.4589352162586,760.7140247189773
1731305663.243802,797.562378518521,1139.8752242840983,976.109456912629,769.8784723007107
1731305663.2477038,796.2608366622231,1061.8433487745497,916.6266694309415,773.4143170310438
1731305663.2496464,795.2637327749226,886.4947012045566,857.7857639872096,774.5466348395612
1731305663.2501404,794.8688046228352,700.9749002673036,841.1473461201109,779.9595401363879
1731305663.2516053,794.8790585856091,593.5205311056482,878.4956557896085,793.0578094439318
1731305663.2555068,794.1919100366624,610.0292376309576,945.281220841821,810.7087542003568
1731305663.2582529,791.0755619368863,720.4880897702452,992.4420662033226,826.1141552197618
1731305663.2594085,784.4676962070407,825.1691368254315,972.6580681885351,834.3886009980579
1731305663.26331,775.4802488445594,813.4046526890585,869.4440605160065,835.4688619269156
1731305663.2652774,767.3648426167304,644.3661477392619,712.2304703348859,832.6474960036029
1731305663.2672114,763.2776678585984,388.3593138900226,564.8544567274346,829.3459174242116
1731305663.2690048,763.7259209294259,186.94083568174398,490.4755621093345,827.1949983290009
1731305663.271113,766.370644221197,154.13538769721032,514.0711174934356,826.1317492486455
1731305663.2750146,768.5001791759738,295.50046146731086,609.4148947122794,825.4351819387705
1731305663.278916,769.6389891185081,512.8062366656418,721.7447083821658,824.5618591408593
1731305663.2809086,771.6442146987945,689.9730340957944,808.7164727102443,823.3873238655864
1731305663.2828176,776.2608706624466,783.3366325932999,865.1961355960663,822.0458782100625
1731305663.286719,782.6351230925819,836.3570372838567,911.1743195511353,820.6993198989572
1731305663.2878692,787.3004911908528,911.8811824631764,957.2730720788501,819.4201268231383
1731305663.2906208,786.8833522094205,1014.4578122533921,985.0812489807945,818.1969811255253
1731305663.293161,781.3935503689961,1082.5612518848693,965.0865242728186,816.9894773137362
1731305663.2945223,775.3302325507507,1058.0576052732486,895.4269498473977,815.7698042815473
1731305663.2965395,775.2688903727591,959.5959838225756,819.3716254909446,814.5327896377992
1731305663.298424,785.175330623392,878.899057465137,796.1497012664458,813.2860708373838
1731305663.3023255,802.7622353326473,894.7105499579859,845.7614894971043,812.0378655615249
1731305663.306227,820.0060601997762,985.8306164702556,919.8533894477828,810.7913512115749
1731305663.3067336,828.0395231093788,1034.783656255945,933.5653725381469,809.5453976949816
1731305663.3101287,823.0563096306824,931.3486624193176,838.4497236461513,808.2975758309792
1731305663.3121707,808.7882415803631,685.9855674058051,673.8118684216072,807.0462678032817
1731305663.3140302,793.7294790004502,443.9049243832234,546.0437191919784,805.791073717496
1731305663.3179317,785.3818387083546,375.341056749436,546.4744420912128,804.5322246804043
1731305663.3218334,785.8769465717405,531.762052339797,674.9178181027333,803.2699206922978
1731305663.325598,791.856114797724,795.1326642610725,835.6478420261044,802.0040385774728
1731305663.3257349,798.0144859026286,969.6365361583651,912.122967758667,800.7341949383051
1731305663.327802,801.1846787653675,940.1430120033388,858.7603556811556,799.4599741089243
1731305663.328069,801.9788816707255,761.94883448503,733.1447633982814,798.1811502249515
1731305663.3296363,803.2395485070567,606.0680501866657,643.5288677342976,796.8977706382971
1731305663.3335378,806.9459778520751,610.1661513231256,658.5668694450482,795.6099799442336
1731305663.3374395,812.1806043104046,765.5370596002415,756.0708428151532,794.3175598776019
1731305663.341341,815.8024567348989,935.3273181718936,850.7788493500044,793.0194489670047
1731305663.343433,815.2768222200804,981.5130988542824,871.8339770058578,791.713863570129
1731305663.3444622,811.2205790011162,883.7479503129523,820.1436161062899,790.3996141512506
1731305663.3452425,807.2650662848339,745.4322404075365,757.8028118692239,789.0782878676332
1731305663.3491442,807.0742248043596,687.3790652162978,744.0607144105886,787.7552851432926
1731305663.3530457,810.9871672809963,730.6885126502331,778.6154262573593,786.4366927857619
1731305663.3569472,815.3102348286873,777.1846355697121,803.5742003122164,785.1210192863017
1731305663.359064,815.0893210399765,704.3181879243995,760.698175876939,783.7909898590893
1731305663.360849,808.2028696771179,486.5844840333604,650.4586946255682,782.4174065740984
1731305663.362977,797.4897134786953,232.01589727818947,538.2978768515866,780.9854691816694
1731305663.3633263,789.1818338276345,99.04156857820135,501.05676783708174,779.5351001485775
1731305663.3647504,788.6948370706559,165.16674582828364,559.9239357619173,778.1752649952606
1731305663.368652,796.7332898773384,360.8133016753756,658.9430662133791,777.0170781680713
1731305663.3725536,808.4849111790556,524.4827182694678,709.3596043122584,776.0155217583759
1731305663.3746953,816.563877909434,530.7593901715078,663.0875940423643,774.8296174545634
1731305663.3764553,815.7085808308101,382.94896505889835,552.9608909338884,772.9318005774371
1731305663.3803566,805.9628612327045,198.62682995071242,466.41809205935294,770.1473131113798
1731305663.3821907,792.2019221884893,111.65594968296028,476.8786572821109,767.4383580836859
1731305663.3842585,780.5772698434362,178.7404349452604,590.7833653487434,767.2052066829423
1731305663.3881598,774.6891658295995,359.1587109746809,749.6241919121676,772.2947144675952
1731305663.3903265,774.244083363818,563.981149178396,877.2301141565677,783.9553552657255
1731305663.3920612,776.5910724430298,719.4574145306528,929.6697467733064,800.4486636957495
1731305663.3959627,779.1686015708058,797.066199140105,912.5770625754839,817.8407315944354
1731305663.3978848,780.8307902191896,805.5823550085486,863.0210673575727,832.281832161988
1731305663.3998644,781.6835559974986,770.0888140282773,818.3986795806718,841.5357330106926
1731305663.401055,782.2809944899687,718.3147414205648,796.3846510356419,844.6796135723528
1731305663.403766,783.0158490430522,673.897848289728,794.3403984500163,841.1947004789856
1731305663.4059572,783.9635156321857,647.4074668891367,800.6951965320868,831.2159428225265
1731305663.4076674,785.0149664581211,626.7895860850638,806.0290534449614,816.8606487433703
1731305663.411569,786.0496676362924,581.5943158702366,807.2015270167865,802.5463394759936
1731305663.4154706,787.0172738225299,488.95754877559386,805.5520682496615,792.700182852926
1731305663.419372,787.9289476512292,365.08734221463004,803.4498814572502,788.1906651903944
1731305663.4199195,788.8152186963113,269.9549422810263,802.2073966540705,785.0012853899627
1731305663.4215884,789.6957787781433,269.3375388057379,801.8566922853637,777.2495848228285
1731305663.4232738,790.5732766537176,379.27238173751476,801.857615042818,762.5817413273098
1731305663.4271753,791.4413043155812,543.3969250726838,801.7610675868484,745.2901746432038
1731305663.4310768,792.2934927739941,670.7114719552114,801.437658784176,734.0882019745246
1731305663.432793,793.1274011732636,704.8536000190593,800.9763674156874,736.0121077994123
1731305663.4349785,793.9437375289447,661.7364442280892,800.5045897100463,751.2406888151495
1731305663.4372196,794.7440593766612,600.1205034364551,800.0868041493017,772.8126052422452
1731305663.438784,795.5292578585612,555.7289405780757,799.7203362295376,791.2254241280368
1731305663.43888,796.2993269305505,506.8892812711851,799.3755039020557,800.2553099706713
1731305663.4427814,797.0538311972166,408.1080337605019,799.029753951237,799.815386938244
1731305663.4466827,797.7923828316959,257.5239879303735,798.6778816481423,794.2743123624581
1731305663.450585,798.5148217885834,125.63667175741756,798.3255761509972,788.1656841456419
1731305663.4528506,799.2211484318898,106.68399380006963,797.9798248643987,782.9853793659346
1731305663.454486,799.9113840216559,230.33715617008215,797.6439698035964,777.4775862532101
1731305663.4576485,800.5854900958856,417.0802755969844,797.3178805919827,770.5566039322339
1731305663.4583876,801.243386886599,528.856651874551,797.0002560081658,763.7133683197018
1731305663.462289,801.8850402041323,481.4519104061012,796.6904065611722,760.5192937629861
1731305663.4661908,802.5105392391744,322.8112365026783,796.3886207417218,763.743724153862
1731305663.467701,803.1200643959688,202.97497353934455,796.0955347487692,772.6866692474111
1731305663.4684818,803.7136836841873,253.9629396547573,795.8113545970824,782.8573659572816
1731305663.4700923,804.291066133354,480.6438262338778,795.5356583806898,788.142638997824
1731305663.473994,804.8514186319835,758.0706194026923,795.2681293384327,784.1370592653918
1731305663.476513,805.3940257502882,937.1947307267471,795.0099089049318,770.9855935916264
1731305663.4778955,805.9194008121248,963.580782015989,794.7643422368418,754.2451059222477
1731305663.481797,806.4301839459398,904.1427446669122,794.5353656606212,742.7072013815606
1731305663.4841127,806.9301474825176,864.6642957010687,794.3228994680883,743.5440235983812
1731305663.4856987,807.4202458155505,882.019819795416,794.1180294962921,757.4238096584645
1731305663.4896002,807.8935321311037,893.4955325919964,793.9046852235327,777.3580011286914
1731305663.4935017,808.3348275529175,807.2983800192725,793.6739539555954,792.9484733352982
1731305663.4953773,808.7319250665121,601.9095905267575,793.4469603465102,797.3953008445088
1731305663.4974034,809.0973347658631,358.38938242735037,793.2844100953206,791.9784124995061
1731305663.499744,809.4829202992076,195.99168074303873,793.2512405600773,784.5308057686091
1731305663.5013049,809.9566502021206,171.38056427810238,793.3282181467504,783.2166528964046
1731305663.502609,810.5247911121677,233.3860175773434,793.3286111453975,790.5113266872028
1731305663.5052063,811.0396196138919,273.71134599995105,792.9477800975985,801.8544026184817
1731305663.5091078,811.2055792745252,227.88159838530964,792.0498484572298,809.7128032055825
1731305663.5130095,810.799302769449,136.3961717853789,791.0890154581896,809.7178409091827
1731305663.5142417,810.048217411231,111.72289560964037,791.2310423118813,804.033313189609
1731305663.515375,809.7688547435655,239.817755436038,793.5986823476863,799.3078912496983
1731305663.516911,810.7228634966343,501.11372122501643,797.5700190892205,800.9765685969046
1731305663.5208125,812.4191815577154,776.8558585923982,799.3291192045333,808.7898033595748
1731305663.5247142,812.8912383349056,932.5110824113666,793.0554299059675,817.3742842276155
1731305663.5286157,810.588907074434,908.364876064905,776.3535348870803,821.0812387511083
1731305663.531006,806.8228957359704,749.4440457297658,757.1328429845951,818.5583335279937
1731305663.5325172,805.6354272024687,562.7667602694105,753.6400060955018,813.0563650492077
1731305663.533106,810.3521373692573,444.78304070805984,781.7069446763144,808.7252315674197
1731305663.536419,819.889658066873,431.9591577865284,837.2592553120841,806.7585356080768
1731305663.5375173,828.6163003221751,496.8739036920767,892.2002742484301,804.9090830538083
1731305663.5403204,830.3295974138666,577.1180789716984,911.2310739510565,800.4250821031329
1731305663.544222,823.0746862556276,611.6748781607259,876.3857273874223,793.3820101384737
1731305663.5466373,810.7336368781398,567.6022213271063,798.9875408841135,787.3019965707153
1731305663.5481236,800.083460044922,451.951653301846,711.0348796341738,786.5001141361287
1731305663.5519702,795.7501328146927,309.0190785123093,645.2928080974049,792.4015658838525
1731305663.5520253,797.0873369884712,202.90895487402662,619.8298868281568,801.9533340055696
1731305663.5559266,799.3436480662338,187.999280209436,635.1727676636363,809.6286442666654
1731305663.559828,797.9534076518539,279.1209927688307,680.7749633111629,811.5789797336619
1731305663.5622685,792.2416392244243,441.36874207494566,743.2894545427882,808.516733767873
1731305663.5637298,785.4829067993234,611.9444212846852,812.2574304732035,804.7965382533876
1731305663.5676312,781.6337923280993,741.2864836838814,881.8287078584716,804.4863402116797
1731305663.5708346,782.0157323533061,820.0423283990295,947.7967770281027,808.0225532514837
1731305663.5715327,784.8783263010712,868.5513918707786,1001.9246779394389,812.4942284877651
1731305663.5724251,787.6723178998263,902.3335749884986,1030.1389494448667,815.0926002408399
1731305663.5754344,789.3848988434577,912.6984279197354,1019.9951854331209,816.2068595485323
1731305663.5778997,790.7862698502204,884.8285228996704,972.8931712284351,819.009682387875
1731305663.579336,792.8594000034678,831.3096263800899,908.2544061468411,825.788860121726
1731305663.5832374,795.3038096245924,796.3671668198083,852.7243268178105,834.5285433363151
1731305663.5871391,796.5210701248287,815.0514447161603,823.1675750571391,839.26503777968
1731305663.589699,794.8850248067799,865.5633942477363,818.8910046983116,834.3926568154809
1731305663.5910406,790.0464118193942,871.9685666765561,827.8848450479259,819.3813250087633
1731305663.5935304,783.2316699093037,770.1869935070997,838.2077647205898,799.7710310429957
1731305663.594942,776.4607419371694,581.7924025866596,844.3947065076079,783.4440235129238
1731305663.5988438,771.3821883664806,419.67791768726323,846.8491669223661,775.1564222076597
1731305663.6027453,768.4961890359288,406.2397935024725,848.1376621427929,773.6026310058324
1731305663.6066468,767.1142914234217,569.0606998964,850.1178092186215,773.0290587969716
1731305663.6073332,765.9814889076735,808.399967981333,853.1703552945796,767.8617997073422
1731305663.6085634,764.2583209334678,971.8296078154103,856.7995152127204,756.88599667215
1731305663.6091616,762.3812426253438,975.4841322082257,860.4411714300339,744.2658300666799
1731305663.6105485,762.154005570991,866.6637732801344,863.8537514898879,736.9960844907672
1731305663.61445,765.6127062364122,772.0563986271458,867.084951361343,740.493250738305
1731305663.6183517,773.0517238123213,778.3097123871944,870.2767610908538,754.9910096099351
1731305663.6222527,781.6613348804594,854.9926208871518,873.5227576849497,774.9848512120432
1731305663.6247926,786.3753954595832,891.9839770140043,876.8370161243935,792.2687605293107
1731305663.626155,783.0604900117467,814.7225466221249,880.1904215445081,800.7792358744797
1731305663.6274278,771.9785569025419,664.5702378735325,883.5532645297072,800.0138607291528
1731305663.630056,758.5807341360214,564.1945342644965,886.9139148560769,794.6265118130638
1731305663.6339576,750.4016051318192,599.1936982608669,890.2755246746224,790.6042508094696
1731305663.637859,752.0074590686127,728.7516390129547,893.6453256377179,790.9932388886007
1731305663.6404238,761.8457677254448,811.9296997674977,897.0274356432125,794.3157567556386
1731305663.6417608,773.5886752020706,729.4346820292619,900.4217313691615,796.5843169108592
1731305663.6422412,781.0438267262076,494.1933993552284,903.826137525552,795.1267322945251
1731305663.6456623,782.7995744295589,254.2723999400793,907.2390053695449,791.2533474428719
1731305663.6462922,782.8782645331447,184.49906908004095,910.6598950279601,789.6854750478582
1731305663.649564,786.8162007644241,354.9678159449238,914.0887864965224,794.9487379622632
1731305663.6534655,796.4042072621914,679.7360040891134,917.524711372112,807.310004095007
1731305663.656055,807.6860205753069,980.7327814058178,920.9651699191934,821.6457884023014
1731305663.657367,814.2420138385006,1111.2587564052653,924.4075095897057,830.7161859237352
1731305663.6612687,813.0882017911724,1044.052824775865,927.8522275073399,830.605072520916
1731305663.6651564,807.8298057055802,866.430303388289,931.305743695977,823.7605658550946
1731305663.6651702,805.8592463076433,701.1886653910599,934.7780204410933,816.7988261201485
1731305663.6690717,811.788160318831,622.7989590283735,938.2718278195464,814.8973477148779
1731305663.671686,822.9835974248067,628.4809082849077,941.7682738448509,817.8009040591878
1731305663.6729734,831.4334237367805,670.220499873828,945.2246805038795,820.965542944482
1731305663.6768749,830.568123249445,705.724429026032,948.6042312608552,820.5675805485222
