timestamps,eeg_1,eeg_2,eeg_3,eeg_4
1731655251.39174,835.2148648053432,815.3481489908212,795.2549609288451,810.8516616461723
1731655251.4094298,838.6526732020645,814.8172084260283,793.2534233303622,801.8874658722615
1731655251.4106667,850.4553260749664,814.6509115068865,791.0122884564929,801.4227816785304
1731655251.4133332,872.4108131699523,815.102811444889,788.3689835622166,813.407540919043
1731655251.4172366,898.3719711170379,816.1575047122029,785.2700620264815,835.105781815902
1731655251.4211402,918.9893337588305,817.4995245839888,781.8248714748443,858.7700886541857
1731655251.4250436,928.656081658372,818.8614690492094,778.4006485106542,876.4759490054672
1731655251.428947,929.3132485327175,820.5914830858205,775.6113688670758,885.0908913799802
1731655251.429593,928.7025107751833,823.7985951003666,774.0422020125407,887.8838888708332
1731655251.4328504,935.06862988352,829.5955286545872,773.8440733429089,891.7043785742007
1731655251.436754,952.3972904257073,837.8562566652766,774.5802557266518,902.0842246120816
1731655251.4406574,978.9434111768759,846.6567331558801,775.512167903365,919.8986814048395
1731655251.4445608,1009.0585776402055,853.2122145797456,776.0564667553139,941.4063295948721
1731655251.4484642,1036.5258865842532,855.8020825252611,775.9997410695905,960.7281871801848
1731655251.44852,1057.3723381988705,855.1223378409132,775.3852495562811,972.6934463942538
1731655251.4523675,1070.826692205796,853.8245507171814,774.3285665527362,974.7229148356624
1731655251.4562712,1078.2263517064541,854.5043421725228,772.9603834191663,967.4793798409103
1731655251.4601746,1080.9745328820893,857.7607287130686,771.4161254787355,954.407547927136
1731655251.464078,1079.3766691328392,861.9168830173917,769.7385111349926,940.3918199360537
1731655251.4674466,1073.4555337773104,864.572727308183,767.7743086600118,930.0287519180155
1731655251.467981,1064.8822676763716,864.6053719714038,765.2512088852588,926.1713644004628
1731655251.471885,1057.6917041426855,862.9128379772374,762.0229083177481,929.1838238269078
1731655251.4757884,1056.2126499587073,861.3559176894639,758.2637455802167,937.0406916568254
1731655251.4796915,1061.3727829423344,860.9370753136774,754.4849191057028,946.2677846565509
1731655251.4835951,1068.730761516983,860.8819406091799,751.4589350734434,953.484494654604
1731655251.4863732,1070.7426505436424,859.4375723395481,750.1214222486304,956.8281307858274
1731655251.4874983,1062.1357224490014,855.6351059914798,751.341010262052,956.3862696725757
1731655251.491402,1044.1020288268699,850.3863263156347,755.4968159673887,953.4624051382305
1731655251.4953055,1023.5906317696547,845.9021942316809,762.1078323066911,949.5031805866453
1731655251.498487,1008.0919647944812,843.9601935394842,769.8753005544156,945.660774045508
1731655251.4992087,1000.2640837380575,844.556844035146,777.1833774069531,943.0263688030789
1731655251.5031123,996.8572176729771,846.0547828674564,782.7083216942882,942.6980603455349
1731655251.5052998,992.54123579601,846.5623326055933,785.776864474516,945.1562787652623
1731655251.5070157,984.9601833249332,845.2806695229954,786.4404642907612,949.5440979896291
1731655251.510919,976.4815046828649,842.7584850510709,785.441163813833,953.9300404990718
1731655251.5140257,971.3689930422807,840.0812087469396,784.1103170528959,956.7205990610258
1731655251.5148227,971.411797853363,837.92222904468,784.0397031093604,958.0344110772737
1731655251.518726,974.3189802796314,836.3012785072133,786.4629489810911,959.6075224322174
1731655251.5226295,976.235445583211,835.0267269210054,791.6136674236099,963.0382478864508
1731655251.5242264,975.5365458412736,834.10297806921,798.4642867012662,967.7308147105682
1731655251.5265331,973.902065594291,833.5721550488328,805.0179749247901,970.3544811232496
1731655251.529564,973.6792890802612,833.0418909395302,809.0164092678658,966.6118067594122
1731655251.5304365,974.4727790837431,831.604602136381,808.8218079529397,954.3476652080433
1731655251.53434,972.6602169980073,828.4701658366944,804.2182474717818,935.8089370358143
1731655251.5382433,964.518173473926,823.8384872531452,796.7733210080481,917.2134409594504
1731655251.5421467,950.0637465310658,819.1709615599784,789.393150840119,905.6191710239361
1731655251.543153,934.0262257995003,816.4622028501192,785.0766981958321,905.0066452618798
1731655251.5451028,922.9287024535452,816.9648495091349,785.4553847167276,913.9793674438399
1731655251.5460503,920.53925387604,820.3180399917579,789.9551014045195,926.3524400485937
1731655251.5499537,925.1971347558715,824.7367218354733,796.0836186593534,934.1912099488769
1731655251.553857,930.9928205825495,828.087570516687,800.7099325675773,931.6411364015577
1731655251.5557542,931.8712383955249,829.025555078257,801.6971901867491,917.592148874482
1731655251.5577605,925.6312452928898,827.4358354654477,799.0749651653605,895.90672114789
1731655251.5606415,914.9841858532507,824.0851005971268,795.0970104442844,873.3221121184141
1731655251.561664,905.1003665495593,819.9769993123888,793.0221320022918,856.3747122651573
1731655251.5620797,899.6706494784121,815.934162887502,795.180710946421,848.9208871381749
1731655251.5655675,898.46944949433,812.5288384894557,801.4652516230622,851.0708437005503
1731655251.569471,898.0620413258769,810.1521071983636,809.2863753529488,859.4991998881665
1731655251.5733745,894.7987412569678,809.0145600784159,815.1274356064127,868.8186374923125
1731655251.57618,887.5848474746194,809.0600771047305,816.6950882433753,873.7444707595657
1731655251.5772777,878.342799726048,809.8983160501095,814.2133778421584,871.4990572466803
1731655251.5810063,870.0865570787862,810.8553522070816,810.0457049248732,863.3102249781259
1731655251.5811813,864.3775958353339,811.1723066196358,807.0355161497857,853.7781527468009
1731655251.585085,860.1979568960194,810.2923622074038,806.7779803840756,848.0046532951449
1731655251.588988,854.9586690109633,808.098392596695,808.9192838436092,848.1538396623116
1731655251.590492,846.680960180428,804.9683136654752,811.7547823914542,851.9443111135029
1731655251.591719,835.6254000980867,801.6265864562251,813.5434583557568,854.355157154891
1731655251.5928917,824.1938741019403,798.8813992973976,813.6171793121666,851.3179891873799
1731655251.596795,815.2405488259948,797.3410751344335,812.6285889774824,842.5223361916127
1731655251.599933,810.0753308110852,797.1599208243257,811.8882706670671,831.2234710832622
1731655251.6006985,807.6794735483652,797.901583411689,812.3197616213139,821.4859139414111
1731655251.604602,805.7535836562231,798.6780117308487,813.780333237112,815.3474870264331
1731655251.6072574,802.7312617667482,798.6180577656597,815.1982297104407,812.1490779353222
1731655251.6085052,799.0065150804217,797.4149008783271,815.355206722691,810.1165261861793
1731655251.6124086,796.263635392388,795.5128641801713,813.6943307833358,808.329589975536
1731655251.6163125,795.5421555921581,793.7297315497572,810.6249296766986,807.2249772866091
1731655251.6188595,795.8850110788643,792.6093473441862,807.2705319077859,807.4878766233846
1731655251.6202157,794.8710788709476,792.0454582828919,804.9625001946735,808.7633150626222
1731655251.622796,790.555656869914,791.4539069534907,804.7602708264224,809.6152358380732
1731655251.624119,783.084143368105,790.2939068499084,807.0875255962128,808.8023173435533
1731655251.6252298,774.6202026652873,788.507785294801,811.524095507782,806.6334731870585
1731655251.6280224,767.7100617774632,786.5811470947285,816.8783333800947,805.05577633035
1731655251.6319258,763.4021581167901,785.2155829138894,821.6284099290422,806.2019513328704
1731655251.6358294,760.5086668263529,784.84651129716,824.5705552952884,810.4383640897613
1731655251.637786,756.5108063605325,785.3393572744209,825.2921501847635,815.4573913607975
1731655251.6383345,749.47959252791,786.0967926317572,824.1845039068891,817.2547850216457
1731655251.6397328,739.6819825615527,786.5106223674132,822.0692218668228,812.4497940166252
1731655251.6436362,729.7072604891287,786.39216447426,819.7687333854102,800.4029573141564
1731655251.6475396,722.9849183710405,786.0101306739446,817.8621141506609,783.7351673994082
1731655251.6514432,721.7906473535564,785.7181520652966,816.5981168548295,766.9998025005889
1731655251.6538732,726.1943857576786,785.5521468613496,815.8374764741275,754.4593430940523
1731655251.6553466,734.4915967720245,785.2176849034712,815.0469497200708,748.2772572734859
1731655251.6567128,744.3488475934354,784.5017600301076,813.4955237749322,747.9027466835043
1731655251.65925,753.5121934305923,783.6954476067208,810.6686699923721,750.6681247235733
1731655251.6599677,759.7740963590691,783.5556938128501,806.6489880666885,753.1813993299888
1731655251.6631534,760.9244517232605,784.7580968222487,802.1519603135953,752.9256886815915
1731655251.6670568,755.4485821404664,787.3070224336185,798.1664241472349,749.3519811782606
1731655251.669412,743.7576637195648,790.4523580007121,795.4684073106766,743.8408275023896
1731655251.6709604,728.8202391699588,793.1943862863168,794.3383220663098,738.5104996471557
1731655251.6748638,715.2267479715159,794.8962664193484,794.6014688165379,734.695757403655
1731655251.6756394,706.9293591797358,795.4546390972716,795.8707436036441,732.2114239168737
1731655251.6787672,705.0999038651478,794.9796766003498,797.7820157232672,729.8503054392429
1731655251.6826706,707.6246353509085,793.4600463547092,800.0729371585716,726.5554217231919
1731655251.6849504,710.5794298085517,790.8573740309602,802.4924820052258,722.3176186426219
1731655251.6865742,710.6005056391676,787.529657316207,804.6746182238977,718.2907094989533
1731655251.6904776,706.570423086312,784.4439875682923,806.1587893927028,716.2395354928017
1731655251.694381,699.7793796881965,782.8034742392884,806.6034894334422,717.6813888814016
1731655251.694566,692.9189444391478,783.3018323848448,806.01330120916,723.0594063049317
1731655251.6947055,688.8412728461224,785.608642876585,804.7376106380082,731.304519552584
1731655251.6982844,689.6199741650188,788.5146689891877,803.2137269448025,740.1064147131776
1731655251.700489,695.782456251697,790.6466293248428,801.7040790902713,746.8637529527264
1731655251.7021878,705.6069600810274,791.2621233601103,800.2958460420058,749.7860692470513
1731655251.7060914,715.0870289266311,790.6209071456541,799.1452783217663,748.504446931661
1731655251.7099948,719.4157830257052,789.7434505362738,798.6580377200656,743.9989530252242
1731655251.7134926,715.7397828947849,789.7696210776979,799.327349569694,738.1562808842942
1731655251.7138982,705.3044115244679,791.3431048408289,801.3037930914674,733.2459612409118
1731655251.7160275,692.9449615991182,794.3380860045451,804.0997962385077,731.2293786588348
1731655251.7178016,683.9287635079046,797.9602928225472,806.783399785973,732.8378279517021
1731655251.7217052,680.6193017756276,801.0822847345308,808.5916787008243,736.9379492466157
1731655251.7256086,681.6924697771989,802.7007907045684,809.4829393511134,740.9862017227958
1731655251.7294433,684.2641686837615,802.432356886652,810.1523468065321,742.6085448029512
1731655251.729512,686.6749226050724,800.835662834949,811.4707826420124,741.1321026753933
1731655251.7315662,689.411440337937,799.2415293820861,813.7829846904006,737.686913124574
1731655251.7324193,693.7696127502533,798.9938206975345,816.6096117092336,733.781558954319
1731655251.7334154,700.0381928886072,800.5188541343849,818.96476423141,729.8068533670566
1731655251.7373188,707.0786501462896,802.9514906361268,820.0107764750105,725.0550456172377
1731655251.7412224,713.3682861195069,804.7069688863853,819.5301826651868,719.2818146533949
1731655251.7451258,717.9625883978467,804.5997108712835,817.910864850628,714.1104215182888
1731655251.747105,720.1836894579179,802.6244775327299,815.8140301854125,712.5137458731008
1731655251.7490292,718.68934071006,799.8287968630931,813.9350040691379,716.4444215043345
1731655251.751346,711.6850129917968,797.491703482932,813.0018494850635,724.6882092025871
1731655251.7529323,698.9035971738838,796.315153687108,813.7186436252584,733.1468249316503
1731655251.7568362,683.6670186458621,796.1641720502432,816.3503186512053,737.6997575806394
1731655251.7607396,672.4872598329111,796.3696767072573,820.1661955410623,737.3669768799784
1731655251.7626436,671.5315104682703,796.2477462435352,823.3993100587172,734.9961787236778
1731655251.7641811,682.2681040143134,795.4882819206933,824.109980551944,734.7483840540922
1731655251.764643,699.8306437939598,794.2667726770474,821.4959916961736,738.4997027768419
1731655251.7685463,715.7787000317072,793.1088748159694,816.5950040256475,744.2975296014774
1731655251.7702725,723.4880319813687,792.6064240095413,811.6670859345012,748.1848721763553
1731655251.7724495,722.2705311768964,793.0972281797282,808.6410870514851,747.6968993914037
1731655251.7763534,717.2909488583109,794.4430009551504,807.8809142564545,743.9550592367117
1731655251.7781825,715.581823330955,796.0488673328076,808.295631018244,740.7317101292888
1731655251.7802567,721.2470670065236,797.1738183145845,808.605837737234,741.5628931675317
1731655251.78416,733.121191071876,797.369973265503,808.5125507342425,747.3643367452092
1731655251.7880635,745.9628350484775,796.7359007653592,808.6573110228993,756.1082769752816
1731655251.789199,753.8263046683406,795.7898359564076,809.5067463231225,764.2665312663801
1731655251.791967,753.3519577624578,795.1013589029848,810.4054297182905,768.7418040230921
1731655251.7937207,745.3911721334575,795.0180279381933,809.8875844426033,768.3385334004693
1731655251.7958703,734.5491453345776,795.663211975081,807.0600344400517,764.4981073908618
1731655251.798919,727.0662462066385,797.0607173874798,802.7417049688709,761.1237976378351
1731655251.799774,727.9212103516232,799.1374895693135,799.1970349349299,763.0999016973706
1731655251.803677,738.326451052814,801.5642082730757,798.5905233314456,773.5196402687087
1731655251.8075807,754.8041830175985,803.6487474113559,801.4597147193066,790.8936085583275
1731655251.8081255,770.5249739372347,804.5132138158731,806.4448296768434,808.5616751294824
1731655251.8092594,778.5575138293423,803.55279794266,811.3587431333071,817.7212283246123
1731655251.8114843,775.5361218479808,800.9076424718463,814.5987260952138,812.8834251222437
1731655251.8153875,763.706256481751,797.58761269402,815.8406615090322,796.1111420551098
1731655251.819291,749.9805486962769,795.0582071970198,815.7604068233284,776.5265158285226
1731655251.8231945,742.404660902522,794.4555378329962,815.2969017810428,764.8487667238895
1731655251.824798,746.1054476297434,795.9192036835987,815.0827683918585,766.7047963972385
1731655251.8270524,761.0189365508849,798.5297217592704,815.2673406933702,779.615164316831
1731655251.827098,782.3690250510184,800.9336141063753,815.5898654109736,795.6809091798077
1731655251.8310015,803.2267304192761,802.2145366494096,815.5325046251569,807.530433056494
1731655251.8336568,817.6839507431151,802.3666569568329,814.5409941760156,812.8362188216095
1731655251.834905,823.2895653496993,802.0518878513694,812.3354791768714,814.3554485103567
1731655251.8388083,821.8642777114774,801.9181143445286,809.1779091049006,816.2921309376754
1731655251.8403366,818.3641221771773,802.0984247102315,805.8515111104721,820.5081321745245
1731655251.8427117,818.2029606499999,802.2944766753199,803.2668748320499,825.6572141678289
1731655251.845979,824.2891383458632,802.2859961434966,801.938682290867,829.4218981920194
1731655251.8466153,835.4329207569656,802.3275255870242,801.7297109828179,831.3680285388385
1731655251.8505187,847.1682566505422,803.0119625961242,802.0402663219947,833.6802874573228
1731655251.854422,854.5547820709453,804.6613285403008,802.2388216919366,839.1614485740062
1731655251.8558753,855.199442749123,806.7544952546574,801.9707851813587,848.3988999138472
1731655251.8583255,850.6045754512788,807.9769336058431,801.1832084432966,858.7734582753582
1731655251.8622289,845.0822912518643,807.0607727492951,800.0142614535209,866.3590327294598
1731655251.8649056,842.9768054440975,803.8968249103212,798.7734266507716,869.1128133653988
1731655251.8661325,845.8673851432686,799.9959110178539,798.0143056735316,868.4672153310898
1731655251.8683946,851.4360777886297,797.7354876347227,798.4564651760085,867.831761029137
1731655251.870036,854.8325367740144,798.7882898458155,800.5809440589786,869.410161654197
1731655251.871414,851.8973155636129,802.8795585229672,804.1084035956537,872.3339430244982
1731655251.8739393,842.2110311140797,807.8445256491901,807.861889917348,873.7750246100431
1731655251.877843,829.7383675046626,810.9729576264707,810.3106423696084,871.7682525126922
1731655251.8817463,820.3953898239588,810.671131086964,810.4946289899376,866.9364102733542
1731655251.8838322,818.2108550076914,807.3075027522036,808.6329036997838,861.6312160281474
1731655251.8856497,822.8978012514383,802.7784437174665,805.9549096304654,857.6440175214088
1731655251.8869524,830.5009437462467,799.2330410181366,803.9307781667059,854.8535591630408
1731655251.8895533,836.3285181247492,797.8751185172396,803.4908019741764,851.9457936422526
1731655251.8934565,837.7774839420067,798.5750809972332,804.6974369013889,848.1820623793203
1731655251.8973598,835.1725666341882,800.3846218904382,806.9146966932797,844.3082457443259
1731655251.9012637,830.6400927750801,802.4087241888427,809.2339938768154,841.7582857011184
1731655251.902491,826.4924585219553,804.3024163510157,810.903709124487,841.0645348796359
1731655251.9027588,824.4285511955615,806.0762449110512,811.6160620371057,841.1140301924088
1731655251.9031324,825.5363896199775,807.5672063072957,811.5711443828402,840.0065362588082
1731655251.9051669,830.160827137782,808.2358695785247,811.2830733231234,836.727586677553
1731655251.9090705,837.1855438928461,807.5747484186438,811.2088028633442,832.097880009771
1731655251.9129736,843.5714246416223,805.7295976396186,811.4332721389504,828.1199547541694
1731655251.916877,845.4472051724985,803.6656075978876,811.6608880038034,826.261180696963
1731655251.9180298,840.775097858906,802.6554735376294,811.5397179765838,826.1314359826505
1731655251.920781,831.6638451939782,803.5369873089301,811.0363445553525,825.6647601894913
1731655251.9216857,823.9072874244278,806.3449676559474,810.4917967424076,822.6388318957239
1731655251.924684,823.2912311290587,810.4557401678543,810.2573154425028,816.2958415070377
1731655251.9285874,831.1746689641195,814.91614039245,810.2200171099606,807.8670537231513
1731655251.9324908,842.992697093741,818.6868216333603,809.6941893750259,799.8057850081358
1731655251.9335685,851.2157397764296,820.879324433577,807.8747451803692,794.4955646795419
1731655251.9363945,850.5931404520703,821.1207374328067,804.5355326298723,793.3066971364608
1731655251.9378705,841.5835279367502,819.8519859226532,800.3747177300628,796.2863069528133
1731655251.9402978,829.4986014133646,818.1767824158451,796.6582738253846,802.2805613913157
1731655251.940612,820.468080124041,817.2029606205806,794.4031588028362,809.326959869852
1731655251.9442012,817.6115973463726,817.3399889717881,793.74804895561,815.3522189927809
1731655251.9481046,820.0430808820861,818.1189251218425,794.0080943149163,819.047827073839
1731655251.9491067,824.6756439882771,818.6378101960981,794.335478432894,820.3961115926911
1731655251.952008,828.7683981114832,818.1948637208876,794.4202739945255,820.3300007746749
1731655251.9559116,831.2342227027623,816.5973031278762,794.6743667895745,819.6906238328481
1731655251.9595387,832.2994868196965,814.042890141042,795.7978821087761,818.3869705694833
1731655251.959815,832.476711101667,810.891314551381,798.1181507195288,815.6033742575406
1731655251.9637184,831.9225770814687,807.6388069416497,801.2254006416681,810.9542947604323
1731655251.9646456,830.4521655199555,805.0323113178067,804.1492918183171,805.5147688181787
1731655251.9676218,827.8130045347888,803.9734750128612,805.8969978557215,801.6255408733733
1731655251.9715254,823.849518073513,805.0347287229057,805.9502590655403,801.4000203315297
1731655251.972608,818.5803242688288,807.8872126019982,804.4277774599028,805.0688134683002
1731655251.9754288,812.3594482399525,811.1927321741388,801.9027361882117,810.5802904294114
1731655251.9784653,806.0596128162088,813.2099679530828,799.0681274199766,814.902311003201
1731655251.9793322,800.9916291122447,812.7577153883309,796.4611561735584,816.0446907118371
1731655251.9801843,798.4302222741842,809.8464667417868,794.3665170049791,814.2054821492221
1731655251.9832356,799.0379606754324,805.5568802686117,792.9029830685319,811.2198723342266
1731655251.987139,802.6653393020373,801.3585827693714,792.1787470826481,808.9748947984291
1731655251.9910426,808.6516027381701,798.4528371462277,792.3297499083404,808.2250609678216
1731655251.994946,816.1960708161469,797.5465235555431,793.344101628703,808.5875212086588
1731655251.9957228,824.3038036930733,798.943499780424,794.8197132182903,809.2894633318734
1731655251.997392,831.4280939015082,802.5406515813213,795.9624764605082,809.814178140276
1731655251.9988494,835.5532644451367,807.5663288981499,795.9689234154807,810.0587283877138
1731655252.0027528,835.2276699866467,812.4100356238863,794.5587084104795,810.1561810618696
1731655252.0066564,830.9980946396686,815.0465677916812,792.229229161725,810.2559606324189
1731655252.007346,825.8666456335193,814.0909358475728,790.0170233221388,810.4205914814808
1731655252.0105598,823.8218691198293,809.840725703232,788.9361725371798,810.6360585668084
1731655252.0112617,827.0636886824451,804.4432515933877,789.4470077425796,810.864228808704
1731655252.0144632,833.9494019299549,800.8404994869303,791.2134662284816,811.0804985889295
1731655252.0163186,839.5759810319215,801.0354683205315,793.2375310175576,811.281535779932
1731655252.0183666,839.0666113939226,804.8111841407194,794.335852926156,811.4753197865518
1731655252.02227,831.3192577300835,809.8334109857365,793.7794481255397,811.6697927979959
1731655252.0261736,820.1681339947759,813.149170613809,791.7509121271765,811.8680042473527
1731655252.0268002,811.671801737753,813.0891553996573,789.2810461697051,812.0690800162586
1731655252.030077,809.457874056426,810.262618358902,787.6403391079839,812.271089611596
1731655252.0339804,811.953330466787,806.9786027297855,787.5728465664532,812.4729370596639
1731655252.0352447,813.9480557806413,805.5595302860476,788.8855115729141,812.6746494890031
1731655252.0378838,811.2539822445623,806.7775902320351,790.6213016483659,812.8767956897391
1731655252.0417874,804.4895433300635,809.4908540126648,791.6327461288631,813.0798948721701
1731655252.0420835,798.7399673645713,811.6327509818848,791.1864713886334,813.2841945196263
1731655252.0423386,799.3941872302878,811.7219896664566,789.3230482739019,813.4897509440456
1731655252.0456908,807.7000288688655,809.7514543202774,786.8722859371021,813.6965903995881
1731655252.0495942,819.7268554320004,806.8981070106897,785.1423184460249,813.9047933739998
1731655252.0534976,829.4569271812846,804.4665044876235,785.3872837617583,814.1144711591938
1731655252.0541716,833.2877473849248,803.0153436382033,788.2437450279065,814.3256945515233
1731655252.0574007,832.2533852583517,802.3045434805897,793.3606936688172,814.5384674085927
1731655252.0578773,830.4348864882963,801.9028275882673,799.4053025825202,814.7528128076447
1731655252.0613046,831.257794992855,801.7741925859932,804.5290505527132,814.9689489981371
1731655252.065208,834.8640588073936,802.3246072814173,807.1973291713048,815.1873936672641
1731655252.069111,838.4731070092422,803.9612359907954,807.0071200798607,815.4087500319373
1731655252.0730147,839.0173582947801,806.6145588298123,804.9498395910061,815.6330744410293
1731655252.0730982,835.6445254313944,809.6103908522507,802.8276302325106,815.8591982587759
1731655252.073416,830.1123104288573,811.9409057332796,802.1490413036743,816.0849314250407
1731655252.0768216,825.0202401084698,812.7246067232606,803.2846895224676,816.3090194710161
1731655252.076918,821.5601347574383,811.6098444076115,805.4809018217474,816.5343326022637
1731655252.0808218,818.7099486576705,808.9595433773355,807.6352752698267,816.769284042698
1731655252.0847251,814.4885824407398,805.7404066136468,809.1479001950329,817.023066865256
1731655252.0886283,808.1494295472614,803.1431038158835,810.1817789087163,817.2934338356987
1731655252.0889544,801.4107198491141,802.0987275359552,811.2396206036816,817.5548923001693
1731655252.0920248,797.5928120137518,802.9280196028783,812.5487747549219,817.7650232869032
1731655252.092532,799.2146895171196,805.2671734420735,813.8235423685335,817.9037733565567
1731655252.0964355,805.8689666974731,808.2400691245546,814.5358851520257,818.0323165371741
1731655252.1003387,814.0664487246913,810.762149519139,814.3483895272141,818.3118065157165
1731655252.1042423,819.2938018576491,811.8941346591149,813.2973855375037,818.901327748981
1731655252.1044931,818.8537212425753,811.186849050587,811.6432058667015,819.7224559747805
1731655252.1081457,813.4657603622474,808.9020152094039,809.6334486823474,820.2536132885718
1731655252.1109514,806.5508443176743,805.957847238413,807.4358658869093,819.6861503820697
1731655252.1115594,801.8028106769948,803.556392167318,805.2517181250059,817.674998278895
1731655252.112049,800.7710354193487,802.659946982419,803.4235849172879,815.3195385115872
1731655252.1159527,802.0570389345474,803.6055891573815,802.3915429295128,815.2278917880676
1731655252.119856,802.613225347904,806.0449960869654,802.5269709300558,819.7535980869706
1731655252.1200318,800.2497143257526,809.1568371035379,803.9665583353955,828.4057636850383
1731655252.1237595,795.5830070442772,811.9349699892318,806.5180070422986,837.0898501604868
1731655252.127663,791.9051209539191,813.4309395845145,809.6419458753869,840.6234340769288
1731655252.129878,792.8639321274544,812.986086129087,812.5356338276285,836.7334493129359
1731655252.1315663,799.5662843865201,810.4978298298394,814.3761199344262,828.0550307045096
1731655252.13547,809.369630010166,806.6046699979299,814.6895389390189,820.2974297929264
1731655252.1355703,817.4756890139274,802.5673854720379,813.6373028992689,818.0347371663962
1731655252.1393733,820.2392038204173,799.7600240719553,811.9609639316383,821.5302053507907
1731655252.1432767,817.6555702516584,798.9903769666843,810.5352796821716,827.052263062028
1731655252.1462972,813.0852176391429,800.0800646663146,809.8004045789434,830.2197725214595
1731655252.14718,810.482543743682,802.0344911615384,809.4856408211499,829.4696697536631
1731655252.148805,811.3971696243902,803.737536025695,808.8513524061907,826.7520726114049
1731655252.1510837,814.1465358051497,804.6826123165779,807.2994513397447,825.024232537092
1731655252.151109,815.7087129930669,805.1660800701715,804.9223851109167,824.9745240992687
1731655252.154987,814.5682948546091,805.7753606117079,802.5821943407509,824.1104269958768
1731655252.1588905,811.9265643328679,806.6184067955718,801.4323241424838,819.1286329531497
1731655252.162794,810.1705813678162,807.0133831223196,802.2026730291369,809.3496373395178
1731655252.1666477,810.0914097413619,805.987937068445,804.7541949268226,797.9742064369958
1731655252.1666975,809.6573943274611,803.2157970341565,808.1994332848991,789.9986577090771
1731655252.1677313,805.7643933371423,799.5816302343704,811.4375046006678,788.6775530703152
1731655252.170601,797.4581985316587,796.8119246259713,813.6603149426579,793.4870040878591
1731655252.1745045,787.5118822088137,796.3534105462285,814.5070075018222,800.9216641318735
1731655252.1784077,780.6642839185877,798.3180252202533,813.9276674994051,807.0761965876162
1731655252.1810348,779.9777088379692,801.3184437292525,812.0639406730127,809.9552615488136
1731655252.1821864,784.5547109132559,803.3676413592725,809.3224393909957,810.1545376917373
1731655252.1823113,790.555925783752,803.2159000337405,806.4754661254289,809.8643858225674
1731655252.1862147,794.4482045009756,801.1709210984883,804.4830211076486,811.0889246506155
1731655252.186658,795.5771602564437,798.8307640128137,803.9994218509373,814.2736242786482
1731655252.190118,796.0200739380668,797.9531937365656,804.9408246618107,818.1818180644552
1731655252.1940217,798.1752422164195,799.2965713810258,806.5506507733941,820.9458533342215
1731655252.1977248,802.3669481849967,802.2420270629535,807.9598106411955,821.3104645538184
1731655252.1979249,806.4774120557095,805.3669610067253,808.7395812351601,819.043096247353
1731655252.2018282,807.7443253015124,807.4104404877473,808.9559478567093,814.4492452943925
1731655252.2055843,805.0765523408747,807.8717418783101,808.7753325288039,807.8840193696454
1731655252.205732,799.9544828552122,806.9509606504586,808.1526946236013,799.990424580268
1731655252.2096353,795.2806704841745,805.1637031731241,807.0111459886205,792.306283489875
1731655252.2132635,793.2368751147378,803.1057964650714,805.7163411645544,787.1931329640676
1731655252.2135386,793.8628935564569,801.44748153497,805.2196103481722,786.6443865247375
1731655252.2157726,795.289191926025,800.85619473197,806.49107524139,790.8094977294554
1731655252.217442,795.2153786591666,801.6637371778306,809.5922690085257,797.6037982606907
1731655252.2213457,792.5067435187061,803.5294894699387,813.2287988656478,803.9248111739681
1731655252.2245111,787.98713817279,805.5204569373391,815.3429231710409,807.5779463792893
1731655252.2252493,784.0902125451526,806.6801212977872,814.4444142066649,808.3964665258222
1731655252.2288022,783.5224807072312,806.6676989737398,810.6919525879069,807.7629264548589
1731655252.2291524,787.5325491948682,805.9495833564765,805.8541068920534,807.0701257661503
1731655252.2330558,794.7931563427488,805.4052335072461,802.1375804932717,806.4201848288329
1731655252.2369592,801.842282420344,805.6825852844374,800.7680638009015,804.5341542970212
1731655252.2408628,805.1052848776577,806.7906840747634,801.3825038759508,799.8585859336928
1731655252.2434378,803.222794465177,808.1815472569896,802.5849587376807,792.0003484106514
1731655252.244341,797.9357692017726,809.195100972771,803.0711229614061,782.4200066554195
1731655252.2447662,792.7858295077871,809.5131843835105,802.3947755491321,773.8333809297752
1731655252.2486696,790.6285907366353,809.3165470779667,800.9470821949582,768.6848644842541
1731655252.2505105,791.9029507551577,809.0802128165104,799.4415954313218,767.7668592618303
1731655252.252573,794.8853355783748,809.1859500258188,798.4446948679465,770.0014115343544
1731655252.2564766,797.4091656437434,809.6220477000173,798.2022498814351,773.5239329822966
1731655252.2598794,798.3957076707497,809.9566697578606,798.6650683301806,777.1795931620617
1731655252.26038,798.0888359655366,809.5965957342114,799.5616512156774,781.2406570865598
1731655252.2623644,797.3034972136819,808.1833560107059,800.4983890718271,786.8421809979807
1731655252.2642834,796.6577659056474,805.902555491181,801.1081152342917,794.6828977994144
1731655252.2681868,796.3206090467057,803.5152709273331,801.1832926019126,804.0432832143651
1731655252.2720902,796.1694046960031,802.0468401084511,800.7063289004786,812.8171188078622
1731655252.275418,796.0350694583414,802.239272184358,799.7990696501671,818.4893335354159
1731655252.2759938,795.8349001502937,804.029713743338,798.6950994010851,819.4448519271202
1731655252.2798972,795.5751957341305,806.3873874527211,797.7569170578155,815.8731588108762
1731655252.281291,795.2966098294614,807.7301360454063,797.432358121488,809.7252667374947
1731655252.2838006,795.0291436270969,806.8090557862063,798.0759802852292,803.6277155942759
1731655252.2852485,794.7794403347634,803.5545231944523,799.7359350055793,799.3247451755661
1731655252.287704,794.5399141413503,799.257905910847,802.0993890685754,796.7266069131728
1731655252.2909567,794.3015639320972,795.8416163052667,804.6697532778618,794.3937354113729
1731655252.2916076,794.0603656399854,794.6466255731775,807.0420196212399,791.1984661989991
1731655252.295511,793.8169108221729,795.6010346541527,809.0580018226105,787.8047029923397
1731655252.2994144,793.5733682701816,797.4077617130671,810.7267916503492,786.5792643651496
1731655252.3002176,793.33119349962,798.6199565198119,811.986785005071,789.8030141282618
1731655252.3033178,793.0905908537267,798.7632688375603,812.5192995672176,797.5529962355413
1731655252.3064952,792.8510650149925,798.6171848619852,811.8042881039069,807.0313696673579
1731655252.3072212,792.6120962680584,799.4564225697601,809.4318417450747,814.0355668905903
1731655252.3111248,792.3734472420554,801.9117032262728,805.4643945078673,815.5926024530023
1731655252.3150282,792.1351197747172,805.3936711742912,800.569856629267,811.8586308744079
1731655252.3189316,791.8971881984122,808.4970844319926,795.8058367983115,805.9061140005203
1731655252.3191442,791.6596829878262,809.9763873639051,792.1964935416611,801.5704311959707
1731655252.319986,791.4225678048238,809.507465786924,790.3618622721989,800.937981441695
1731655252.322034,791.1857708586248,807.7638387111998,790.3505866071223,803.2691512968885
1731655252.322835,790.9492219053492,805.9180782371366,791.6603510060432,806.0066671206685
1731655252.3267384,790.7128724873161,804.9934249584336,793.3997382406685,806.9192638583706
1731655252.330642,790.4766992926511,805.4094128670896,794.6121267962624,805.6496230169186
1731655252.3345454,790.240694562612,806.8382920276498,794.7458801401784,803.5957807363327
1731655252.3375726,790.0048432663629,808.3581959064443,794.0603366754649,802.5380324316789
1731655252.3380709,789.7690916259904,808.8589142944273,793.6214050276127,803.3667159992519
1731655252.3384488,789.5333310951323,807.5932014797448,794.7163654331458,805.8663334017632
1731655252.3423522,789.2974381170987,804.6332710747765,797.9628854287336,809.33795604355
1731655252.3462558,789.0613874244428,800.9363740364578,802.7313635504048,813.177695234879
1731655252.3501592,788.8253744569345,797.906452577853,807.3777943468277,816.9393764042023
1731655252.353111,788.5897825304465,796.6857604848884,810.2196349195885,820.2081383965731
1731655252.3540626,788.3548365464294,797.6185332436339,810.614062086597,822.7791328043187
1731655252.354724,788.1200301713382,800.1902380868589,809.3847484067459,825.0321969411675
1731655252.3569975,787.8838581687692,803.3958773142353,808.2908285211338,827.8684827102247
1731655252.357966,787.6446477465473,806.2503313786663,808.9067286173226,831.8990860912367
1731655252.361869,787.4027388513629,808.1709027226237,811.682675347714,836.4687183880033
1731655252.365773,787.1626351017827,809.1098029783959,815.7840749462475,839.519930199854
1731655252.3686495,786.9319647560344,809.4225982886678,819.7046771896019,838.6752250427485
1731655252.3696764,786.7145462983652,809.5270810493033,822.1098277975007,832.7996797595762
1731655252.3735795,786.4998673203202,809.5206555544161,822.3284789061521,822.8040929640927
1731655252.375924,786.2596630336608,809.0305054644413,820.3451601316111,811.0670610144116
1731655252.3774831,785.9664470432988,807.4791321308447,816.5825561271957,800.042069809499
1731655252.3813868,785.6375949493738,804.6143282731965,811.7939759852031,791.2642932610249
1731655252.3841884,785.3791564975334,800.8596269507007,807.0531438839763,785.4325229665512
1731655252.38529,785.3787690775223,797.1388850197834,803.5718731413623,783.0445874355879
1731655252.3891935,785.8317468098479,794.2951104223237,802.2199842461797,784.5206451656538
1731655252.3894618,786.8929923174259,792.6162641446449,803.0131484613975,789.5273787853787
1731655252.3930967,788.7642594166249,791.8895637404165,805.0143439078705,796.4254659127329
1731655252.3948507,791.7828554148736,791.8987227614,806.8261972482877,802.8812894787967
1731655252.3970003,796.1827172862319,792.8462002368648,807.3844002448424,807.4265152473946
1731655252.3997269,801.5592734306908,795.2511303352873,806.5362263432753,810.5269320776173
1731655252.400904,806.6828721255516,799.3840417213656,805.0671927423735,814.0125576824573
1731655252.404807,810.2075939575374,804.7610590381782,804.2165094277427,819.3059055403379
1731655252.4087107,811.8499884605487,810.1857541102266,804.9975411282312,826.071885853988
1731655252.412614,812.8565594909729,814.3324162770638,807.6762217441301,832.4536568332061
1731655252.4137774,815.033780299439,816.3973293517942,811.6142981286057,836.5109980570062
1731655252.4152656,818.944249640213,816.3487029987937,815.4963185405037,837.47951830179
1731655252.4165175,822.8125766442894,814.7238804701606,817.8329990010783,835.8945250836257
1731655252.4204211,823.3286516544279,812.2770137543835,817.5700949770248,832.7982689096168
1731655252.4241996,818.0704446644957,809.7274730582669,814.5821730936894,828.9335538494593
1731655252.4243245,807.7957624638192,807.5781242597839,809.8126108951873,824.5567413710947
1731655252.428228,796.6418771951411,805.9065456250121,804.9253234699803,819.7972415308395
1731655252.4308045,789.7442864492225,804.2791840783569,801.5795254763761,815.0595148647036
1731655252.4321313,789.8996504339643,802.0808392498755,800.6827052643349,811.0521007952763
1731655252.432704,795.8168736456391,799.2122967269983,802.0214891370166,808.4239376010526
1731655252.436035,803.2860031757965,796.5566044633287,804.4549470865137,807.3426183384179
1731655252.4399383,808.2489704461182,795.5699477272171,806.5244823049092,807.3972885152817
1731655252.4438417,809.346256331896,797.100059688272,807.1230864393737,807.906899216894
1731655252.4463427,808.1862126296097,800.4133272311351,805.9020954020334,808.343400178188
1731655252.447745,807.5491925690641,803.4367758871235,803.294837229659,808.5278324585452
1731655252.4516306,809.2066716009836,804.2118336630764,800.223331801668,808.5387342201966
1731655252.4516487,812.9478316553254,802.4314381172089,797.6448968180105,808.517305857614
1731655252.455552,817.1669633721518,799.7745685133519,796.1362412916623,808.5437781251217
1731655252.4589374,820.1622314015472,798.7138142513826,795.7158853407274,808.6221292780143
1731655252.4594555,821.0136454084231,800.6925634370763,795.9897817094432,808.7210833820434
1731655252.4618814,819.5669987023456,805.0490364083654,796.4829882543597,808.8137348842193
1731655252.4633589,815.9531531882348,809.485330551795,796.9006511635599,808.8918410380979
1731655252.4672625,810.4143843355644,811.7230857711579,797.1781242984384,808.9603011584014
1731655252.4705572,803.7393060931498,811.106975316117,797.3798833468791,809.0265710785404
1731655252.471166,797.8043224843273,808.9620748539022,797.5822927609768,809.0945154466394
1731655252.4750693,795.357588316426,807.4732058981598,797.8180291823966,809.164008988018
1731655252.47742,798.6889897535444,807.9997582663198,798.0802194787682,809.2332579651564
1731655252.478973,807.898601804025,810.1310073107569,798.349168207103,809.3008402632217
1731655252.482876,820.1793919427897,812.1110165742502,798.6119345308828,809.366349833689
1731655252.4867797,831.0390937554871,812.1601333023849,798.8665514235024,809.4300388087388
1731655252.4894838,836.8789478814981,809.6606724222927,799.1169905863436,809.4922528384828
1731655252.4906833,837.0990232122281,805.4901521532072,799.3672902582331,809.5531306958045
1731655252.4929588,834.1289367000976,801.4729058035432,799.6189905812871,809.6126048086915
1731655252.4936752,831.3791696980377,799.3663815942473,799.8715925363457,809.6705294081435
1731655252.4945865,830.7195552277581,799.9067660346469,800.1240295440087,809.7267817020182
1731655252.49849,831.4084855723423,802.4086489122336,800.3756547625471,809.7812882325572
1731655252.5023932,831.2087921489291,805.2216895283331,800.6264032877549,809.8340067109425
1731655252.5062969,828.6691011083186,806.8468478750146,800.87649834744,809.8849077945918
1731655252.5084105,824.6122566480158,806.9477411406826,801.1261451172322,809.933973184774
1731655252.5084972,821.5794017810449,806.4536745672308,801.3754106380616,809.9811932628959
1731655252.5102005,821.7759804678843,806.6587928953677,801.6242588643023,810.0265382717268
1731655252.5141037,825.329841801501,808.0866013765848,801.8726304512672,810.0699043820214
1731655252.518007,830.2479085729493,810.0695928717786,802.1204916011162,810.1110877548017
1731655252.5219104,833.8809697416677,811.324182382649,802.367838596567,810.1498702787728
1731655252.524036,834.5601647805564,810.959003061678,802.6146802815284,810.1862441847164
1731655252.525814,832.2352455581706,809.0982594879729,802.8610228372839,810.2206324511662
1731655252.5273373,827.915826378763,806.7270024640868,803.1068670200657,810.2537768230242
1731655252.5284133,822.5529213198251,804.980668513012,803.3522142372345,810.2860139131207
1731655252.5297174,816.2913513461835,804.4309412461546,803.5970713564295,810.3161798357165
1731655252.5336208,808.7501702181092,804.8402600438911,803.841445507778,810.3412434407655
1731655252.5375242,800.1676956720496,805.4920761113913,804.0853286984161,810.3581683155857
1731655252.5395746,792.2940012141916,805.783561340969,804.3286855837101,810.3682534663876
1731655252.541428,787.7923470740637,805.5929534681658,804.5714676016196,810.380930500705
1731655252.5453312,788.1630545436155,805.185825082814,804.8136669689188,810.4107756982854
1731655252.5462637,791.8933951101069,804.869046844549,805.0553836496076,810.4630778425598
1731655252.5492346,794.8624755516065,804.758535354017,805.296824529863,810.5137545990043
1731655252.553138,793.2760102969654,804.7918601710936,805.5381461204547,810.5052975363045
1731655252.5551133,786.9906448579836,804.8576637033474,805.7791621970706,810.3858459952412
1731655252.5570414,780.3354553593063,804.8894700457492,806.0191624500402,810.1916246489142
1731655252.560945,779.3745842263095,804.8804364060737,806.2572530839033,810.1098888249053
1731655252.563151,787.4972033851516,804.8532370158415,806.4934165589938,810.4033546582306
1731655252.5648484,802.7065692688815,804.8289366888292,806.7297037888565,811.1171094904737
1731655252.5651903,818.7173740371846,804.8147024882408,806.970001219333,811.689782483468
1731655252.5687518,829.0342516703607,804.807233263128,807.2168204017762,810.8588060647539
1731655252.5706518,830.9592789253992,804.8007835773944,807.4658256676477,807.2684823634177
1731655252.5726552,826.6552288753234,804.7921427530033,807.7030494981477,800.6766562205715
1731655252.5765588,820.7535537679678,804.7811921151573,807.9123934563876,792.891325513139
1731655252.5804622,816.6650256689298,804.7692128206236,808.0961072118779,787.4095897526663
1731655252.5841167,814.5980951896402,804.7572839508586,808.2955449712117,787.6275097018566
1731655252.5843656,812.6221874531204,804.7457202613152,808.5819435821226,794.706912668548
1731655252.5861905,809.3910343749116,804.7343080928151,808.9894757381942,806.5585905815232
1731655252.588269,805.8188425815957,804.7227369416909,809.4070632772637,818.647137514471
1731655252.5921724,804.2351661157128,804.7108454684268,809.5184063156678,826.1522304221097
1731655252.596076,806.0227105398147,804.6986340339884,808.9010418959435,826.2458716535663
1731655252.5978887,810.0414479864213,804.6861690549853,807.2724874258854,819.2278608758899
1731655252.5999794,813.2092882046804,804.6735006303427,804.6892592567532,807.9723893974593
1731655252.601729,812.6315387202548,804.6606373517482,801.5249551853293,796.190818902266
1731655252.6030436,807.5408690824497,804.6475614347513,798.2973911405215,786.7043362466965
1731655252.6038828,799.7194692154857,804.6342517114917,795.5277202815289,780.7078734237261
1731655252.6077862,792.3040233270298,804.6206956061737,793.6528416337343,778.1088865490858
1731655252.6116896,787.8998402639338,804.606888874523,792.9050118043176,778.262001436844
1731655252.6155932,787.2342161233403,804.5928302859979,793.2144569306228,780.3912444291144
1731655252.6172676,789.1245345118473,804.5785175736529,794.2936429970516,783.5355742755409
1731655252.6194966,791.6045796495229,804.56394659373,795.8768587808714,786.3707587664416
1731655252.6219702,793.2534811788672,804.5491123686458,797.8580395761693,787.365022150628
1731655252.6234,793.7697570928372,804.5340099389173,800.1608975612961,785.4511865502507
1731655252.6273034,793.6287329801394,804.5186340001032,802.5075079263744,780.9375643656359
1731655252.631207,793.4115668919326,804.5029779345327,804.393717431064,775.947991940761
1731655252.6326263,793.4048317488412,804.4870340079415,805.3456004110465,773.6545779546695
1731655252.6328063,793.5956332018429,804.4707962036223,805.2119532157354,776.3229062000268
1731655252.6351104,793.8524185395437,804.4542647465163,804.2159417409413,783.4263243977782
1731655252.6390138,794.0754662073854,804.4374476309406,802.7488483082012,791.5867861512442
1731655252.6408968,794.241236301992,804.4203528165879,801.1249376325684,796.8735167702068
1731655252.6429172,794.3736886353819,804.402970100084,799.4991233888944,797.7968568033049
1731655252.6468203,794.5022287418395,804.3852554164598,797.9625919943759,796.388946214648
1731655252.648345,794.6402147013521,804.367143679803,796.698264899785,796.3475655735364
1731655252.6507242,794.7857414686816,804.3486093754246,796.0758554536269,799.9328881908672
1731655252.6546276,794.9315139196777,804.3297501786244,796.608595973111,806.3886007232094
1731655252.658531,795.072458571819,804.3108026634409,798.7295105098815,813.0419118554765
1731655252.6598234,795.2076076710438,804.2919774505725,802.43628131524,817.6991827823343
1731655252.6624343,795.3383443117566,804.2731147647603,807.0144337492659,820.0601596796763
1731655252.6638834,795.4661800132268,804.2534254754848,811.1253663081142,821.2317273537541
1731655252.666338,795.5917200156197,804.2318154228666,813.3672927595402,822.3282526777446
1731655252.6673644,795.7147856325328,804.2081197727442,813.0415698165783,823.6854744638836
1731655252.6702414,795.8349575102953,804.1847354718204,810.5942398305349,825.2037471176238
1731655252.6741447,795.9519603810757,804.1670383268234,807.348461057319,827.1060267636406
1731655252.678048,796.065739302478,804.1610783888283,804.6641384219406,830.1290783856081
1731655252.67875,796.1763556747244,804.1695616428917,803.1429309805997,834.8537501301673
1731655252.679422,796.2838707855133,804.1897763156808,802.4815165523644,840.7331309172416
1731655252.6819515,796.3882967774695,804.2156665715515,802.02751100586,845.7244155781625
1731655252.6858552,796.4896072499517,804.2418508267288,801.4993207113795,847.0674496707826
1731655252.6897583,796.587766885032,804.2659263689369,801.2451506478645,842.8896022523311
1731655252.693662,796.6827507543619,804.2880522822178,801.883945077301,833.5506523446273
1731655252.6949608,796.7745471410691,804.3093169955215,803.7078140982799,821.6825251024129
1731655252.6975653,796.8631515256772,804.3305039308844,806.3548599809694,810.834435558666
1731655252.697677,796.9485605436777,804.3517671804439,808.9666273965746,803.6901737990869
1731655252.7014687,797.030769717113,804.3728904691369,810.6636470146511,801.0256663972456
1731655252.7021022,797.109774235326,804.3936316024017,810.9956875489379,801.8632629950189
1731655252.7053723,797.1855705670474,804.413887325382,810.0989770614768,804.4416583244482
1731655252.7092755,797.2581574300599,804.433677621206,808.5154589968713,807.3003498348107
1731655252.7104993,797.327535885356,804.4530620943241,806.8501037867798,809.9163540117443
1731655252.713179,797.3937090016339,804.4720793714465,805.5151327312349,812.6018585334249
1731655252.7166033,797.456681549225,804.4907342486168,804.6803899198342,815.7296993664067
1731655252.7170825,797.5164599013975,804.5090133883202,804.3454389041987,818.8538973918803
1731655252.720986,797.5730520889634,804.5269034793654,804.3868003915703,820.5958621352389
1731655252.7248895,797.6264678881871,804.5443991086088,804.5660993709528,819.7212476762537
1731655252.726038,797.6767188686489,804.5615012924687,804.6173510910529,816.7106314852844
1731655252.728793,797.7238183936014,804.5782129117769,804.4616567055573,814.3359242148101
1731655252.7326963,797.7677815983404,804.5945356684639,804.3892131365583,816.2961303924181
1731655252.73553,797.808625370342,804.6104695982878,804.9714244644042,824.6050959043804
1731655252.7366,797.8463683393335,804.6260139869884,806.6626986081288,837.707353974719
1731655252.73684,797.8810308737062,804.6411683174949,809.3520836274568,850.9583380515114
1731655252.7405033,797.9126350769138,804.6559326388614,812.2294743243572,859.327958117762
1731655252.741577,797.9412047802891,804.6703074563077,814.1275702947905,860.4332023709567
1731655252.7444067,797.9667655320507,804.6842934842738,814.1571831109015,855.6982963643401
1731655252.74831,797.989344583672,804.6978914949995,812.2359409960701,848.8253356331209
1731655252.7522137,798.0089708745594,804.7111023028517,809.1658674985038,842.7876730539109
1731655252.7544563,798.025675015506,804.7239268168329,806.2006157976926,837.6912757534773
1731655252.756117,798.0394892715512,804.7363660895984,804.3740796188538,831.1658875246254
1731655252.7571151,798.0504475452732,804.7484213343295,804.0150049423336,820.9027117592383
1731655252.7600205,798.0585853609165,804.7600939172049,804.7271721071616,807.166416142754
1731655252.763924,798.0639398472656,804.7713853440218,805.7725219352228,793.118084172942
1731655252.7678273,798.0665497140841,804.7822972525737,806.5282825965226,782.668092566142
1731655252.7715778,798.0664552172049,804.7928314121554,806.7125059508411,777.7198027687623
1731655252.771731,798.0636981152231,804.802989726316,806.3329020190328,777.1424625295982
1731655252.7726538,798.0583216348487,804.8127742351437,805.5429433356896,778.2012171796953
1731655252.7733831,798.0503704700544,804.8221871157664,804.5794807713315,778.9863291816703
1731655252.7756343,798.0398908224037,804.8312306816017,803.7681551026559,779.6279232874106
1731655252.7795377,798.026930437888,804.8399073813553,803.4554835972838,781.366518875969
1731655252.7834413,798.0115385394193,804.8482197983387,803.8046382405987,784.589880738282
1731655252.7873445,797.9937655700153,804.8561706501457,804.5824899305162,787.8372931173507
1731655252.7881925,797.9736628222097,804.8637627884768,805.1567148321574,788.7612996436452
1731655252.791248,797.9512822928134,804.8709991989385,804.8025732398173,786.169403347249
1731655252.7923098,797.9266772224336,804.8778830007652,803.1702991977936,781.3129654258046
1731655252.7951517,797.8999033911535,804.884417446475,800.5833507601837,777.32262981343
1731655252.7990549,797.8710202352711,804.8906059214595,797.900465512318,777.2699320079054
1731655252.8029585,797.8400898676713,804.896451943487,795.9947741153246,782.3157831652602
1731655252.8037312,797.8071725863477,804.9019591621575,795.2425596725589,791.1413074970011
1731655252.8063157,797.7723206810401,804.9071313584866,795.4175026892971,800.8534721756884
1731655252.8068616,797.7355772209393,804.9119724448731,796.002349124969,808.6822473306412
1731655252.8107653,797.6969881286082,804.9164864655053,796.5772514983694,813.43710961628
1731655252.8112364,797.6566275462222,804.920677596708,796.9872046456003,815.8373020256729
1731655252.814669,797.6146171833338,804.9245501461553,797.2751006198117,817.4635936015205
1731655252.818572,797.5711034659178,804.9281085501087,797.5379380205147,819.095400871725
1731655252.8192697,797.5261696540678,804.9313573696033,797.8340170607511,819.8986148850945
1731655252.8224754,797.4797243410356,804.9343012892782,798.1681421535487,818.3873354807205
1731655252.8263793,797.4314970139068,804.9369451236242,798.5189839442676,814.4106372527586
1731655252.830163,797.3812890713681,804.9392938309908,798.8672655903028,810.1695921432568
1731655252.8302824,797.3294541877922,804.9413525248909,799.2066265596043,808.9286936528707
1731655252.8341858,797.277213876175,804.9431264622147,799.5402316195141,812.2443771875912
1731655252.8348083,797.2261308249967,804.944620994505,799.8733647002487,818.1268932939639
1731655252.8380892,797.1763883064928,804.9458415038097,800.2089222872008,821.9737080077953
1731655252.8410535,797.1247930536692,804.9467933955989,800.5469682011175,819.824778162648
1731655252.8419926,797.0650380794184,804.9474822344844,800.8863120024237,811.4880680673141
1731655252.8458962,796.9928417578423,804.9479140146336,801.2259709762897,801.0282438862567
1731655252.8490896,796.9149627434019,804.9480953502544,801.5656687562821,794.0277398108262
1731655252.8497996,796.8541326445152,804.9480332030339,801.9056084655932,793.4713975859632
1731655252.850347,796.8373374712066,804.947733928365,802.2460756093964,797.285207102156
1731655252.853703,796.8624466643342,804.9472021230885,802.5872152400076,799.5347281286436
1731655252.8576064,796.8631385105745,804.9464406864048,802.9290223833987,794.636825353959
1731655252.86151,796.7213431436903,804.9454536146752,803.2714300353553,781.5588223159124
1731655252.8654134,796.373666651447,804.9442510939148,803.6143860136625,764.8372716264493
1731655252.8658855,795.9864278881874,804.9428525350446,803.9578807389805,751.6514277304083
1731655252.8680162,796.0502432763568,804.9412804106379,804.3019391422768,747.2082507284458
1731655252.8693168,797.1941406777164,804.939541650599,804.6465983366938,751.7950588538484
1731655252.8732202,799.705200922854,804.9376071383853,804.9918798716665,761.2863497153829
1731655252.8757913,803.099125308331,804.9354165944347,805.3377611875087,770.262977916094
1731655252.8771236,806.2180853079582,804.9329354249953,805.6841657831668,775.3753173757741
1731655252.8810272,807.9495541410902,804.9302498296939,806.0310066316846,776.9212110145162
1731655252.8814242,808.0659419071692,804.9276126623929,806.3782956684893,778.0428037971424
1731655252.8849306,807.4807584333611,804.9253080504885,806.726254074974,782.3510192613304
1731655252.8869429,807.6430735329732,804.9232911516131,807.0752668342386,791.5374315521478
1731655252.888834,809.5028988928781,804.9208284425683,807.4255405673026,804.425295676968
1731655252.8927374,812.8605366090479,804.9166621537584,807.7765668819547,817.9430218137027
1731655252.8966408,816.6064185935016,804.9101551009469,808.1269123158291,829.138432243781
1731655252.896963,819.6106118992249,804.903052185714,808.4750732997076,836.6250600195342
1731655252.9005444,821.5062537577381,804.9001158376819,808.821566397928,840.5192473189509
1731655252.9044478,822.7913746972803,804.9062176655276,809.1708542629315,841.4189607034757
1731655252.9058695,824.312031081826,804.9194124635657,809.5300898785484,839.7578275358986
1731655252.9083512,826.6210877952856,804.924731021851,809.9022842629025,836.1485396507373
1731655252.9105291,829.6045494592405,804.8986615940909,810.2764332666068,832.0123785786569
1731655252.9122546,832.4474691331224,804.8319626385138,810.624925608403,829.397110719337
1731655252.912501,833.9090855393939,804.7618947935774,810.9216694734673,829.8004459837496
1731655252.9161582,832.9389065427168,804.7793074432384,811.1821036467253,832.972340505331
1731655252.9200616,829.4964623056031,804.9662938192871,811.496060089424,836.8296674839198
1731655252.923965,825.0047373753861,805.2610095061269,811.9965313373311,838.6588799350992
1731655252.924796,821.7628081772754,805.3436022249739,812.7256692271789,836.6894950341353
1731655252.9278684,821.3664606028491,804.7187942751509,813.4594028452613,830.9065539098704
1731655252.92804,823.2611230818695,803.0796794541659,813.680776525697,822.7161432871657
1731655252.9317718,824.7931552617299,800.7133152062117,812.8603322328823,813.9852952563648
1731655252.9356754,823.0020513750213,798.4921251800612,810.9001890717421,806.2478141927754
1731655252.9395788,816.846558716739,797.3273752369903,808.3157457389409,800.4458069489127
1731655252.9434822,808.0959629010374,797.5429419295764,805.8998842802862,797.0343403711734
1731655252.9435787,800.1988613237822,798.6965580983173,804.1514671167542,796.1080023630483
1731655252.9437227,796.0226337597463,799.913411142955,803.0403085534564,797.3925401450451
1731655252.945267,796.0865036621966,800.4336368011336,802.3459300018046,800.1683549443383
1731655252.9473855,798.4185156999104,800.0537880379457,802.1781151523588,803.2800025141938
1731655252.9512892,800.0526799620382,799.2529405643286,803.0477999821567,805.3654621907084
1731655252.9551926,799.1759221157199,798.9280126852744,805.3022865216416,805.3275479972863
1731655252.959096,796.4805687920799,799.8633807894544,808.4392577505233,802.851577221084
1731655252.9591172,794.6638740886548,802.248423670928,811.0439100089632,798.5965016597557
1731655252.962649,796.2372802088341,805.5423680435802,811.5814298855456,793.8178765923533
1731655252.962999,801.1813210630219,808.7442591581856,809.4890436137956,789.6240188862537
1731655252.9669027,806.3679141751576,810.8736389676983,805.6848969018438,786.4103132149926
1731655252.9708064,807.4930191512835,811.3965964430322,802.0448150172945,783.8732647535546
1731655252.974656,802.2844583528445,810.4135161684056,800.2076854520966,781.5142701108825
1731655252.9747095,792.5942722098048,808.5434025724512,800.5750131930834,779.21257891442
1731655252.9786131,783.683359564872,806.570315734243,802.1938072957317,777.5241686918597
1731655252.9800048,781.0420844061911,805.0570810879743,803.5478672422672,777.5995027558893
1731655252.981576,786.9022177455605,804.173028236989,803.6555530647643,780.7218722873989
1731655252.9825163,798.8774654829779,803.8238678651587,802.7027957557502,787.5392616747463
1731655252.9864202,811.7079776896404,803.9166341500097,801.799375697157,797.3079868528688
1731655252.9901946,820.8174594501203,804.4933730594785,802.0767688764021,807.7334375412577
1731655252.9903235,824.9794239045696,805.629315922311,803.8195293205383,815.8409816083109
1731655252.9942267,826.1421167155861,807.2331180427796,806.2841760415334,819.5928459461949
1731655252.9981303,826.9447832186987,808.9587851395379,808.3046719444814,819.1833361095263
1731655253.0005026,828.4207912184971,810.3111186743434,809.143217927128,816.9022241138392
1731655253.0020337,829.8856158310588,810.8696833942901,808.883519158802,815.4735330189615
1731655253.0057333,830.6199876386751,810.4938459398049,808.141640916782,816.1292902974072
1731655253.005937,831.2116972450559,809.3855292576068,807.4954127206444,818.0414526545206
1731655253.0098407,833.0180034779979,807.9510013728802,807.159800539581,819.5442334771603
1731655253.013744,836.3218910414009,806.533465336362,807.0454965505222,819.8854322594208
1731655253.0147426,839.1519749763883,805.2142187692556,806.9798656710735,819.7956115010719
1731655253.0176475,838.147021834553,803.8472351194883,806.8596039083093,820.4698264104424
1731655253.0194292,830.9689423641282,802.2867791389194,806.6748626924949,822.2130062021278
1731655253.0212717,818.3321858256501,800.601808952727,806.4618185255745,824.1968430276416
1731655253.0215511,803.9244245677311,799.1224970269492,806.2537215852892,825.383526757987
1731655253.0254543,792.1783975781904,798.3368665037103,806.0617465623717,825.4362383477337
1731655253.029358,785.6409583729029,798.723560086568,805.8805758430898,824.7581946946794
1731655253.0332613,783.9570091828564,800.5384145511157,805.7011109240557,823.9393727441243
1731655253.0368104,784.931937792362,803.5582260400852,805.518300742082,823.3144631707324
1731655253.0371647,786.3729896149757,806.9250535883252,805.3319782991357,822.9063609216653
1731655253.0383558,787.1899060314678,809.3400593923191,805.1441688716774,822.5919537730479
1731655253.0410683,787.351740008037,809.6798772683734,804.9565633959629,822.2630698149997
1731655253.0449717,787.2710637917644,807.7166052114108,804.7696415201023,821.8858191310469
1731655253.048875,787.2831801776359,804.3956510139667,804.5830516616967,821.4795223769578
1731655253.0494804,787.477387448572,801.354683289127,804.3962938895662,821.0743518616803
1731655253.052349,787.780384937702,799.9217050097001,804.2091062890286,820.6863256575989
1731655253.0527785,788.0944411654154,800.2669919173445,804.021482474102,820.31539652049
1731655253.056682,788.3722811010206,801.3338117828155,803.8335196262824,819.9546653585692
1731655253.0572824,788.6178234620764,801.6345108383218,803.6452886505151,819.5986206248874
1731655253.0605855,788.854534443464,800.3509733996985,803.456794978895,819.2458111623358
1731655253.064489,789.0996191158109,797.933823190172,803.2680028383893,818.8974564374693
1731655253.0678875,789.3568426280158,795.7878860009452,803.078871644148,818.55517895491
1731655253.0683925,789.6218427496489,795.3484937901306,802.8893748760247,818.2197762152174
1731655253.0722957,789.8894914954752,797.2627269178082,802.6994996430034,817.8912067978212
1731655253.0761993,790.1575375532948,801.1619118623136,802.5092382304259,817.569106984132
1731655253.0762093,790.4263741690294,805.9571237445306,802.3185814920458,817.2532126027106
1731655253.0801027,790.6972866970796,810.2879802274283,802.1275171693866,816.9434765399526
1731655253.0834262,790.9711416782635,812.9047937173602,801.9360313823717,816.6399819986405
1731655253.084006,791.2480848222461,813.0260659053675,801.744110559179,816.3428221417103
1731655253.0842185,791.5278613650212,810.6975242392214,801.5517423693016,816.0520404714384
1731655253.0879097,791.810203771395,806.940446245131,801.3589156789428,815.7676345643671
1731655253.0918128,792.0950061313872,803.4178833723473,801.1656201431153,815.4895847272664
1731655253.0951357,792.3822979109252,801.6715042873057,800.9718458846608,815.2178754961185
1731655253.0957165,792.6721479010151,802.3914499650981,800.777583333329,814.9525006298551
1731655253.0989647,792.9645982539174,805.2058241990666,800.5828231270647,814.6934578036695
1731655253.09962,793.2596527276188,809.0459403040519,800.3875560927872,814.4407420132644
1731655253.1035233,793.5572955272482,812.7031258850113,800.1917735158017,814.1943424086039
1731655253.1074266,793.8575113041293,815.1871160346847,799.995467848938,813.9542427320961
1731655253.1113305,794.1602928615883,815.848781170989,799.798633518382,813.7204236358042
1731655253.1140623,794.4656387284123,814.4735569868354,799.6012668060199,813.4928651355788
1731655253.1145034,794.7735485186556,811.4283209430326,799.403363734578,813.2715476439041
1731655253.1152337,795.0840214888916,807.6881343225731,799.2049163605797,813.0564500418543
1731655253.118956,795.3970582552103,804.5482923200587,799.0059107491685,812.8475443717539
1731655253.119137,795.7126615403354,803.0814187396958,798.8063318160005,812.6447901644517
1731655253.1230404,796.0308316245508,803.6496205911317,798.6061771191411,812.44813569132
1731655253.1269438,796.351557011937,805.780906067705,798.4054714313528,812.2575332306124
1731655253.130042,796.6748091082948,808.4766912871709,798.2042619453755,812.0729647372136
1731655253.1308477,797.0005548294712,810.7388289851995,798.0025753883859,811.8944545239183
1731655253.1329887,797.3287926006341,812.0009529068894,797.8003488546581,811.722033406522
1731655253.1347508,797.6595900635915,812.2706675497727,797.5974000351916,811.5556421050703
1731655253.1386542,797.9930706210001,811.992433910366,797.3935323757684,811.3950337573759
1731655253.1425576,798.3293003966018,811.7458559289634,797.1888012742367,811.2398160836404
1731655253.1455808,798.6681078664124,811.8921510546518,796.9837679611899,811.0897571741235
1731655253.1464612,799.0090091026296,812.3065121031469,796.7793556495761,810.9452601136591
1731655253.1503646,799.351487413451,812.3956668918526,796.5759894553402,810.8075404914631
1731655253.1519156,799.6956909531123,811.502498669779,796.3723202846306,810.6778546611085
1731655253.153694,800.0430885927325,809.4660003348279,796.164835937673,810.5556414610144
1731655253.154268,800.3960752099231,806.8503264906958,795.950101903197,810.4368375080355
1731655253.1581714,800.7557065501433,804.5789084129294,795.7298634993341,810.3150455228493
1731655253.1611197,801.1183753705126,803.2846231384694,795.5153903225304,810.1876423695966
1731655253.1620748,801.4748566284474,802.966901273267,795.3237493400155,810.0645015248369
1731655253.1659784,801.8162533899248,803.1837049828515,795.1607388770398,809.9701220184697
1731655253.1698818,802.1473572865721,803.4737100467645,794.9976633729905,809.9273337982354
1731655253.1708422,802.4978474513549,803.6134117618013,794.767743677684,809.9218621472866
1731655253.1737852,802.91221250692,803.6074767043968,794.4140524580473,809.8739792553312
1731655253.176658,803.4049190230008,803.551271219218,793.9895609544225,809.6681825313386
1731655253.1776886,803.900196574124,803.5181055748365,793.7388932722528,809.2757408685951
1731655253.181592,804.2244915679469,803.5255267585787,794.0368457418439,808.9182634341764
1731655253.1854956,804.2352714056566,803.5559903161958,795.1389321886338,809.0984871199281
1731655253.1884315,804.0885622577235,803.5877748697992,796.9450953819752,810.3067889714026
1731655253.189399,804.4672603655965,803.6109131434915,799.0914148073387,812.4903484727195
1731655253.1897688,806.4691102581696,803.6267058724934,801.3426319654027,814.8642891765924
1731655253.1921966,811.0377818871278,803.6404756157326,803.8250608310855,816.6238242364166
1731655253.1933024,818.2665395216293,803.6559401837594,806.7854736911321,818.0598885194767
1731655253.1972058,827.0943357676219,803.6737971098829,810.1360493751669,820.649686018984
1731655253.2011094,835.5718569143378,803.6930023520862,813.3007879110689,825.5332483756952
1731655253.2050128,841.4947210030791,803.7124079920618,815.5618794881167,831.718925840295
1731655253.2077353,843.197724115909,803.7315309344602,816.6018627986683,836.0247353415683
1731655253.2086954,840.3174124010968,803.7504677807308,816.723034053953,835.2783247778217
1731655253.2089162,834.085725085852,803.7694959030866,816.4929710911599,829.1306253750852
1731655253.2128196,826.7213556140596,803.7887889084667,816.107696232905,821.0319148936084
1731655253.216723,820.153148120255,803.808359064662,815.0930357924261,816.2406554440242
1731655253.2206266,815.0423694990989,803.8281332616189,812.7152238574963,818.1333369246494
1731655253.2231696,810.9020403170649,803.848038913609,808.8067579489684,825.5873761910638
1731655253.2232738,807.0723248639664,803.8680404669699,804.2519989555041,833.5278933408999
1731655253.22453,803.530236596291,803.8881318727649,800.6059911333704,836.3313361022282
1731655253.227622,800.8313466974098,803.9083148423268,799.0756104500315,831.5644922848376
1731655253.2284334,799.4482736483985,803.9285845853351,799.6838035890216,821.3107986420002
1731655253.2323368,799.2855586960669,803.9489276820053,801.3060396093042,810.3032102065332
1731655253.2362404,799.7842638642267,803.9693265068425,802.5252837452708,802.599118915121
1731655253.2388124,800.3654264095029,803.9897637106661,802.5834840375098,799.4318290963986
1731655253.2401438,800.7429491400426,804.0102239333321,801.7152061732048,799.4729800181709
1731655253.2440472,800.9236930247213,804.0306932619382,800.7606404056768,800.5877364297276
1731655253.246549,801.0349336739646,804.051158064347,800.5271694276221,801.3461324948711
1731655253.2479506,801.1759530391739,804.0716042889381,801.3916063898876,801.4084652205986
1731655253.251854,801.3718784804963,804.0920174083773,803.2432892787837,801.0813429970862
1731655253.2543511,801.600219977589,804.1123826815009,805.5795705586397,800.7463122545275
1731655253.2557576,801.8320432032602,804.1326853939819,807.6318751492877,800.5750124273873
1731655253.2579074,802.0536973651008,804.1529109438964,808.5844639842658,800.540359570378
1731655253.259661,802.2666055900162,804.1730448101199,807.9258169571751,800.546321768004
1731655253.2635643,802.4777560246783,804.193072493194,805.7718879020206,800.5270405460204
1731655253.2654753,802.692137040272,804.2129794878165,802.9146289132706,800.4706667950755
1731655253.2674675,802.9107347067868,804.2327512985777,800.5141031230158,800.3958867487038
1731655253.2698896,803.1321722823475,804.2523734799618,799.5908288982649,800.322761866807
1731655253.2713714,803.3548906915327,804.2718316689815,800.5713564925999,800.2593389516061
1731655253.2752748,803.5781990620939,804.2911115786657,803.0911022371943,800.203403260932
1731655253.279178,803.8021831825113,804.3101989397101,806.1598641287725,800.1496444379521
1731655253.2830815,804.0271803878397,804.3290794261219,808.6482426944652,800.0946711807766
1731655253.284402,804.2533964364743,804.3477386614219,809.8514967637932,800.0379676490802
1731655253.2854283,804.4808230020703,804.3661624090392,809.786035211804,799.9805078521254
1731655253.2869847,804.7093357635267,804.384336921283,809.0453067714834,799.9232295750415
1731655253.2908883,804.9388080895312,804.4022491591711,808.3804022475746,799.8664024832041
1731655253.2926452,805.1691594228114,804.4198864028293,808.3410946110396,799.8097763659276
1731655253.294792,805.4003453028344,804.4372350209308,809.1540401156724,799.7529715979276
1731655253.298695,805.6323307071367,804.4542790822745,810.7465019391542,799.6957266433172
1731655253.300967,805.8650771178139,804.4710006275546,812.7619860314044,799.6379248352397
1731655253.3025987,806.098546489045,804.4873834173351,814.5765604236875,799.5795081379388
1731655253.3033285,806.3327056411305,804.5034193278302,815.4450977521574,799.5204043950308
1731655253.3065023,806.567513166658,804.5191116180786,814.8061822483568,799.4605244886778
1731655253.3104055,806.8028892220484,804.5344661774467,812.582884807386,799.3998072837728
1731655253.3143091,807.0386982987488,804.5494675408656,809.2742102369084,799.3382435630214
1731655253.3165054,807.2747924727769,804.5640543404561,805.7743350891142,799.27581367025
1731655253.3182125,807.5111329188013,804.57812913982,803.0152789956333,799.2123417084383
1731655253.322116,807.747914997899,804.5916339727156,801.5928241104544,799.1473901856313
1731655253.322255,807.9855181687617,804.6046689430174,801.5472215558775,799.0804087145447
1731655253.3260195,808.2241206691978,804.6175386079868,802.4434488040781,799.0112533937979
1731655253.327383,808.4630947637169,804.6305629274556,803.7424113930988,798.9408072890293
1731655253.329923,808.7007711295767,804.6436152967206,805.1994148713756,798.8709309284095
1731655253.332044,808.9354048819283,804.655697195427,806.9275592024334,798.8029261731167
1731655253.3338263,809.1675330051346,804.665216359662,809.0298671731558,798.7347760186946
1731655253.3377297,809.4021418771229,804.671497347585,811.1494800568462,798.6595503157445
1731655253.3411815,809.6472419121596,804.6769633956904,812.4468674082431,798.5688422198754
1731655253.341633,809.9061549386372,804.687708242088,812.1491698588648,798.4629138268816
1731655253.3455367,810.1663847359479,804.7094906862062,810.2354910886277,798.3617044514738
1731655253.3475828,810.3967134567714,804.738902005326,807.6086035630881,798.3018505934621
1731655253.34944,810.567645641279,804.7561406652562,805.5254222661729,798.3055168101303
1731655253.3533435,810.6964174578777,804.7320234609889,804.7479026269627,798.3290252030241
1731655253.3572469,810.8836221019025,804.6579066061475,805.151961460594,798.2393813115725
1731655253.360108,811.276761396132,804.5853513804849,806.087422069175,797.8904985421743
1731655253.3611505,811.9157691870677,804.630614135317,807.0441990845527,797.3226362796031
1731655253.3621209,812.5254099280922,804.8902027250091,807.9145522904641,796.9649405965145
1731655253.3631215,812.4763640875946,805.2705300798676,808.6441260345393,797.5703476258676
1731655253.365054,811.1660977823934,805.3599569413478,808.799444182713,799.6826732038834
1731655253.3689573,808.757299029999,804.5688949386061,807.7166497720009,802.9013750101146
1731655253.372861,806.6365433317341,802.6389195414793,805.2300921921401,805.7350967347261
1731655253.376764,806.7655867271761,800.1992680690264,802.2181887200979,806.5893758535115
1731655253.37866,809.935401161559,798.7288586597003,800.2366273182453,805.2405680514195
1731655253.3790348,814.2895120646384,799.6585917163403,800.3978753888357,803.2845420736539
1731655253.3806677,815.8125212096595,803.2210551883493,802.4935259110259,802.8260578566785
1731655253.3845713,811.0106387874595,808.0328619039002,805.2000258251827,804.4878587653592
1731655253.3884745,799.9122147839169,811.8134831842691,807.1470122413984,806.6731607894047
1731655253.392378,786.8230311297181,812.707575409867,807.8128519277865,806.9094315991935
1731655253.394199,777.8432619819644,810.2626205977288,807.5501381065716,804.1498780536654
1731655253.3962817,776.7774102121041,805.5116031527112,807.0049920150354,800.0249866557292
1731655253.3968587,782.5126871299221,800.3343029616082,806.6039018301213,797.9436371892357
1731655253.3979614,789.9375999587828,796.6198433611597,806.4312929918183,800.6973689975864
1731655253.4001849,793.7813388427969,795.5857345634367,806.3779284129832,808.3501310141587
1731655253.4040885,792.4771541561562,797.3601641362022,806.3215698617518,817.9386209040676
1731655253.4079916,789.0830000571314,800.9221133898155,806.211411092675,825.1689512810075
1731655253.409737,788.5707365737106,804.5374389976294,806.0592995783092,826.8883154589367
1731655253.411895,793.6912990151548,806.6309214296331,805.896673319215,822.6601896617035
1731655253.415799,802.7528134990556,806.6699649458234,805.743764217112,814.5543048173502
1731655253.416888,810.9897293865547,805.4820578768079,805.6033477713937,805.579521285162
1731655253.419702,814.1697909961385,804.7130911779049,805.4689588853379,797.9958553602614
1731655253.4236054,811.3542715816773,805.6971074459008,805.334195336976,792.5384230972995
1731655253.4252758,804.7359117557625,808.4548383138994,805.1966767099301,788.7168275355667
1731655253.4275088,797.1432312610735,811.5314759711604,805.05723280503,785.6102436666672
1731655253.4314125,789.6799454336555,812.8684207986207,804.917548835448,782.5101628203282
1731655253.4315965,781.5698966280167,811.186989209522,804.7786187783814,779.2274314642975
1731655253.4353158,772.1760855406461,806.955417714315,804.640512538466,776.2430472036085
1731655253.4358146,763.1983434051144,802.2461210488252,804.5028532210209,774.7459192774675
1731655253.4392192,758.7739609003759,799.5275127637527,804.3653011737832,776.2817555403996
1731655253.4408145,762.8606548578193,800.1618554906903,804.2277382566919,781.8561999220608
1731655253.4431226,775.6999193618908,803.6034840277456,804.0902082508276,790.9594010146386
1731655253.447026,792.3897833105253,807.851024870234,803.9527904839355,801.4001260356818
1731655253.4509296,805.3070737601627,810.8585366607382,803.8155249307512,810.3721581004174
1731655253.4547412,809.0168828638966,811.9090262738255,803.6784066706881,816.0924835911535
1731655253.454833,803.9816045078416,811.9416002839872,803.5414116114312,818.7333608108931
1731655253.4563532,796.0738282990748,812.594370729852,803.4045148233424,819.9348374075762
1731655253.4587364,792.2044040252588,814.7309109992855,803.2676900222606,821.4162019192125
1731655253.4626398,795.4650591761547,817.635727933439,803.13090444563,823.8913428213797
1731655253.466334,803.4174031082549,819.504747470773,802.9941307226187,827.0322613952262
1731655253.4665432,810.4736338136805,818.7733430461662,802.8573808016445,830.1885541776579
1731655253.4704468,812.1207014934723,815.1713379943105,802.7207329975076,832.9914195491909
1731655253.4718916,807.6675918447834,809.7471137552764,802.5842966751698,835.2951610682125
1731655253.473668,799.8452548479576,804.0628820468855,802.448081344598,836.6975006472534
1731655253.4743502,792.2440232267334,799.3570305309051,802.3118352182444,836.3398130881014
1731655253.4782536,786.9448399509008,796.2099693360874,802.1750494651561,833.3946194008392
1731655253.482157,783.9584995865878,794.6308076830422,802.0373427749919,827.8912372957586
1731655253.4860606,782.3100676017451,794.2561901132045,801.8991716143169,821.0803549746806
1731655253.4874303,781.4501544688461,794.5540515203097,801.7622652385625,814.9134289194683
1731655253.489964,781.8244971476252,795.0449412666571,801.628787594477,811.0615142295175
1731655253.4925945,784.3484355411896,795.460906340415,801.4987554766883,810.2849748617931
1731655253.4938674,789.3490076113658,795.7518382113725,801.3671528420559,812.4569127026579
1731655253.4977708,795.825652218866,795.9799845223441,801.2245324077755,816.7970596270288
1731655253.501072,801.638352000039,796.2129052928882,801.0648534721055,821.8484467106414
1731655253.5016742,804.6172503102559,796.4769071226655,800.8987533262097,825.436672431038
1731655253.502969,803.9037441867519,796.763702937429,800.7601430843163,825.2861539886061
1731655253.5055778,800.5501369066872,797.05518183439,800.6876090389991,820.38086162182
1731655253.5094812,796.858142042932,797.3402890092163,800.6740036468474,812.0800483223484
1731655253.511521,794.8941615742694,797.6179032306198,800.6145963251508,803.7250583332348
1731655253.5133846,795.3019379258853,797.8918769746687,800.3250575470217,798.5767729482616
1731655253.517288,797.2860123619912,798.1658002123855,799.6890354065362,797.5082959563916
1731655253.5185077,799.6407922323937,798.4409149821827,798.8812471643063,798.3848028806732
1731655253.5211916,801.8538317881839,798.7166865678499,798.4553639344585,797.8231652443098
1731655253.525095,804.3488339201195,798.992159399171,799.0886282199157,794.0138956227865
1731655253.5289984,807.730749053229,799.2668029246405,801.0553169950766,788.3041413864576
1731655253.5304475,811.7274560360124,799.5406097127462,803.8262873699694,784.2208665115184
1731655253.5329018,814.7854734314358,799.8138109300647,806.1803015512871,784.7233370746525
1731655253.5340462,814.8374931393901,800.0866053001968,806.8317349512467,789.8913950255412
1731655253.5358098,810.8670260185112,800.3590633095621,805.187611664995,796.8411614831091
1731655253.5368052,804.0974813241295,800.6311663920385,801.7523016394138,801.8518413483756
1731655253.5407088,797.6366649037442,800.9028790399141,797.9092640662847,802.974523885365
1731655253.5446122,794.5070054010172,801.1741893397792,795.1773019215439,801.1003044037167
1731655253.5485156,795.4550530266697,801.4451107617032,794.3861954823813,798.804165818681
1731655253.5493743,798.3853130549924,801.7156680179902,795.3188434257428,798.1560022673203
1731655253.5495849,800.0628271685986,801.9858879981608,797.0644620660672,799.465772487853
1731655253.5524187,798.8150146498172,802.2558000411417,798.7798064595111,801.875306116469
1731655253.5563226,796.0350139165396,802.5254356528859,800.2292486717556,804.8486122608974
1731655253.560226,795.1844491032781,802.7948164482082,801.7009932318058,808.825102294665
1731655253.5641294,798.9752324586959,803.0639328502407,803.474431811537,814.362758221438
1731655253.5651236,806.8864786078088,803.3327374291475,805.3825065181022,820.8231095908742
1731655253.5680327,815.0037875713085,803.601185872042,806.8438248070007,826.1815515232663
1731655253.568301,818.4724721052955,803.8693301055423,807.2625901093314,828.3728498029785
1731655253.5705476,814.8677780384884,804.1373964193953,806.4065474973506,826.999190172548
1731655253.571936,805.9864306095969,804.4057139567722,804.4971709994514,823.8523336635059
1731655253.5758398,796.6544582975916,804.6743984922581,802.0591475586052,821.7950004284631
1731655253.5797431,791.4270108427356,804.9429266304925,799.7272529566808,822.931495894017
1731655253.580662,791.7410602320168,805.210074333962,798.1086841804043,827.4099731597241
1731655253.5836463,795.6656165067336,805.4747926738016,797.6545831897732,833.4889885433316
1731655253.5872276,800.1436523242569,805.7379911899363,798.5087098942585,838.5236675660053
1731655253.58755,803.5588702159203,806.0038408705182,800.424255707142,840.1118659519026
1731655253.5914533,806.4638054710656,806.2780670485499,802.8647765411189,836.8808575560536
1731655253.5953567,810.2109811958469,806.5617261878562,805.2602468173088,828.8341954331374
1731655253.5962007,815.0853027278391,806.8435389940961,807.2339362584006,817.39149164459
1731655253.5992603,819.6792408703709,807.100061073128,808.6329122350008,805.1587215153249
1731655253.6031637,821.8642770626201,807.3139967268997,809.3744414115536,795.2950835758029
1731655253.6052854,820.3249611631002,807.5085834255153,809.2910731058261,790.4242472712449
1731655253.6061542,815.4126526292914,807.770865714374,808.1646672188837,791.4508816704563
1731655253.607067,808.8868045927917,808.2198550484597,805.9639429727337,797.0057558475248
1731655253.6109707,802.978652086539,808.9068037966682,803.0717534589595,804.0417182939981
1731655253.6117394,799.4698373513523,809.7201608332535,800.225229450123,809.3406501887818
1731655253.614874,799.2001778553093,810.4059620468047,798.1199922798457,811.0237121448091
1731655253.6187775,802.0275204781447,810.7068384997739,796.9852310370838,809.2009936381289
1731655253.622681,807.0453895446918,810.489303775212,796.5397812626039,805.5288118512881
1731655253.6250808,812.8790472927483,809.7580100800988,796.4028584346552,802.0662167888983
1731655253.6265843,818.0406583604324,808.5879818781383,796.5623446324722,800.1347603979634
1731655253.627278,821.398866824772,807.0687928778236,797.42283452955,799.8512133142699
1731655253.630488,822.6173578301332,805.3293335029017,799.3892678780795,800.5094839833055
1731655253.6343913,822.2048237498348,803.6492932114908,802.4199749438839,801.3218733984311
1731655253.6382947,821.063001249454,802.5698893345011,805.9761294124663,801.8868335828607
1731655253.6400232,819.9102616580178,802.8332767027347,809.3424533091209,802.196646324685
1731655253.642198,819.0215247881314,805.0205601769396,811.9411367152566,802.4102180754819
1731655253.6428163,818.3367145352898,808.9871436685162,813.3872705681448,802.6563710021576
1731655253.6440074,817.6982165147912,813.4890379734761,813.4185845889474,802.9697355861176
1731655253.6461017,817.007882340901,816.4625715071666,811.9678456298158,803.3225843182316
1731655253.650005,816.2554052415544,816.0494025915876,809.3787019090325,803.677651449579
1731655253.6539085,815.4749956090665,811.8252624742864,806.4631713209237,804.0168522398341
1731655253.657812,814.6987369323223,805.3452961104405,804.174839569162,804.3416604082221
1731655253.6583552,813.93779877048,799.486301987657,803.071841627378,804.6610553819003
1731655253.6617153,813.1874073142892,796.9308130957413,803.0150999777121,804.9816536392981
1731655253.662934,812.4389364998107,798.7719719188397,803.3755530816022,805.3049436800131
1731655253.665619,811.6875096718837,804.091431748735,803.5771438219929,805.6293014358515
1731655253.6695223,810.9329234680639,810.6356843964999,803.5181442029703,805.9528009880771
1731655253.6734257,810.1771246075815,816.0165179765547,803.5426685880017,806.2746111184053
1731655253.673894,809.4217814198469,818.6879856558548,804.0368811069724,806.5949119083551
1731655253.6747613,808.6674129749716,818.3100082966371,805.0394962710895,806.9142276771655
1731655253.6773293,807.9137316603214,815.5908577507984,806.2157767400653,807.2329253034194
1731655253.6812327,807.1602941706358,811.8900534705624,807.1844763601767,807.5510952576922
1731655253.6818607,806.4068804630014,808.7239196316636,807.8340397313417,807.8686692877801
1731655253.685136,805.6535209616446,807.1869856710473,808.2771719130417,808.1855664806855
1731655253.6890397,804.9003542151778,807.4424079824452,808.5047056110562,808.5017656836224
1731655253.6894324,804.1474935101675,808.646098294779,808.192990249638,808.8173107337345
1731655253.6929429,803.394970522758,809.5299926847033,807.0037414419029,809.1322890998297
1731655253.6968462,802.6427448065136,809.3381538761914,805.1304667448621,809.4468002530572
1731655253.70075,801.8907546215779,808.400971977702,803.4416918315218,809.7609036178601
1731655253.7007873,801.1389950837993,807.8544657139781,802.8973653814185,810.0745516309556
1731655253.7046533,800.387592454238,808.7217772712828,803.6995841679676,810.387569075224
1731655253.7049713,799.6367964704932,811.0932996116364,805.020973776036,810.6997754196699
1731655253.708557,798.8868014820094,813.9987993938122,805.6545283915011,811.0112733321355
1731655253.709499,798.1374209634904,815.9689402188711,805.0125679017956,811.3227112085495
1731655253.71246,797.3878837647096,815.819316368348,803.5283813635534,811.6351042373499
1731655253.7163637,796.6372050662377,813.1842779252249,802.1371449789932,811.9488860651168
1731655253.719714,795.8853557867443,808.6190793153543,801.461682370347,812.262546786517
1731655253.7202673,795.1345921876897,803.3383522697717,801.4906637703185,812.5722876963994
1731655253.7205098,794.3892271112967,798.7384415741528,801.8457271519277,812.8745438117736
1731655253.7241704,793.6521085191434,795.8724479881207,802.182330723117,813.1715120002405
1731655253.7280738,792.9185561418151,795.0925316665645,802.3711803266124,813.47563592228
1731655253.7319772,792.1731982459335,796.047134039357,802.4515550768475,813.8051443574598
1731655253.7358809,791.3981544048912,798.0246358187171,802.5091132885086,814.1652610400882
1731655253.7360482,790.5957219338075,800.3960494915085,802.5954306539544,814.5233948650437
1731655253.7386403,789.8118327643942,802.867768984277,802.7150494610759,814.8063943105547
1731655253.7397842,789.1272227267974,805.4472273688442,802.8494096655213,814.9531363952013
1731655253.7436876,788.5863782028913,808.2261499536087,802.9816056310648,815.0194362999
1731655253.7442367,788.085189139967,811.1202864344343,803.1060048708589,815.2522722629283
1731655253.747591,787.3264018754688,813.6576564882225,803.2253422002102,815.985016028855
1731655253.7514944,785.9992692709069,814.9391370746359,803.3442436407535,817.2694363915422
1731655253.751587,784.2248797101714,813.9381562668498,803.4652613464436,818.4330404841952
1731655253.755398,782.9883217598579,810.1415911309692,803.5884649800391,818.0750539935179
1731655253.7575672,783.9615045182195,804.1729536762739,803.7128169169357,814.9079412368394
1731655253.7593014,788.3182146947754,797.8451171075394,803.8374549714276,809.0554223390276
1731655253.7632048,795.1807327395145,793.3909234069761,803.962134168768,802.6537454581169
1731655253.7671082,801.3458810583323,792.2623951667046,804.0870313533072,798.9426088806888
1731655253.7671256,803.243319455126,794.3120162005433,804.212397957892,800.3330203275566
1731655253.7710118,799.7882252667702,797.9541698866217,804.3383635826781,806.8654577305531
1731655253.7749152,793.4947912948352,801.1971911171711,804.4649255930883,816.143538943843
1731655253.7764938,788.6556141519638,802.8096321544546,804.5920243640386,824.6899269998169
1731655253.7788186,788.1111691063137,802.8295687074299,804.7196103702286,829.7534054188645
1731655253.7789743,791.3918176947554,802.1656252700244,804.8476715665541,830.4681270509365
1731655253.782664,795.7188200001418,801.7336777509257,804.9762325276695,827.808842934975
1731655253.782722,798.8009588661838,801.8575163610665,805.1053398043761,823.5823292284337
1731655253.7866254,800.841961047273,802.3039870195108,805.235032607054,819.2853700183323
1731655253.790529,803.9614553384357,802.7053647187362,805.3652970543236,815.629607323091
1731655253.7944324,809.6144911705983,802.8859542962185,805.4960303093428,812.8379088626414
1731655253.7954204,816.4794263380018,802.8894790184002,805.6270757627607,811.0606433633842
1731655253.7982028,820.9471754666534,802.8394458809448,805.7583769697225,810.2538927709048
1731655253.7983358,819.9973507222445,802.8206397096295,805.8901895614471,809.6695301679939
1731655253.8022392,813.9871660134645,802.8495740351466,806.0231224021363,807.8007065565251
1731655253.8061428,806.8258006704725,802.903535706733,806.1577212489893,803.3010938339502
1731655253.8100462,803.2552374793661,802.9572824084338,806.2935919013067,796.3124938845887
1731655253.8137124,805.4380771346697,803.0003000065296,806.4287257163365,788.9876294154637
1731655253.8137414,811.5448374824731,803.0349861890817,806.5602763152696,784.5317320514329
1731655253.8139496,817.277078676614,803.0677918499409,806.6875838392987,785.3026756610183
1731655253.814347,818.9728353164044,803.102877571511,806.8160325455761,791.2951272195019
1731655253.817853,815.9675408195883,803.1408170295331,806.9572407533227,800.0890535811037
1731655253.8217564,810.6813070837183,803.1802805701584,807.1204454187364,808.3222691261171
1731655253.82566,806.6061456154217,803.2199480228094,807.2959361845249,813.685198875145
1731655253.82928,805.7610803885626,803.2593249369536,807.4441089605451,816.0674732934418
1731655253.8295634,807.4466167543379,803.2985775010022,807.5136137271745,817.1136689869501
1731655253.8332736,809.1366996928645,803.3380488258938,807.5011402898302,818.6376629733035
1731655253.8334668,808.7461632083481,803.3779405180459,807.5221829452527,821.1638453243078
1731655253.8373702,806.4451344754099,803.4182642639714,807.807606219798,823.6567604676877
1731655253.8412738,804.5254842872446,803.4589397259545,808.5422004388488,824.4982237915328
1731655253.8448186,805.3896246593989,803.4998941590578,809.5999177021047,822.8356192801484
1731655253.8451772,809.316540432044,803.54110052553,810.4528756893719,819.2600393111722
1731655253.8484502,813.9317767629922,803.5825653600292,810.5107715351468,815.3908581727684
1731655253.8490806,815.9540135169508,803.6243026197557,809.6817519401459,812.784156690579
1731655253.8522005,813.8640422735289,803.666317850657,808.5492060739227,812.0159862392745
1731655253.852984,809.2619442295825,803.7086066818217,807.8785864505124,812.5549519065804
1731655253.856887,805.6866733817798,803.7511604196748,807.8922405341785,813.373042154071
1731655253.8603573,805.8152319557261,803.7939711986977,808.013706406203,813.7050385124546
1731655253.860791,809.3846832690501,803.8370337233433,807.3362914516864,813.386595536285
1731655253.8646944,813.5563073576972,803.8803444563669,805.4069540829303,812.680441521251
1731655253.8685975,815.293287720069,803.9239002165664,802.6469841369232,811.9144364386511
1731655253.871127,813.6321737290169,803.9676973984906,800.0750895280744,811.2581150849624
1731655253.8725011,810.0140184343596,804.0117319464579,798.6162254490955,810.713054551831
1731655253.875896,806.7044582464904,804.0559996683074,798.5818284480484,810.209612163925
1731655253.8764043,804.9521248679702,804.1004964984521,799.6515406161568,809.6916841797427
1731655253.8803082,804.4908866957783,804.1452185743207,801.2117774946391,809.1442479275147
1731655253.883188,804.527058542774,804.1901621845182,802.7046787971161,808.5793917462898
1731655253.8842115,804.9684607622021,804.2353236935206,803.8013498051704,808.0133252121724
1731655253.8881147,806.5946764492762,804.2806995013361,804.425010036327,807.4539078757433
1731655253.8900535,810.0283575532246,804.3262860398254,804.6794511245505,806.9005015581643
1731655253.8914344,814.5571362933156,804.3720797833721,804.694185539248,806.3492152225509
1731655253.8920183,818.0098954732929,804.418077258667,804.4632091832702,805.7971916635909
1731655253.895922,817.9622260575877,804.4642750539878,803.8476328770264,805.2438041711592
1731655253.899825,813.3923273371031,804.510669832585,802.8048833400852,804.6897771583073
1731655253.9037287,805.4978809176289,804.557258342388,801.6282179766168,804.13596359915
1731655253.9069731,797.0290998127443,804.6040373977897,800.87537809929,803.5827388219903
1731655253.907632,790.6460734208879,804.6510038137895,800.9486043713172,803.0300387665577
1731655253.90898,787.5238797893097,804.6981543175782,801.6927421857336,802.4776528668851
1731655253.9115355,787.1270101428929,804.74548553172,802.4306915154829,801.9254444681803
1731655253.9154391,788.0568534741839,804.7929941455425,802.4592275673575,801.3734008794794
1731655253.9179258,789.1032971041141,804.8406772724325,801.5964290143381,800.8215735910816
1731655253.9193425,789.7495694009742,804.8885327166926,800.3439125648329,800.2700021219606
1731655253.9225118,790.0485818728212,804.936558637903,799.5850126611356,799.7186786236985
1731655253.923246,790.2483919964274,804.984752297144,800.0926640792679,799.1675676673303
1731655253.9271493,790.5205219543828,805.0331084855416,802.1742462873563,798.6166660131997
1731655253.9279068,790.8946577478624,805.0816194941308,805.5951077956714,798.0660596572097
1731655253.9310527,791.3203921114306,805.1302787095799,809.7284163373304,797.5159101091963
1731655253.9349563,791.7441935011987,805.1790874147075,813.7968102086369,796.9663146630253
1731655253.9380505,792.1445664073768,805.2280591554199,817.078924247545,796.4170837119324
1731655253.9388597,792.5271873220521,805.277212093955,819.0139810045098,795.8676464384879
1731655253.942763,792.9058489599081,805.3265445242979,819.2292103528508,795.3173873243802
1731655253.9466665,793.2892022528505,805.376006803442,817.5767583607364,794.7664928043869
1731655253.9468334,793.6782715298946,805.4255057440281,814.229649119715,794.2167537144693
1731655253.95057,794.0701519924895,805.474978140819,809.7724498480923,793.6710994127766
1731655253.9526637,794.462053927049,805.5245182515206,805.1441125820421,793.1308593061979
1731655253.953589,794.85296883186,805.5744454834709,801.3464138158616,792.5917184154097
1731655253.9544735,795.2432720774153,805.6251345689549,799.0213777002245,792.0425141357844
1731655253.958377,795.6336866419908,805.6765400326287,798.1811228041588,791.4723931838606
1731655253.9622805,796.0246197612454,805.7277006946113,798.315567958614,790.8870183623858
1731655253.96576,796.4160750466724,805.7769180216803,798.7864963375812,790.3222819126275
1731655253.966184,796.8078680596919,805.8232429306512,799.1781272722878,789.8323185577055
1731655253.9691277,797.1998382303545,805.8688453654821,799.3835587671256,789.435261119662
1731655253.9700873,797.5919251538705,805.9199929531181,799.4803194185664,789.0398754726227
1731655253.973991,797.9841344336129,805.9833707046237,799.5718445767004,788.4354007657421
1731655253.977894,798.3764727927418,806.0569107148652,799.7064688991012,787.4464072489393
1731655253.9817977,798.7689123444628,806.1211774987319,799.8781143849981,786.2562993494975
1731655253.984666,799.1614038270186,806.144561449342,800.0609353801539,785.6831805533759
1731655253.9846866,799.5539247850404,806.1130240922193,800.236675221021,787.0370054820497
1731655253.985701,799.946521358986,806.0736509287725,800.4017199591558,791.3975752863693
1731655253.9874015,800.3392859072148,806.1467925150954,800.5609930010869,798.699166261737
1731655253.9896045,800.7322346684185,806.4467892048407,800.7200003380908,807.3345933390515
1731655253.993508,801.1251392934748,806.9031430126254,800.8810486172893,814.6913943485657
1731655253.9974113,801.5174956349135,807.1035417353695,801.0436190887585,818.3902942042828
1731655254.0002048,801.9088532806975,806.3959347034157,801.2062940570596,817.5306940878855
1731655254.0013149,802.2995022665821,804.3834397557933,801.3681469406538,813.2115368665998
1731655254.0036132,802.6909917302961,801.5179268506652,801.5290330712509,807.9964255714596
1731655254.0052185,803.0855042890133,799.1359844766881,801.6892258375012,804.614243952221
1731655254.0091217,803.4834785586723,798.6287718906157,801.8489982310446,804.6364152939598
1731655254.013025,803.8806124737167,800.3381805597169,802.0084424207125,807.8601167182342
1731655254.0157435,804.2677823238253,803.1839803620691,802.1675057424426,812.6828954545717
1731655254.0169284,804.6378631441764,805.4194425396571,802.3260997225962,817.1606776984107
1731655254.020832,804.99869158874,805.9223879625285,802.4841738782447,820.0450637378121
1731655254.0221393,805.3814790402821,804.9880734026365,802.6417252799049,821.1461241418964
1731655254.02254,805.826420663263,804.0241379757409,802.7987654423187,820.8753113946701
1731655254.0247357,806.3362044946924,804.433973713343,802.9552794992652,819.4731897535744
1731655254.0286388,806.8225282468773,806.5769537396973,803.1112098738506,816.6915281905144
1731655254.0312822,807.1144220839129,809.568747194704,803.2664884131314,812.2605771288555
1731655254.0325422,807.0992680692893,811.9938091772704,803.4211158634134,806.647332889187
1731655254.0364456,806.9706256407138,812.9219978505872,803.5752347754759,801.2158923235611
1731655254.0403492,807.3737631039214,812.4658526175128,803.7290882401268,797.4459243865599
1731655254.0414665,809.130805125431,811.5465947840445,803.8827792168986,795.878699406027
1731655254.0442526,812.4771130381765,811.1568193862843,804.0359177669138,795.8600634188746
1731655254.0468206,816.3995551109577,811.7180644476383,804.1875192203971,796.4146887081662
1731655254.048156,819.0168486900795,812.9438721651,804.3366324681077,797.4160983699377
1731655254.0520594,819.0909578814553,814.1637450475611,804.483752646788,799.8451136436216
1731655254.055963,817.3389617690549,814.7459859981574,804.6320050980834,804.7924941354391
1731655254.0568771,816.0679387336103,814.3097299749994,804.7860763318223,812.115838143007
1731655254.0598664,817.2212948136162,812.7218908894002,804.947457237489,820.0628649125664
1731655254.060393,820.5487640469521,810.0906720275786,805.1080202057402,826.3067852940582
1731655254.062359,823.628061728674,806.8618985870534,805.2490525134741,829.4947256853175
1731655254.0637698,823.8533019226039,803.8399591666317,805.354375563255,829.9327599027685
1731655254.0676732,820.7154443377492,801.8852469080941,805.4371227076081,828.9651989707468
1731655254.0715766,816.3562336597103,801.3639509652266,805.5592406028513,827.8604587946189
1731655254.0754802,813.846788753025,801.8156580918068,805.8053222458424,827.1886573843151
1731655254.077898,814.6399184742091,802.2469949301494,806.1870288581517,826.9047693323399
1731655254.0793197,817.3701490974811,801.9012464315286,806.5212709157511,826.7408896113367
1731655254.0793836,818.9900795137277,800.8533892257938,806.4130602654167,826.5050501453107
1731655254.083287,817.2274913733587,799.9009010865776,805.471845254103,826.1592680230799
1731655254.0871904,812.2879678735097,799.8660309465823,803.6935795384466,825.7559205294217
1731655254.091094,806.4830697310083,800.9344231107514,801.6760334590737,825.3536259286719
1731655254.091615,802.3104597023665,802.5465528938176,800.356282536892,824.9770854778942
1731655254.0934365,800.7604074103864,803.8242923641687,800.3731011717596,824.6209811895044
1731655254.0949974,801.1392622967744,804.1223233970577,801.5604926882585,824.2703964911531
1731655254.0982463,802.1182671131243,803.3346557548352,803.0322571418692,823.9155865069852
1731655254.0989008,802.7868178201542,801.8665954491723,803.8426202258438,823.5550930475297
1731655254.1028042,802.9532604605433,800.3841309177219,803.7151199806051,823.1919043055531
1731655254.1067076,802.8499138850178,799.4906206689952,803.248734786541,822.8290248318656
1731655254.1089752,802.7445830169378,799.4554454224989,803.4299910299293,822.4675601501687
1731655254.1106112,802.752449286972,800.0928791856854,804.8466303121724,822.1070789526649
1731655254.1145146,802.8509197476934,800.8412153084042,807.2113244129831,821.7467277275626
1731655254.117173,802.9722052895413,801.0196088489582,809.505389608119,821.385972122493
1731655254.118418,803.0713883582125,800.1734860616981,810.5630972934066,821.0247147271764
1731655254.1223214,803.1414003834301,798.3615894815008,809.6687653120434,820.6630719003052
1731655254.124514,803.1958135054521,796.1986373710898,806.8572835309615,820.301144538438
1731655254.126225,803.2485478644367,794.5384965086105,802.8814408859964,819.9389298721705
1731655254.1263528,803.304931855227,793.9326432969876,798.965161327778,819.5763473016137
1731655254.1301284,803.3632277527778,794.265802033488,796.4301346598113,819.2132930088579
1731655254.1340318,803.4197022817102,794.9261182903088,796.2234925376799,818.8496690772159
1731655254.1360996,803.4720526295297,795.4205504955833,798.4593987202976,818.4853859929784
1731655254.1379352,803.5199849228952,795.8869404946058,802.2464364499657,818.1203655957341
1731655254.1400523,803.5642073358234,796.9955652703463,806.0276338616827,817.754561685224
1731655254.1418386,803.6053709310697,799.2962447094504,808.3089175516975,817.3879802151741
1731655254.1457422,803.6436498569072,802.5895637730694,808.3093981916834,817.0206509150137
1731655254.1496456,803.6788586854938,805.8574495520935,806.138098536192,816.6525174395894
1731655254.153549,803.7107273356389,807.7858837096396,802.5401383736938,816.2832977006152
1731655254.1550262,803.7390719734262,807.5016663981987,798.5644642101461,815.9124820918777
1731655254.155591,803.7638144423128,805.1223083347376,795.356391529956,815.5396585212063
1731655254.1574523,803.7849244718977,801.8747199360982,793.9369328865334,815.1651262263192
1731655254.1610906,803.8023648298031,799.6390270955163,794.7983745339249,814.7902884866461
1731655254.1613555,803.8160720343102,799.9531164419017,797.489212974154,814.4169591349121
1731655254.1652594,803.8259644281009,802.9377705226805,800.6219610957949,814.0451497178319
1731655254.1691628,803.8319569925925,806.9501271165966,802.5152312605895,813.6705388209891
1731655254.1711297,803.8339698279253,809.472854149074,802.1409075663383,813.2848813851599
1731655254.173066,803.8319286365507,808.7966080223939,799.7327955260992,812.8826642564438
1731655254.1739528,803.8257614924232,805.2737192207286,796.6455058993226,812.4726219721824
1731655254.1769695,803.8153960572013,801.1400792613239,794.6102413721887,812.0838294700784
1731655254.1808732,803.8007587529103,799.0126226940536,794.9164177679645,811.7503511221499
1731655254.1847763,803.7817753174851,800.1911614217131,797.9660829836822,811.4684089219985
1731655254.1866682,803.7583716325317,803.9571383214994,803.2592333926955,811.1521659019568
1731655254.18868,803.730474175506,808.2148776540668,809.584486421078,810.6514450064795
1731655254.192583,803.6980100520524,810.8619899049717,815.261065287446,809.8904915663855
1731655254.1928794,803.6609068515971,810.9341548712661,818.5349238503554,809.0949555151769
1731655254.1958284,803.6190925418201,808.925950665064,818.2666195717894,808.9220594878886
1731655254.1964867,803.5724954721634,806.3043043234837,814.6950234768412,810.2504953368363
1731655254.2003903,803.5210444500055,804.6487125616072,809.6638256338692,813.5863909967105
1731655254.2022069,803.4646688272987,804.9126052563462,805.8166962187037,818.4189619051772
1731655254.2042935,803.4032985583767,807.1019123395704,805.0340648552665,823.0686164881306
1731655254.208197,803.3368642214203,810.3980523259171,807.1864785696571,825.350401419681
1731655254.211806,803.2652970207565,813.5699882946383,810.2501438382203,823.8137482356009
1731655254.2121005,803.1885288050167,815.4803972011694,811.7967327255992,818.7755672981039
1731655254.216004,803.1064921408506,815.5289613837068,810.7059200181595,812.2876006025067
1731655254.2177455,803.0191204526434,813.8904229451056,807.7703296153829,806.8293474168454
1731655254.2199075,802.9263481635473,811.4077078362915,804.8480079904674,803.56394289916
1731655254.223811,802.8281106913046,809.1154979291415,803.4102310522625,801.5406551666467
1731655254.2277143,802.7243441705917,807.6241693347376,803.6570255838229,798.6097459203712
1731655254.2305665,802.6149849994778,806.7778625915083,804.6950705273238,793.4129870734869
1731655254.230733,802.4999696905658,805.8635778889982,805.372335293143,786.8409977984256
1731655254.2316177,802.3792357005963,804.2330645121571,805.0271660395591,781.723808653052
1731655254.2332842,802.2527233832083,801.8596680662279,803.7278307044763,780.966657949543
1731655254.2355213,802.1203777686238,799.4005744707266,802.0709433635652,785.6135543801402
1731655254.2394247,801.9821474058482,797.7326806163837,800.8201074228778,794.3157850529639
1731655254.243328,801.8379781055314,797.3434027610926,800.5654851986511,804.4319231844946
1731655254.2472315,801.6878039659811,798.0578451437373,801.4475684152102,813.6339084766148
1731655254.2488227,801.5315451738953,799.2988766000185,803.0151214684219,820.6608989728379
1731655254.2496593,801.3691248130746,800.6349230994223,804.3728728613467,824.9012381534974
1731655254.251135,801.2005055095874,802.1349809136083,804.6758598646375,825.7141574334121
1731655254.2550385,801.0257190038642,804.2289300009278,803.7258214336822,822.5648918623363
1731655254.258942,800.8448363249139,807.20784203689,802.2200065222385,815.9821648622174
1731655254.2628453,800.6578431764912,810.7931186726636,801.3778815195844,808.2066357282054
1731655254.2643614,800.464475990422,814.1056814284992,802.1356630011138,802.46086331423
1731655254.265304,800.264204842276,816.0278695045995,804.4585949588394,801.0636567491135
1731655254.266749,800.0565829249131,815.7138255057574,807.2775418864967,803.8499286905943
1731655254.268586,799.8419408453851,813.0082141710672,809.1458366348534,808.281170927832
1731655254.2706523,799.6218739113318,808.6376923420426,809.2080184981655,811.2671797889742
1731655254.2745557,799.3985394779115,804.0942294794474,807.7963285001484,811.2945514544108
1731655254.2784593,799.1722073521091,801.1639486454836,806.1633521268453,809.2238061319832
1731655254.2799,798.9383069128951,801.1777302472615,805.4940589019229,807.2587954557758
1731655254.2823625,798.6875960672617,804.2722157502345,805.9744805882923,807.1005926411253
1731655254.286266,798.4133480822913,809.1007671547266,806.7175553069054,808.8645832915469
1731655254.2875123,798.124419548043,813.3220836529725,806.619880729818,811.5168721592498
1731655254.2901697,797.8530079708783,814.7611228441511,805.3807050676531,814.1794564796133
1731655254.2940729,797.6387890430638,812.6230201663327,803.7849461245713,816.9549918827537
1731655254.2954383,797.4811955738609,807.9784735478358,803.0540358171626,820.5168037973186
1731655254.2979765,797.2870581884374,803.1593938879683,803.8793737141834,824.9737408960266
1731655254.300042,796.8839061460928,800.4397018756483,805.9234732807109,829.23194197548
1731655254.3018796,796.1677293100273,800.850501492898,808.0820992011913,831.5659148691881
1731655254.3057833,795.3519548848561,803.8240071442733,809.2120068145348,830.898622836435
1731655254.3064392,795.0997717884185,807.7408834525029,808.8019033689694,827.5901807679734
1731655254.309687,796.2228598249941,810.8887489524519,807.2029147613041,823.0421277768847
1731655254.3109772,798.9020802850035,812.2243602264208,805.3254511043612,818.5920977678767
1731655254.31359,802.0607752260362,811.6340019012503,804.0130788859889,814.7983656029154
1731655254.3174934,803.8338236748632,809.7537771892786,803.5179171925283,811.7088126640789
1731655254.3213968,803.1293563090755,807.56648097948,803.4537174118105,809.6593848904569
1731655254.3253005,800.835939342837,805.9612925261849,803.2312582011399,809.6112948710047
1731655254.3253658,799.250451519024,805.3967273244282,802.5668060738742,812.4811659912059
1731655254.326516,800.0618512117715,805.7877229757397,801.6163928785645,817.8970862741617
1731655254.3292038,802.7482909952151,806.6590025217629,800.6834653721538,823.4852790992478
1731655254.3331072,804.9186489797034,807.4635475307559,799.8589564724825,825.5967638704201
1731655254.3347795,804.3884559912439,807.8795164345544,798.9677677795426,821.3780836318208
1731655254.3370106,801.2701533377801,807.9458714397028,797.8529396771497,810.9319294555198
1731655254.3409142,798.2953268536833,808.0022103229746,796.7044361818736,797.9115907991587
1731655254.3420544,798.9244043625342,808.4644793056841,796.108344301965,787.7524236584503
1731655254.3442924,804.5224145942501,809.5108791524293,796.7243165384307,784.4194560670182
1731655254.3448176,812.7868901073175,810.8284663190245,798.7963370969786,787.82177658545
1731655254.348721,818.9567569283681,811.6250188975703,801.8672575180403,793.818984314115
1731655254.3526244,819.2921954190722,811.0107979961972,804.9620259318601,796.9926279590137
1731655254.3565278,814.2556565257034,808.6008920648368,807.1407008622605,794.2992070301761
1731655254.3575933,808.6066127496322,804.9744108008282,807.9765978142761,786.9967173677599
1731655254.3604314,807.8997179998127,801.6382557416064,807.5621853983729,779.51586686868
1731655254.363219,813.972536966584,800.3858414832179,806.116595290201,776.2367422900937
1731655254.3643348,823.1355124522986,802.2960683316898,803.6881975597395,778.5897601530487
1731655254.3682382,828.7150228313628,806.9281204147729,800.3194426409583,784.4546868536768
1731655254.3695176,826.0231772355291,812.310307528531,796.4798630760711,790.0085830802497
1731655254.3721416,815.81643251771,815.9064718716562,793.2193555370656,792.4754856692194
1731655254.3731318,803.5629805180611,816.0295274917559,791.764912078313,791.8422902567821
1731655254.3760452,795.2498882036853,812.736682964251,792.8633411193476,790.56785329541
1731655254.3799486,793.1678373159044,807.5736064798543,796.4025894771264,791.7198701781384
1731655254.3821456,794.956973208003,802.4306004956914,801.5209720659083,796.8512326869574
1731655254.383852,796.3987375464054,798.4363521204529,806.9785502809572,804.9114283103047
1731655254.3877554,795.3341716296803,795.6594932838942,811.4990290628905,812.8024860414763
1731655254.3886704,793.2928437382395,793.6348724723357,814.0404655797632,817.2486752363365
1731655254.3916588,793.6293744692479,792.1076195262451,814.0980520430579,816.8663725633849
1731655254.3955624,798.1702748018772,791.3611658098689,811.9843939154191,813.1053050907802
1731655254.3994658,805.5516341070056,791.9350664310606,808.816954907107,809.3348903090005
1731655254.4010725,812.5424167074927,794.0220485149882,806.0126071854197,808.5452814014667
1731655254.4033692,816.7445591681932,797.0503770862053,804.4739447161114,811.1782712064455
1731655254.404209,818.0404028989333,799.8186933761446,804.0165951381867,814.6855541940504
1731655254.4042554,817.7358528780779,801.1462962680299,803.5405388563095,815.293369095427
1731655254.4072726,816.6342514181421,800.5892520484518,801.9228367578287,810.8019737155423
1731655254.4111762,814.0618195590502,798.682804329899,798.9899579271972,802.3239407623432
1731655254.4150796,808.7306413389647,796.5358194243853,795.7741525763666,793.5692478595428
1731655254.418983,800.5785098478634,795.141614382185,793.7879863668204,788.2134604703076
1731655254.4197476,791.8853693595869,794.9765135734016,793.868017138371,787.4317780721226
1731655254.419999,786.5532221678147,796.1221575924567,795.5301870880057,789.46889593703
1731655254.4228864,787.8643209417024,798.6173631442094,797.3667665223817,791.3703850144449
1731655254.4267898,796.2189231062068,802.5622146234552,798.136883027024,791.3015237631084
1731655254.4306934,808.4519928468791,807.8129439419124,797.6360798265499,789.6036302186753
1731655254.4345968,819.2796130766042,813.5689501621557,796.6744234670264,787.9589283701075
1731655254.4352863,824.0229149015183,818.3281477300802,796.2944400955008,787.6630684998709
1731655254.4385002,820.9988270580279,820.4502497496467,796.9618902492132,788.684607107024
1731655254.4389255,812.235954291949,819.1058778560966,798.3536539557015,790.323629428578
1731655254.4389932,802.1289106440496,814.9987008053212,799.7587805403303,792.61804765263
1731655254.4424036,794.7661269885539,810.2163021796435,800.6323277101833,796.7848719286233
1731655254.4463067,791.5271608302924,807.0579472370744,800.8683797609075,803.8867973994668
1731655254.4502106,790.6065406132353,806.5021618530826,800.7179017542874,812.8274449719394
1731655254.4508247,788.9412926152537,807.4705820206497,800.5659339208421,819.8138057852428
1731655254.454114,785.1035918830952,807.6130646055831,800.7887310608195,820.3745928602161
1731655254.457852,780.6845079054854,805.1422542222006,801.7226053148412,812.6565400518116
1731655254.458017,778.8204620481363,800.281432013478,803.6162903975156,799.2294037843985
1731655254.4619207,781.0843227331761,795.1139929540923,806.4664956282083,785.609891251625
1731655254.4658244,785.6136286284209,791.9557585700571,809.8279245853704,776.5059637179625
1731655254.4663634,788.3827134714094,791.6530490705837,812.8410575310558,772.8725139172133
1731655254.4697278,786.7042024178313,793.2419196885554,814.616345938956,772.2085828187165
1731655254.4736311,781.9152050211145,795.1213933171338,814.7713260952501,771.6167606295635
1731655254.473731,778.718687174089,796.5032772563967,813.6644790351479,770.6883394497213
1731655254.4767787,781.4404731844703,797.7490988429018,812.0494869778182,771.5779903245522
1731655254.4775343,790.2001203277639,799.4242641096938,810.4185916838951,776.3637926507241
1731655254.481438,800.3285542769576,801.2395513637006,808.6833065233773,784.3543003322574
1731655254.481902,805.8169785291617,802.1236075950834,806.5706252860718,792.0195823439344
1731655254.4853415,804.0835912789827,801.3916916713391,804.3531672161905,795.7118845534372
1731655254.4892447,797.9389391270637,799.7028585005951,803.0594953428077,794.6867232240594
1731655254.4931483,792.8953238023876,798.6385099162178,803.740265371574,791.6499962274091
1731655254.4957054,792.1632450595182,799.1997103303282,806.3790551258893,790.3750751740652
1731655254.4970517,793.8957564255332,800.7402852397474,809.5711775341797,792.5795847150861
1731655254.4974406,793.1717874847694,801.4848732056691,811.4589318943997,796.7407968608903
1731655254.500955,786.7626455520718,800.2019251512322,811.147671853771,799.6170302081745
1731655254.5048587,776.2460809895999,797.4545941305103,809.2730057384824,798.9258105692531
1731655254.5084689,766.8098042824304,795.2529875391002,807.2506141973917,794.94635598405
1731655254.508762,763.1281488102119,795.4094577656717,806.0868599575961,790.0171680441755
1731655254.5126655,766.0496222662025,798.0404550907701,805.8749540158785,786.6595018373741
1731655254.5129793,772.6150172779959,801.4919790459243,806.1398291266776,785.9352664359888
1731655254.514632,778.7698507109261,803.717460553592,806.4056945255124,787.1730128413387
1731655254.516569,782.119406569343,803.9135841069025,806.4764158034706,788.9384215996607
1731655254.5204723,782.7115035873506,803.0556278592696,806.3929859855457,790.1907174284977
1731655254.524376,781.962445933293,802.9780830604617,806.2708822993635,790.7224639131493
1731655254.5282793,781.2002351317739,804.8906780428338,806.1848536468528,790.8615230518658
1731655254.528518,780.9666255276487,808.5689404696202,806.1452492924651,790.9846631709756
1731655254.5321827,781.1535158838464,812.6803555262625,806.1282136062711,791.2620785472675
1731655254.5335586,781.449783364302,815.6972630306393,806.1100789395283,791.6714974153318
1731655254.5360863,781.6543993697059,816.6099831292607,806.0820445318105,792.1228300249924
1731655254.5399897,781.7403398418498,815.1949179424771,806.0472007147717,792.5535763973752
1731655254.5432067,781.772720298738,812.0651735223578,806.0118210455888,792.9524196706783
1731655254.543893,781.8158386092944,808.5908383646832,805.9796306281951,793.3373294419447
1731655254.544057,781.8936671001228,806.4368633063883,805.9509346868455,793.7278329054975
1731655254.5477965,781.9980479003154,806.6425569820802,805.9243805825739,794.132117581601
1731655254.5517,782.1122856971662,808.8031156329267,805.8987507474282,794.5485716480947
1731655254.5524852,782.2266216954557,811.1600903004768,805.8736486136827,794.9725686794028
1731655254.5556035,782.3405507156889,811.7375549653376,805.849280131708,795.4012675611527
1731655254.559507,782.4580357641518,809.6740904677154,805.825983064206,795.8345601708047
1731655254.559595,782.5826599296032,805.6808299131636,805.8039419812123,796.2737710680722
1731655254.5634103,782.7157805577344,801.3603797368878,805.7831611547311,796.7202033188833
1731655254.5673137,782.8571271348698,798.0912720453222,805.7635652416789,797.1745266849302
1731655254.5712173,783.0060758648661,796.3777978285772,805.7450919839436,797.6369100439554
1731655254.5714116,783.1624185940575,795.9598218184314,805.7277235567666,798.1073908464449
1731655254.5751207,783.3264338207464,796.3018653236858,805.7114719630453,798.5861155036819
1731655254.5751338,783.4986132444836,796.9382670215404,805.6963538079196,799.0733739887336
1731655254.5779445,783.6794110548487,797.5013279346429,805.6823762765947,799.5695242304239
1731655254.579024,783.8691596303892,797.6466391361888,805.6695366895794,800.0749162002854
1731655254.5829277,784.0681093996682,797.1509412811181,805.657828162311,800.5898631010873
1731655254.5868309,784.2764969668009,796.1905634181063,805.6472443379926,801.1146506638978
1731655254.5903382,784.4945823749382,795.5000580361757,805.6377807649334,801.6495570364059
1731655254.5906725,784.7226492783667,796.0855546870006,805.6294340097476,802.1948649744293
1731655254.5907345,784.9609889068532,798.5227223532438,805.6222004295876,802.7508632069732
1731655254.594638,785.2098878734946,802.3422382587763,805.6160756273298,803.3178418806959
1731655254.5985413,785.4696269181559,806.117305630564,805.611054482376,803.8960871105387
1731655254.6024446,785.7404862319852,808.3607138741863,805.6071311622695,804.485877086449
1731655254.6062107,786.0227482722117,808.5743300179086,805.6042987987299,805.0874811295362
1731655254.606348,786.3166912313884,807.5485530772144,805.602549205718,805.7011635374339
1731655254.6092649,786.62257486611,806.6437711353442,805.6018735143836,806.3271927382153
1731655254.6102517,786.9406324098666,806.7080599201515,805.6022642050066,806.9658505801367
1731655254.6126823,787.2710888377566,807.5423002471481,805.6037174188276,807.6174292244896
1731655254.6141553,787.6142126367033,808.2110738705011,805.6062324762445,808.2822036884946
1731655254.6180584,787.9703688636456,807.7593357132894,805.6098055451268,808.9603870983185
1731655254.6217496,788.339997264557,805.7658205843148,805.6144189090178,809.652110137912
1731655254.6219618,788.7234475942826,802.5441870387231,805.6200356359785,810.3574862059515
1731655254.6258657,789.1207220236939,799.0789357891715,805.6266146004745,811.0767809652533
1731655254.6281917,789.5313756697217,796.7198985104101,805.6341510465805,811.8105780630125
1731655254.6297688,789.9549292740087,796.6064563030228,805.6427176241467,812.5596947866633
1731655254.6336722,790.3918730895604,799.0256569389212,805.6524468856004,813.3246382550615
1731655254.6372883,790.8445864703549,803.148612506472,805.6634030501417,814.1047828640859
1731655254.6375756,791.3167241559834,807.4165683818169,805.675382580712,814.8980946455657
1731655254.641479,791.8099270810998,810.3512394146968,805.687839063618,815.7025284286375
1731655254.6453826,792.3190897873739,811.2559483837975,805.7002065063556,816.5192854859498
1731655254.647118,792.831149313828,810.4278178669407,805.7126796118985,817.3556637251492
1731655254.6474202,793.3338278413264,808.875995018925,805.7269229544506,818.2228162390657
1731655254.649286,793.8348257747932,807.7799874827497,805.7455837994364,819.1249217837512
1731655254.6528268,794.3774336542205,807.9533961772639,805.7697296649925,820.0441164385956
1731655254.6531894,795.0251378676138,809.5256187903851,805.7951823456832,820.9374652212842
1731655254.6570928,795.7965316753044,811.9637186471101,805.8116125089496,821.7663386594353
1731655254.6609964,796.57942607955,814.3897169895275,805.8093692493452,822.5584497261996
1731655254.6648998,797.1220312049737,815.9695275829649,805.794365501814,823.4556130541522
1731655254.6660447,797.2181305223094,816.1371155461908,805.8000307894878,824.6586122009645
1731655254.6683657,797.0801410819168,814.6237250667665,805.8749543695733,826.212071755538
1731655254.6688032,797.6246454752584,811.4697977654077,806.0315927208022,827.7274889172681
1731655254.6727066,800.1935500977074,807.1450903243293,806.1779044931175,828.3578314547867
1731655254.67661,805.5347256340091,802.638321486378,806.1054142295465,827.3722323906926
1731655254.6805136,812.8019283442452,799.2459648671454,805.6159648639475,825.2233904567942
1731655254.6821578,819.8798477281869,798.0086027684538,804.7562769504873,824.1429651961159
1731655254.6839042,825.1979039445674,799.1106528701066,803.9202388719659,827.0613422661246
1731655254.684417,829.3261886745827,801.6877868952155,803.5537804976489,835.0631566738845
1731655254.684971,834.5860892256385,804.2461568934243,803.6031435318956,845.5949160897508
1731655254.6883204,842.9263122222316,805.5022197747646,803.3006737838294,853.6127539009774
1731655254.6922238,854.0341033158095,805.1762183336965,801.6820412409285,855.2189356906999
1731655254.6961274,865.3487117187111,804.2457662512926,798.4599971107708,850.7320527982497
1731655254.6994426,873.855656556453,804.4079048543637,794.4337296141913,844.3754145375635
1731655254.7000308,878.0247518499333,806.9509766270222,791.0161308505554,840.7689111441113
1731655254.703898,878.3256704384283,811.6883962110247,789.2831312583784,841.3305437542795
1731655254.7039342,876.186434379021,816.714073593616,789.3620492541658,843.7285974423439
1731655254.7078376,872.5978003959718,819.3044559101523,790.60407381074,844.6555328501483
1731655254.711741,867.6219665534009,817.5249786454593,792.2299881134174,843.1763944287857
1731655254.7149813,861.0213614389777,811.5427036982932,793.7619372176072,841.5280815135638
1731655254.7156446,853.2291703618471,803.7544553024268,794.9223658666697,842.720907916056
1731655254.7168956,845.7670122234953,797.5799208801111,795.3649455445952,847.2477302151133
1731655254.719548,840.8097810081459,795.635509485138,794.8043911216548,851.9972538573885
1731655254.7228246,840.2026597070814,798.401214841745,793.559420543163,852.4926450579463
1731655254.7234514,844.4489213324063,804.1582924474236,792.8467362236925,846.6355009329803
1731655254.7273548,852.1415603286182,810.1484204550594,794.2263078294731,836.7923794845765
1731655254.73052,860.2304543570231,814.1521578115473,798.4506613543454,828.4515685933761
1731655254.7312582,865.3017701726923,815.5053968975615,804.6991895924481,826.5512271620356
