timestamps,eeg_1,eeg_2,eeg_3,eeg_4
1731017621.367071,808.9717485690367,803.4900147318916,802.9770130270956,803.4656085131999
1731017621.3704312,812.9330263477074,803.1761545929945,804.3590957718178,811.5452192157521
1731017621.3743336,815.2826459063821,803.5138412290768,805.215980949504,818.3195996717986
1731017621.378236,815.6726594118574,804.7699708982989,805.316793550847,822.8893313735903
1731017621.3821385,815.3080915378763,806.6023000061269,804.7924271071096,825.1682188317955
1731017621.3826668,816.0191928422303,808.201722723718,803.9451561193533,825.9742885814546
1731017621.3860407,818.8367681539515,808.8502731552625,802.9841287257674,826.4788584393306
1731017621.389739,823.1887047588166,808.5442161193417,801.9135081939178,827.2606500398724
1731017621.3899431,827.3085301375477,808.1055585482309,800.6381770267691,827.7549696853501
1731017621.3938456,829.457310608866,808.5582413687149,799.1548303699342,826.667147845872
1731017621.397748,828.9951273565637,810.2553421716865,797.6479136510857,823.0561680755192
1731017621.398263,826.6090090410645,812.564310867315,796.4196591204101,817.1717851294171
1731017621.4016502,823.7198614414431,814.4213570334271,795.7193982222809,810.3719789680238
1731017621.4055526,821.5988497669875,815.2180448321477,795.5969627429954,804.264202842074
1731017621.4086306,820.753638744365,815.1708022869266,795.8819182795362,799.8038814284479
1731017621.4094553,820.8682764247504,814.8711094482929,796.3094103183903,796.9975549496573
1731017621.4133575,821.2505795823329,814.5374699444462,796.706101475392,795.304061085614
1731017621.4138591,821.4702802606165,813.7542860118722,797.0922830650068,794.3027505445083
1731017621.41726,821.7265174404546,811.9591623381137,797.6209193688086,794.0553097744987
1731017621.4211624,822.6086828705392,809.180053948293,798.4144311715346,794.8905116346053
1731017621.4250646,824.3802427486257,806.271134322037,799.4362851980231,796.866528022807
1731017621.427522,826.4262389126358,804.3747864003582,800.4856811780488,799.4851766084458
1731017621.428967,827.4989743908199,804.066472482657,801.3065721337147,802.0148495685207
1731017621.4294553,826.6844025089014,804.925718203836,801.7411034125055,804.1663706339089
1731017621.4328694,824.2230506895443,805.8841432496046,801.8330335666851,806.446275635982
1731017621.436772,821.3483450109661,806.0358156947779,801.7932914313626,809.7537860713389
1731017621.4406743,819.2346580970399,805.2592480687367,801.8211371601797,814.5042115790066
1731017621.4445765,818.0264958318696,804.2286267185293,801.9159782663214,820.0432478693691
1731017621.4450514,816.8168385733608,803.9031559284566,801.8706886174176,824.8695451569141
1731017621.4464135,814.5088469914346,804.913372194977,801.490801350431,827.474209750182
1731017621.4484787,810.733653931198,807.2078943356041,800.8510852897829,827.1548021901491
1731017621.4523814,806.0953864357417,810.0652119644169,800.3401794382864,824.3203325976204
1731017621.455316,801.7031474884095,812.3962957982607,800.439588731733,820.2442520285265
1731017621.4562838,798.4873865734454,813.2207642430907,801.4238511918115,816.4697467587839
1731017621.4601862,796.7962680408367,812.1508815393978,803.2014490237838,814.0927498547802
1731017621.4606478,796.4184353001784,809.6271061796153,805.3514979097959,813.2079380677947
1731017621.4640884,796.8670755825294,806.6893659637997,807.2749509603428,812.9007869648965
1731017621.4653049,797.6677481066735,804.3555677045407,808.3904308512426,811.9612769701754
1731017621.4679909,798.4739135823042,803.0150694150902,808.3448650367865,809.8893067961526
1731017621.4718933,798.997954307054,802.2803092281379,807.1584810571101,807.3154636141148
1731017621.4757955,798.9107728620734,801.3898834907898,805.1822601695708,805.3410647071059
1731017621.476244,797.9054040240421,799.8309153381048,802.8654946977953,804.3419959950303
1731017621.4796982,795.9492848731883,797.7190053854782,800.5230565549648,803.4262156425873
1731017621.4836004,793.4901923468958,795.7035163390424,798.3060671322951,801.1794894820853
1731017621.4841964,791.325971991602,794.5175758260684,796.3655723933408,797.0505195111342
1731017621.4875028,790.1284270730637,794.5038390148721,794.998417815316,792.0437746771584
1731017621.4903684,789.9831091956815,795.4192342312929,794.596695179685,788.0355465455632
1731017621.4914052,790.3748162099405,796.6162265870017,795.4239251965495,786.3418983594504
1731017621.49184,790.6912644635122,797.458729978263,797.3908716921244,786.829795926005
1731017621.4953077,790.8367768846183,797.6994376594982,799.9935085392436,788.2834641572603
1731017621.49921,791.3977887729377,797.588961704657,802.4716704562188,789.5750763423636
1731017621.5030878,793.1596274320165,797.6704728206323,804.1404272488162,790.5796660130572
1731017621.5031126,796.3522251290436,798.4227706581585,804.7534508136108,792.1785702880074
1731017621.5070148,800.2834822108296,800.0115476473045,804.6886220751644,795.5502267460325
1731017621.5074365,803.719080982912,802.3105086285539,804.780681396327,801.3896353091455
1731017621.5109172,805.722136864574,805.118365431419,805.8256021231803,809.4788855770554
1731017621.5148196,806.2519464797724,808.3207411288588,808.040535392021,818.6152328848399
1731017621.518722,806.0300838301292,811.8101820938747,810.8488187588762,826.78733009812
1731017621.521979,805.8306549523359,815.2499056309515,813.1572424641631,831.6483185985984
1731017621.5226245,805.8445365446868,817.9808327967233,813.9558173119474,831.376514575126
1731017621.5230324,805.6708615504338,819.2778192913506,812.867641724629,825.7209944237418
1731017621.525421,804.9148700444049,818.8118446868274,810.3319532577223,816.6219311784844
1731017621.5265267,803.8268439169406,816.9104758250916,807.335848423361,807.7434722908196
1731017621.5304291,803.3568426290944,814.3293924221474,804.8680698117677,802.8323878386147
1731017621.5343316,804.4893687492239,811.6922865143807,803.4275395367611,803.7285174727732
1731017621.538234,807.3833797798849,809.1131072842618,802.8869698110032,809.3402129177612
1731017621.5386286,811.1019011399857,806.3927831881213,802.7721711278224,816.3834100980046
1731017621.540871,814.2672317951531,803.632857829514,802.7145505079536,821.4435470346482
1731017621.5421364,816.1434402388642,801.645681031145,802.7103460571902,822.9471430099443
1731017621.5460386,817.1901438910418,801.655781787102,802.9950089130939,821.727530517067
1731017621.5499413,818.5531481232591,804.4174310932422,803.6727201685729,819.939635593539
1731017621.5538435,820.9318663168309,809.4329237855984,804.446039511678,819.2674333580135
1731017621.5542247,823.8625709491648,814.9251266928961,804.7006662847789,819.7798137662533
1731017621.557746,826.0666660164043,818.6498255244311,803.9009772395469,820.1602851297089
1731017621.5597622,826.5077451792976,819.040325519284,801.9974544774789,818.9274622463387
1731017621.560473,825.180312752022,815.9927249541121,799.5415114255303,815.6087871733187
1731017621.5616484,822.9950653662114,810.8573907502573,797.4336595810812,811.0885078571627
1731017621.5655506,821.013054489968,805.6665349840686,796.4889379380625,807.1101488908105
1731017621.569453,819.8036279787642,802.0530413216342,797.0825273972841,805.4142811071916
1731017621.569821,819.4143533546558,800.5041493072039,799.0247454517989,806.9585802143371
1731017621.5733554,819.7451653757913,800.4004303907853,801.665823989891,811.4424003072858
1731017621.577258,820.7567107297536,800.7621261961237,804.1659525270811,817.2879635185923
1731017621.5786536,822.2352407344074,801.1008657475196,805.8428377759967,822.206175285111
1731017621.5811603,823.420733560185,801.6892933055825,806.4542051010525,824.2221786675773
1731017621.5850627,823.0504586091404,803.0478256205574,806.2469621756087,822.6415664348481
1731017621.585417,820.0105628988143,805.1428891473713,805.7225549107444,818.3314789024869
1731017621.5889647,814.1721650466113,807.0862194779837,805.2843560074464,813.1039534474925
1731017621.5928674,806.7289782896491,807.7058076627443,805.0381405388534,808.6276937357767
1731017621.5955253,799.7148172448962,806.549741575313,804.8788655840417,805.6168799282574
1731017621.5967698,795.0118193613556,804.4144035134073,804.736011673139,803.7905375599639
1731017621.5975451,793.4782055305199,802.8336890962453,804.7212617032,802.4939312484125
1731017621.6006722,794.6282186547203,802.8708999826434,805.0462597540441,801.4068362844359
1731017621.6010132,796.9150876451962,804.2186758120947,805.813896271665,800.7731502239693
1731017621.604575,798.4627474172772,805.3998909705929,806.8911128350842,801.0385491736954
1731017621.6084769,798.0196462951084,804.9207837437845,807.9683184924095,802.3054927229113
1731017621.6123793,795.7463417422589,802.4083189497798,808.7434963996191,804.167224948031
1731017621.6162815,793.3032848255554,798.8296103569747,809.0881099937989,806.1146553751651
1731017621.6164365,792.9540611881258,795.7413197803114,809.0819168894176,808.131237065729
1731017621.616609,796.0906580247807,794.2951588855112,808.9115937117394,810.8352596255831
1731017621.6201842,802.1715985058652,794.7423509800803,808.7351811918305,814.8757662086373
1731017621.6240866,808.9087328231279,796.5876275440104,808.6166671318413,819.9822746898269
1731017621.6279888,813.6381851348201,799.0274087923724,808.5451617213704,824.5128175020366
1731017621.630577,814.8837724537735,801.2879970584096,808.4861954511331,826.0974083771885
1731017621.6318913,812.981044885291,802.7853982525445,808.4172888420022,823.136123602545
1731017621.6322055,809.4227477117623,803.2396766153475,808.3353550065203,816.1102470642392
1731017621.635328,805.6197758792969,802.801859653565,808.2476359211889,807.612722272119
1731017621.6357937,802.1397252577635,802.0539065733261,808.1613108603124,800.89106964632
1731017621.639696,798.9030559793841,801.7166151656277,808.0790551764628,797.8960291488482
1731017621.6435986,795.8726939892894,802.1494104076938,807.9999408279242,798.3028006125761
1731017621.6475008,793.3937022733826,803.0197725338097,807.9220732013538,800.2020735675762
1731017621.647802,791.8887699764861,803.499442731121,807.8443276232946,801.7662769948141
1731017621.6514032,791.4049192800841,802.9248858574454,807.7666141763418,802.448741810824
1731017621.6542196,791.5678380640759,801.4015131334004,807.6893445766419,802.8338080771164
1731017621.6553056,791.9040801138922,799.8132040621814,807.612889218882,803.523446429035
1731017621.659208,792.1312940955348,799.1950582420407,807.5373692575109,804.2209114594364
1731017621.6631105,792.2054701576857,799.9846630035104,807.4627226089184,803.8541333689587
1731017621.663398,792.2059452917291,801.7548731415322,807.3888464493408,801.6047782967557
1731017621.6656296,792.2133329321551,803.5867669558185,807.3156835531906,797.9501778676686
1731017621.6670127,792.2576964599477,804.7136886305533,807.2432305439662,794.8087296063054
1731017621.6709151,792.3283267203697,804.9279480759959,807.1715074245885,794.52115751387
1731017621.673111,792.4035733846753,804.5317275219888,807.1005295023117,798.2500679548677
1731017621.6748176,792.4705537313338,803.9945993167133,807.0302978847524,804.910625237068
1731017621.67872,792.5281624867455,803.6327084864572,806.9608038967515,811.5428168112026
1731017621.6789942,792.5810126037578,803.5059961204647,806.8920367215469,815.0739708677113
1731017621.6826224,792.633260449325,803.5120692741756,806.8239876544372,814.3034798516549
1731017621.6865249,792.6862384271592,803.5310170982958,806.7566502440908,810.6276076150729
1731017621.6904273,792.7392030060877,803.5054233517163,806.6900185799057,806.9406812202534
1731017621.6920023,792.7909543243786,803.4390135667859,806.6240858549701,805.592110651076
1731017621.6943295,792.8408183752165,803.3589445654421,806.5588439481613,806.9654732753835
1731017621.6945903,792.8887414653606,803.2853043585612,806.4942837085842,809.611996727653
1731017621.698232,792.9349441064178,803.2225330272347,806.4303953677302,811.6009781042152
1731017621.700682,792.9796019583944,803.165549673887,806.3671687529446,811.9570265127271
1731017621.7021344,793.0227380333297,803.1083471798753,806.3045932864261,811.1961304088951
1731017621.7060368,793.0642732315052,803.0482693104807,806.2426578973375,810.7103332817769
1731017621.709939,793.104113065247,802.9857568791468,806.1813509565095,811.5252568531057
1731017621.7101865,793.1421948252184,802.922304141108,806.120660267014,813.3554173279205
1731017621.710894,793.1784872410265,802.8589225231833,806.0605730903314,814.6714549124422
1731017621.7138414,793.2129701713937,802.795782249479,806.0010761774744,813.7408327634326
1731017621.717744,793.2456212617889,802.7325841910291,805.9421557891118,809.8406376478547
1731017621.7216463,793.2764187561633,802.6690132827687,805.8837977050069,803.7311396056481
1731017621.7255487,793.3053518834215,802.6049436871671,805.8259872298689,797.145829819419
1731017621.7257826,793.3324212727858,802.540408933012,805.7687092011913,791.8667701436705
1731017621.7294507,793.3576166578969,802.475489455296,805.7119480004998,789.1328019787234
1731017621.7297854,793.3808804080176,802.4102347454816,805.6556875667518,789.5652329534641
1731017621.7333534,793.4020956690518,802.3446492795753,805.5999114102523,793.1856261217739
1731017621.7357342,793.4211499906273,802.2787154934248,805.5446026263016,799.170598789254
1731017621.7372558,793.4380809138071,802.2124192964498,805.4897439086382,805.636495092473
1731017621.7411582,793.4531992393123,802.1457605898537,805.4353175630515,810.1058897373032
1731017621.7413788,793.466980586016,802.0787482335693,805.3813055214371,810.7770246959095
1731017621.7450607,793.4795756575566,802.0113870599633,805.327689356333,807.7723409103115
1731017621.7486768,793.4901458391614,801.9436672060149,805.274450295854,803.2652629369933
1731017621.748963,793.4967589969488,801.8755669178021,805.2215692389196,800.1993342407794
1731017621.7528653,793.4977417297893,801.8070757990116,805.1690267707285,800.4728329265705
1731017621.7567675,793.4944592767079,801.7382295207037,805.1168031784686,803.8813715577229
1731017621.7569747,793.4933911359885,801.6691218071212,805.064878467273,808.4810086377554
1731017621.7606702,793.503598310375,801.5998479728134,805.0132323764205,811.9779574480592
1731017621.7645726,793.5272971208263,801.5303723068473,804.9618443957669,813.1068898410841
1731017621.7675683,793.548548010066,801.4604110831272,804.910693782392,812.1034806118743
1731017621.7684753,793.5353862264814,801.3895215580961,804.8597595774418,810.0981476015932
1731017621.7707863,793.4743870798288,801.3175404606332,804.8090206231496,808.0305171474402
1731017621.7723773,793.4435459711674,801.2451980295184,804.7584555800244,805.9957008431932
1731017621.772571,793.7003518322246,801.1742478694409,804.7080429441914,803.5517879426334
1731017621.7762797,794.7216179477796,801.1062815696616,804.6577610648752,800.672222255272
1731017621.780182,797.0863908278302,801.0402063395092,804.6075881620083,798.3709036230858
1731017621.7840846,801.1168816961384,800.9702780617621,804.5575023439533,798.2106097297673
1731017621.7864597,806.4059305642928,800.8882834808611,804.5074816253233,800.9220800965397
1731017621.787987,811.6551261855566,800.792195977403,804.4575039448829,805.3465846734447
1731017621.7881672,815.2031481404832,800.6972872090968,804.4075471835193,808.8455396528843
1731017621.7918892,816.0514389051928,800.6367309210519,804.357589182271,809.0921776226779
1731017621.7957916,814.6094336022043,800.6366712749495,804.3076077604078,805.8528926376414
1731017621.799694,812.4889482641944,800.6674762588015,804.257580733552,801.2492130804683
1731017621.8035965,811.4510197032727,800.6084517481765,804.2074859318201,798.2331965307521
1731017621.8037636,812.2749692098295,800.2890277895963,804.1573012179458,798.4801244665446
1731017621.8053513,814.2916574048503,799.6291013533793,804.1070045053469,801.30671500115
1731017621.8058388,815.7941468603653,798.782173572552,804.0565737761264,804.3215889021492
1731017621.8074987,815.032721657051,798.1249587097032,804.0059870990659,805.1890599818989
1731017621.8114011,811.2312982777266,798.0826610611973,803.9552226477194,803.1909270233081
1731017621.8153036,805.0207767013043,798.9642590782481,803.9042587186515,799.5842554488169
1731017621.819206,797.9829966898312,800.915514753972,803.8530737496367,796.6840853167697
1731017621.8193598,791.6364348376753,803.8875104582231,803.8016463373497,796.4178871660877
1731017621.8231084,786.6845243138895,807.522261195837,803.7499552540747,799.281313907854
1731017621.8242426,783.1115802599556,811.0794855698414,803.6979794636209,804.192364016608
1731017621.8270109,780.8839267259096,813.6179527121108,803.6456981378753,809.1382575481646
1731017621.8309133,780.4312125710107,814.424993691114,803.593090676218,812.1578375628816
1731017621.8348155,782.3464636915816,813.4089973227242,803.5401367286088,812.1899813644993
1731017621.834956,786.5620986597949,811.1703120853363,803.4868162186779,809.4791381645204
1731017621.838718,791.8264213877414,808.7327685773188,803.4331093580339,805.405704721962
1731017621.8408911,796.1198291887522,807.134053279931,803.3789966438559,801.7957156724485
1731017621.8426204,797.8830607354618,807.0496918372584,803.324458845326,800.0146800203538
1731017621.8431342,797.1918563957129,808.5089625378138,803.2694770077534,800.3608337006826
1731017621.8465228,795.8962871396769,810.772469144777,803.2140325154625,802.162411484144
1731017621.8504252,796.4206766396949,812.5410524127816,803.1581072232375,804.458923283979
1731017621.850552,799.958116849366,812.5947813043558,803.1016835790749,806.6315712161589
1731017621.8543274,805.3857806129431,810.6078032695937,803.0447445707686,808.4369373430903
1731017621.85823,809.81790224711,807.5361516446754,802.9872733623766,809.582294364206
1731017621.8620255,810.5291378154418,805.0947449523347,802.9292527593104,809.5128293735962
1731017621.8621323,806.9206227452453,804.52731123924,802.8706650735088,807.8228447112651
1731017621.8660347,801.1096148682279,805.5910288499566,802.8114931361475,804.9217311676522
1731017621.8661482,796.6917724412499,806.6726101565366,802.7517225281914,802.1636529429148
1731017621.8699372,796.5186804583352,806.061204078819,802.6913434214695,801.0826833904698
1731017621.8738394,800.9884299566627,803.3664619049745,802.6303488564292,802.2482435431234
1731017621.8759434,807.9263331339146,799.8822021797903,802.5687272519202,804.7077299055086
1731017621.8777418,814.0208028981099,797.5922573552008,802.5064524020898,806.5677916326134
1731017621.8809173,816.7991843865082,797.6827016352313,802.4434821858007,806.3472557521583
1731017621.8816442,815.8854860467587,799.7893297504089,802.3797794389008,804.1073405311105
1731017621.8817444,812.8326403709015,802.4820077789693,802.315354063334,801.5241913605553
1731017621.8855467,809.7817164351567,804.4074864216517,802.2502933461126,800.8387295126192
1731017621.8894491,807.9800631024615,805.0851781119886,802.1847207881427,803.3978445288469
1731017621.8933513,807.2459845253271,804.8736742626469,802.1186484723372,808.7641430485055
1731017621.8972538,806.6865251372375,804.4542337832048,802.0517963698012,814.9761900853845
1731017621.8973403,805.9349372154725,804.4480579912854,801.983597405502,819.7579838450271
1731017621.8998086,805.7633971907177,805.3437917054478,801.9136273270127,821.8363619756611
1731017621.9011562,807.5075522366379,807.422754560157,801.8423979428068,821.4908209706408
1731017621.9050586,811.7807273134489,810.4596650015944,801.7718424437425,820.0557395766601
1731017621.9089613,817.5625617079726,813.470022360735,801.7043782513929,818.8491439614035
1731017621.9109955,822.4700372928467,814.9664086064178,801.6400209435604,818.339593410142
1731017621.9128635,824.1352034279477,813.7679955877436,801.5731537896611,818.0797205622039
1731017621.9129367,821.7892511762363,809.8352851227636,801.4931748453458,817.316017010225
1731017621.9167657,816.936471767835,804.4942549130072,801.3931713795499,815.7168962080092
1731017621.9187,812.536173965683,799.8536551590009,801.2844963392224,813.6519028965139
1731017621.920668,811.102746078358,797.7749310020482,801.2033822755387,811.85124698338
1731017621.9245706,812.9775945549518,799.0016396178327,801.1950656914677,810.7596795021399
1731017621.928473,816.0717119588292,802.9014157857318,801.2953025453544,810.1263505250465
1731017621.9285328,817.3980272008686,807.8884731624678,801.55925136735,809.1781163826977
1731017621.9323754,815.3056227829845,812.226114632022,802.1218239026698,807.2396208982013
1731017621.9362776,810.665282169287,814.7560641669971,803.1662672784931,804.27781114464
1731017621.9375916,806.0626844226408,815.2210579795603,804.727833469092,800.9232645188819
1731017621.94018,803.7323522726188,814.1215866393912,806.4688354327236,798.0078232908276
1731017621.9440825,803.9935544352761,812.287226511405,807.6716293375783,796.070786383124
1731017621.944129,805.3826015203339,810.4348556341772,807.5520251523384,795.2094103813204
1731017621.9460478,806.1165000718001,808.9349661905533,805.7273818931064,795.2332400589003
1731017621.9479847,805.4700433950015,807.86550983632,802.5152282446845,795.8446982217267
1731017621.9518874,803.9851424014496,807.2509544011931,798.8235337085868,796.7211556388008
1731017621.9557896,802.65339223715,807.2417938953455,795.6804544137168,797.5817999024837
1731017621.956483,802.0437189144482,808.0113430106713,793.7294612927477,798.2764107398531
1731017621.959692,802.0825082341232,809.3992344829466,793.0397339784367,798.8104023315932
1731017621.9597251,802.3844400179969,810.663683383845,793.3091292290459,799.2721277714634
1731017621.9635944,802.6366112583953,810.7672084067061,794.2153666264611,799.7402629378197
1731017621.9674969,802.7415974342399,809.1949125704028,795.5974760036595,800.2433882312575
1731017621.9713993,802.7518482688641,806.673525867148,797.3617436774098,800.7717531629536
1731017621.9753015,802.7502944770677,804.9920184702795,799.2746670357661,801.305579787786
1731017621.9753215,802.7807804793459,805.7854936954938,800.8918064350745,801.8332647314404
1731017621.9753745,802.8428434116046,809.1420306640387,801.7305275993779,802.3540204940865
1731017621.979204,802.9172370739277,813.2432718762167,801.5629219171385,802.8722281742396
1731017621.9811,802.9886657483999,815.4949380777749,800.5765097274929,803.3917724538442
1731017621.9831064,803.0530954409379,814.3518075023563,799.2427449247954,803.9139139065463
1731017621.9870088,803.1138618307415,810.4167652549311,797.9887133080925,804.4380128654026
1731017621.9909112,803.1753927425045,805.970768732006,796.9614940642522,804.9630272267913
1731017621.9909177,803.2398271134199,803.362986439177,796.0993263480286,805.4884073094769
1731017621.9942658,803.3069913404748,803.5394025121275,795.4168045384909,806.0141726348234
1731017621.9948137,803.3758333222595,805.722952603286,795.1722504613175,806.5405891954755
1731017621.998716,803.4455867487453,808.2328872949016,795.6889965008377,807.0678764242006
1731017622.0026183,803.5160917225855,809.6215896499169,796.9786211648959,807.5961093970026
1731017622.0065138,803.5875525589402,809.3247480194743,798.572137345778,808.125265429828
1731017622.0065207,803.6602058103194,807.6244533385515,799.7968348341758,808.6553038978217
1731017622.0104232,803.7341583061774,805.242222139282,800.2826775235086,809.1862124296186
1731017622.0131574,803.8093997919323,802.9324820802389,800.2204696334446,809.7180128260939
1731017622.0143256,803.8858805968127,801.2053636787425,800.1263508377266,810.2507470747973
1731017622.0161524,803.9635639961313,800.1466176809184,800.3659641916805,810.7844585336023
1731017622.0182278,804.0424310614943,799.362010953692,800.9249693885727,811.3191708240287
1731017622.02211,804.1224657212297,798.1690754210791,801.6259763517619,811.8548681654024
1731017622.0221305,804.2036566248795,796.0576257766587,802.499827500058,812.3914963021033
1731017622.0260327,804.2860264658674,793.1655811882423,803.8610901623141,812.9290111303386
1731017622.0299351,804.3696576989715,790.3618687486944,805.9758099327703,813.4674733972453
1731017622.0320487,804.4546563111422,788.7492556264187,808.6568280355091,814.0071170891201
1731017622.0338376,804.5410218066588,788.8877249221777,811.1972598830283,814.5482580513788
1731017622.037706,804.6284930773153,790.3502460701924,812.7171882786952,815.0909626403813
1731017622.0377398,804.7165673197374,792.0052592983787,812.6435421335916,815.6346385019286
1731017622.0416422,804.8048959747146,792.8141075296772,811.0002681154941,816.1780385157778
1731017622.0455446,804.8939816100352,792.49217441797,808.3979545201281,816.7202203519789
1731017622.0494473,804.9855605748916,791.5420124932031,805.8068077456785,817.2623346923036
1731017622.0509405,805.0816975497374,790.7648952918977,804.23509727028,817.8087420023998
1731017622.0512047,805.1821995119461,790.7739175593572,804.3908519030582,818.3649435729071
1731017622.0533023,805.2818795151113,791.8552037744693,806.3933752043157,818.9311078741613
1731017622.0533495,805.3714494167517,794.0266751429557,809.6418567486616,819.4947581924214
1731017622.0572517,805.4455592503809,796.9649746158331,812.9661108989492,820.0321336224997
1731017622.061154,805.5157810850804,799.8294238923714,815.0890197931109,820.527734287143
1731017622.0650566,805.6162352921343,801.4065022565105,815.2235939339051,821.0077102381453
1731017622.0688984,805.7839617460049,800.8122154831797,813.4643903153517,821.5567676701112
1731017622.068959,806.0091962358691,798.3076115649471,810.706132149071,822.2716795590504
1731017622.0698316,806.1883060923587,795.4006906803767,808.1340008941269,823.1334347511344
1731017622.0728614,806.1525384252673,793.9173328056769,806.6314338077461,823.8714892840611
1731017622.076764,805.8350761267784,794.7147185328577,806.4738306989553,823.9932494872515
1731017622.080666,805.52846190394,797.1299015688576,807.4103290593517,823.1128729962876
1731017622.0844946,806.0132393070387,799.6035653401797,808.9407385416829,821.4197723076252
1731017622.0845685,808.2800302363963,800.8583437411959,810.5337381635114,819.7874944080282
1731017622.086257,812.7998501031042,800.6214497129562,811.7105039022566,819.1571808264024
1731017622.0884707,818.7516762579044,799.4603763761172,812.1004878102395,819.5522479484894
1731017622.0887232,823.9015510917443,798.1404472792004,811.5627206262425,819.6510171260122
1731017622.0923734,825.5370744206427,797.1804035452072,810.310516932237,817.4948927828448
1731017622.0962758,822.0625838862733,796.8640801193691,808.8982107670811,811.8931396027099
1731017622.1000907,814.2078583388558,797.4262079467527,808.0250192023503,803.4139572464005
1731017622.100178,804.9323560954,799.0293421327917,808.2505396642557,794.178084392725
1731017622.1040804,797.9547073456137,801.5090938659587,809.7362303249233,786.6661055269528
1731017622.1076148,795.7524243873283,804.229871857279,812.0683492481236,782.4869107380301
1731017622.1079829,798.2574939234632,806.341495252371,814.2404212673903,781.9159935225151
1731017622.1118853,803.1034697767054,807.3113728534296,814.9546316231649,784.2511251820937
1731017622.115687,807.3106279928438,807.28074220002,813.2934611353656,788.4432697481947
1731017622.1157875,809.2662556470116,806.9122565271741,809.4309595508605,793.5147300954803
1731017622.11969,809.5614703029262,806.8464513980954,804.7721081196289,798.6920334012331
1731017622.1213093,810.0928983127673,807.2258149803117,801.2029103630083,803.4016866917386
1731017622.1235924,812.2392852920203,807.667488609108,799.8991322373189,807.1963174911534
1731017622.126506,815.6605658038458,807.6685480870595,800.6396077789814,809.633154648945
1731017622.1274948,818.6639077956685,807.0823309755846,802.2113526207087,810.2614431034608
1731017622.131283,819.700533401785,806.288510137839,803.5473601775885,808.89805759923
1731017622.1313972,818.6461274431235,805.9523345322575,804.5973256644527,806.062584538414
1731017622.1352997,816.8288971648528,806.5674643186568,806.2012370122648,803.1082575449353
1731017622.139202,815.9209727947347,808.0912023800482,809.1396574095473,801.7079916172038
1731017622.1431043,816.7096498954656,809.8950629665203,813.2239921414632,802.9210562741408
1731017622.1453977,818.6651595291802,811.067478754355,817.182291859771,806.5051273305573
1731017622.1468794,820.3962995210547,810.9111608262972,819.3844616320482,810.9916554426023
1731017622.1470068,820.4476424676623,809.3480085936293,818.8190367218893,814.4762821569851
1731017622.1509092,817.9472912391794,806.9649018634121,815.6571378434952,815.6184927710116
1731017622.1548116,812.9895893363914,804.6477044369569,811.1300964485976,814.2888580919257
1731017622.1563616,806.7348921715512,803.0522254341886,806.90147413282,811.5483653837939
1731017622.158714,801.0471794224175,802.3042303228015,804.3342962371594,808.9928079743388
1731017622.1624756,797.5886163071117,802.1332306568016,804.0035542320979,807.8312428826293
1731017622.1626165,796.8107843479011,802.2584057357097,805.6031325973373,808.2563433537682
1731017622.164289,797.6572018562147,802.6333748171893,808.1925584120035,809.5145397911591
1731017622.1665187,798.3799739987272,803.348774240531,810.6205337396414,810.5871296417087
1731017622.1704211,797.865570359144,804.3785203285396,811.9529531132318,810.9152188901384
1731017622.1743236,796.3023495288753,805.4988760873931,811.7588971001253,810.6097630084544
1731017622.1780715,794.6720279750822,806.4623432907853,810.1478347215868,810.1083948431834
1731017622.178226,793.7501365123879,807.1952882676949,807.5631211369439,809.7351549407138
1731017622.1821282,793.6167644667942,807.7851166928667,804.5101467905627,809.5752075027672
1731017622.1831806,793.8884960492619,808.293314051091,801.4507469365682,809.6158762105008
1731017622.1860306,794.1713913411882,808.6248335131278,798.8895540190979,809.8092272934424
1731017622.1899333,794.296583821545,808.6034109358626,797.4013068237058,809.8991099105452
1731017622.191414,794.2920690969471,808.1835261703087,797.3708629727297,809.2489934855846
1731017622.193668,794.2512000672407,807.604821350472,798.593919184581,807.0189567728979
1731017622.1938355,794.2365049277244,807.3390724784045,800.1908566638693,802.7278271415488
1731017622.197738,794.2579897823395,807.8212508920103,801.0912999448726,796.819706536352
1731017622.20164,794.2967551560338,809.1027719698826,800.7765646419892,790.7584963642712
1731017622.202072,794.3332491154742,810.6520994748811,799.6242020437422,786.493779619732
1731017622.2055426,794.3598325652907,811.4966125753962,798.5122296584436,785.5721388452357
1731017622.209264,794.37874149247,810.7162280904273,798.0491725810613,788.3692222209537
1731017622.209445,794.3950428701396,808.0346405297581,798.1703847383318,793.8384988674446
1731017622.2133474,794.4118391867684,804.1078163161934,798.4600512498594,799.9463472598062
1731017622.21725,794.4294355775593,800.2626005529154,798.8000053409199,804.6537238093297
1731017622.2209637,794.4467305097585,797.8299179533075,799.6084765366844,806.9632916773875
1731017622.221152,794.4626932550198,797.5258960892895,801.373109879631,807.4029598542078
1731017622.2248602,794.4769555083449,799.2731233553048,803.9420732990134,807.5986447545154
1731017622.2250545,794.489652604798,802.4786212672411,806.3294525098709,809.1836221343815
1731017622.226466,794.5010414304685,806.4468654437751,807.3146139881634,812.7455952485003
1731017622.2289567,794.5112611143043,810.5963045202454,806.3398618307457,817.4736494096318
1731017622.2328594,794.5203046383735,814.4252511635381,803.9024754952329,821.6927331660745
1731017622.2367618,794.5280988637807,817.4396867173442,801.1034599598111,823.913140921933
1731017622.2398548,794.5345811711793,819.255279811965,798.7971709658451,823.725837658775
1731017622.2404563,794.5397267751241,819.8343445992931,797.1145042884876,821.9996425143732
1731017622.2406642,794.5435377850946,819.5856046709025,795.7109250530569,820.2943365131478
1731017622.2445664,794.5460226730708,819.1177611915848,794.3822675752288,819.9054974270355
1731017622.2484689,794.5471844590502,818.7843950840031,793.4034395654949,821.1736254088962
1731017622.2523713,794.5470200361692,818.4303448788902,793.2996040157851,823.4712996861783
1731017622.2560525,794.5455247143681,817.6006761994337,794.3329191768,825.7830699713933
1731017622.2562735,794.5426961760318,816.0146271043667,796.2136405938114,827.386820080142
1731017622.2587464,794.5385357152824,813.8488160513098,798.2703515605488,828.1391383173459
1731017622.2601762,794.5330475434517,811.6101272599437,799.8731497795919,828.2406921273358
1731017622.2615182,794.5262377033797,809.8041166967247,800.7255294529963,827.785572835747
1731017622.2640784,794.5181134940738,808.7213178655422,800.8447064734567,826.5425274108879
1731017622.2679808,794.5086834658919,808.4180149581653,800.3803681380572,824.1889301982617
1731017622.2716486,794.4979576516255,808.746298396305,799.533088340994,820.8078033105111
1731017622.2718832,794.4859477524271,809.3458162472392,798.6384046832678,817.1778298170634
1731017622.2757857,794.4726672123268,809.6777655365735,798.2272736920036,814.4866434189361
1731017622.2776375,794.4581312461304,809.1912880432133,798.8625177793325,813.5672225544246
1731017622.279688,794.4423568587022,807.5712375813491,800.8026645269641,814.2348289006807
1731017622.2835903,794.4253627847525,804.9238422826676,803.7707476094021,815.3202487384707
1731017622.2872448,794.4071692370576,801.7990651553547,807.0451802822846,815.4542193423348
1731017622.2874928,794.3877975021791,799.0386658049076,809.8070400689253,814.0095899167526
1731017622.2913952,794.3672697383777,797.4905929569247,811.4776827160181,811.4509813935274
1731017622.2952976,794.3456095297199,797.6550970654414,811.8571457476919,808.8297503020431
1731017622.2965293,794.3228433841464,799.3719255365854,811.1041160203929,806.8592792703657
1731017622.2965703,794.2990022268564,801.7158392523726,809.6981494740614,805.3172756139472
1731017622.2992,794.2741206768287,803.2673526820046,808.3900527450478,803.228003586806
1731017622.3028407,794.2482321764754,802.7784348693425,807.9897023013821,799.6668674045922
1731017622.3031025,794.2213615108038,799.9577666480159,808.9365630517453,794.5842469558862
1731017622.3070047,794.1935220845066,795.8441811506432,810.9042824740978,789.0471139714207
1731017622.3109071,794.1647281812974,792.3313805208775,812.8330700398527,784.6992813426191
1731017622.3148096,794.1350242098114,790.9731457745605,813.5004597343437,782.7798767102323
1731017622.3154206,794.1045109020973,791.8723678553814,812.2602882422514,783.3740920890964
1731017622.318437,794.0733262812299,793.5751666252846,809.4042998859645,785.4336297834807
1731017622.318712,794.041549005166,794.1633231789938,805.9229888198819,787.5344759825765
1731017622.3226144,794.0090615616467,792.7155602801814,802.9238581669732,788.774546347936
1731017622.3265166,793.9755188616772,789.9605466860266,801.1484267673725,789.1527068185088
1731017622.3304193,793.940607632607,787.6483691163928,800.8265377099324,789.2537425481956
1731017622.3316228,793.9046052164783,787.2468430632687,801.7966132371804,789.6141015566542
1731017622.3340335,793.8688225500966,789.0110473945773,803.6804003856575,790.2867064320059
1731017622.3343122,793.835133661647,792.0011634142049,805.9732975735674,790.8487538451552
1731017622.3343215,793.8040638274454,794.8436854917607,808.0706301474573,790.7471595145759
1731017622.338224,793.7723036293039,796.621588998717,809.3491253708362,789.7212834732128
1731017622.3421264,793.732501303691,797.352590532617,809.3766946641416,788.0765643203199
1731017622.3460286,793.6786581370367,797.8201650280854,808.1656153677741,786.6756899784142
1731017622.3496296,793.6167185160913,798.8896895297434,806.2668953812125,786.610684541926
1731017622.349931,793.5718578830914,800.7839852267683,804.5665574299016,788.6520327889477
1731017622.3532038,793.5775156852181,802.8850951928994,803.8541493606755,792.7368770945913
1731017622.3538334,793.6379676845022,804.2561383764697,804.407706615131,797.8397886534767
1731017622.357736,793.6839530171774,804.43942770109,805.8369207589936,802.412169998372
1731017622.3616383,793.5772874804385,803.7982116711761,807.2688534724955,805.1915155847639
1731017622.3652258,793.2247075562971,803.1068233264779,807.774468932942,805.8565806882785
1731017622.3655405,792.7864064157496,802.8500437245284,806.827361671524,805.0825414285002
1731017622.3666751,792.8203608390775,802.9485885547205,804.5858309533703,804.0216851990926
1731017622.3694427,794.1195255235627,803.1106880996552,801.866384363673,803.6569367251831
1731017622.372095,797.1663164045675,803.3238742500575,799.8005059129326,804.4401781532399
1731017622.3733454,801.5334364304274,803.9022738521304,799.3142645804763,806.2461195887712
1731017622.3772478,805.8088167587623,805.049661871467,800.6786515553509,808.4314987853897
1731017622.380822,808.3118686085738,806.4571982070847,803.3549045758572,809.9384149548044
1731017622.3811502,808.1747237435634,807.4379245755404,806.2008507597402,809.6298835058709
1731017622.3850524,805.970819189884,807.5389881582969,807.9425083385013,806.9524453572712
1731017622.3889549,803.4128741124753,807.0371882766423,807.7503093021691,802.5842191173216
1731017622.3909867,802.3794352719289,806.7619637671204,805.7248147356228,798.4508328128122
1731017622.3928573,803.9524255747348,807.3133092170842,803.0199904372139,796.8135017512475
1731017622.396418,807.9704351813089,808.3823262922789,801.3582964626861,798.8848138766405
1731017622.3967595,813.1828499144152,808.8873990806903,802.0269825991593,803.9460746188277
1731017622.4006622,817.8491181944459,807.9183912207642,804.9464270097249,809.6974055113451
1731017622.4017274,820.5468960649833,805.680045172727,808.5558981988813,813.6806430197672
1731017622.4045646,820.8411342625524,803.5467134714536,810.7446445624432,814.7707889150304
1731017622.4084668,819.431761486902,803.1092246027947,810.2175142549949,813.6519391900348
1731017622.409878,817.6825206830528,804.9806060759747,807.2912148598285,811.9918477474404
1731017622.4120142,816.8915385660306,808.2967120360637,803.5656081375549,811.0619906998448
1731017622.4123693,817.8093826358281,811.2238693462664,800.8020020080788,810.9425266981316
1731017622.4162717,820.5620482894678,812.0356534290237,799.8793979465652,810.874715465736
1731017622.420174,824.7170918276817,810.0627357074735,800.4926270323507,810.2971118468307
1731017622.4240766,829.2504463088437,806.0544062029054,801.6073649005855,809.5351712813188
1731017622.4276104,832.5755247760679,801.840945258323,802.1984343469292,809.4977472277952
1731017622.4279788,833.0198727308456,799.4448758391785,801.7750334089262,810.6980717092033
1731017622.4287696,829.7769270315097,800.0153552619248,800.4857229993918,812.5551814927492
1731017622.4318812,823.7009333137843,803.1420849407986,798.8855264211959,813.650307396138
1731017622.4357836,817.1013506976341,807.0187734478899,797.5751293187782,812.7149334779402
1731017622.4367795,812.3703911737485,809.4460714767138,796.9024802775258,809.5011513882912
1731017622.439686,810.3740182206917,809.0686403505049,796.8272968277106,804.8786632781348
1731017622.4432063,809.966837594073,806.0331538528278,796.96265847442,800.2126912493602
1731017622.4435885,809.1439909719902,801.6646417544333,796.7648416485468,796.5908994751383
1731017622.4474907,806.8767178705718,797.4902283118321,795.8215826047416,794.43386008124
1731017622.4476607,804.006149612812,794.3998490124093,794.141222229945,793.6423623356329
1731017622.4513931,802.4160798505721,792.5309329659563,792.2816951386818,794.0603541422793
1731017622.4552956,803.2815298496008,791.7653266411218,791.1701409282849,795.8520108618699
1731017622.4588027,805.9772041529781,792.1739234420489,791.6213013426751,799.4567044903588
1731017622.459198,808.5434401404616,793.889297930857,793.7995656903257,805.0867447357263
1731017622.4631004,809.2128727778363,796.5940626632967,796.9914733643838,812.1217264033551
1731017622.4665525,807.6992628705821,799.3233040122803,799.9028987245126,818.933804885436
1731017622.4670026,805.2944490188922,801.0057727038281,801.3344905950772,823.4382822675523
1731017622.4709053,803.8211076488763,801.3668394573409,800.8145484541352,824.1316210489276
1731017622.471832,804.2974184385164,801.3290585750618,798.8250552062337,820.9698752292067
1731017622.4743989,806.2815621565248,802.4057086313632,796.5587110244455,815.500119860745
1731017622.4748075,808.312238333999,805.4760458268876,795.3850599585478,810.1462108578211
1731017622.47871,809.0595354890052,809.9292567689736,796.2459716725028,807.0812133184231
1731017622.4826124,808.2965027088577,813.9086801777678,799.1917414624279,807.3094655983133
1731017622.4854438,806.9664427323854,815.4973695275296,803.3029242199088,810.3705126460798
1731017622.4865148,806.350147254519,813.9494347810702,807.148548628906,814.705217046339
1731017622.4899952,807.0522860237356,810.1029072823754,809.5842466828706,818.4443837687822
1731017622.490417,808.6225676547484,805.7880478517885,810.3632006674302,820.2591897007832
1731017622.4943194,810.0355580640295,802.7300486881355,810.1282616862629,819.908974918677
1731017622.498222,810.5246720674633,801.6639423880828,809.8549566104181,818.2351981645661
1731017622.5021243,810.04457364716,802.1445561935296,810.2221373618244,816.5973360112445
1731017622.5043354,809.0598801051904,803.0893557007007,811.3182373589949,816.0453972298366
1731017622.5055914,807.9912537225597,803.6517608398809,812.7244983970727,816.7023518830022
1731017622.5060267,806.9240537450389,803.802720147713,813.789826192363,817.7483130218473
1731017622.5068843,805.8660557908468,804.198225087856,813.9492966605411,818.047885816983
1731017622.5099287,805.202615402583,805.4664528669788,813.0062845548886,817.0095498984292
1731017622.5138314,805.6556004017498,807.5333649559401,811.2594377244445,815.0272702056835
1731017622.5177338,807.4778901811486,809.5711367609524,809.3688000359739,813.0982797375652
1731017622.5211875,809.5582931832766,810.6036339308894,808.034621785003,811.8590124794915
1731017622.5216362,809.5898529822359,810.2406406886793,807.7086659399929,810.8436495300064
1731017622.5232267,805.6897672776745,808.9485229049711,808.4568075559276,808.7068324490085
1731017622.5255387,798.3398145728581,807.705706561015,809.9050607324776,804.3834937410859
1731017622.5294409,790.7901289822406,807.375477737557,811.2450973094943,798.2556927836864
1731017622.5333433,787.1569346196585,808.244784054427,811.472494191023,792.217025995675
1731017622.5367837,789.5383952842623,809.9461859332844,809.9570404704507,788.4274579212412
1731017622.5372458,796.5423070202293,811.708328589035,807.016953750551,787.8178797148068
1731017622.5411482,804.4901375633397,812.7648762910068,803.9240764347554,789.7243035249571
1731017622.5419364,810.2334149404477,812.7419115866643,802.1681602798013,792.9197409257673
1731017622.5421183,813.1902365597718,811.8507880215719,802.5134703752408,796.870207669552
1731017622.5450506,815.0457993868821,810.776820066296,804.5908421893538,801.8565834639383
1731017622.5489528,817.6362965854275,810.3153311297726,807.2467565105937,807.8976687160957
1731017622.5523798,820.9434895686576,810.9529378620285,809.2344458421265,813.7421687616992
1731017622.5528553,822.8227954045542,812.5846758727455,809.7339460349414,817.1324954397153
1731017622.5567577,820.5848727117028,814.4526684724277,808.548365780916,816.2334653867589
1731017622.56066,813.1602154408056,815.3552269826713,806.0891652343404,810.9960396681626
1731017622.5610096,802.2535929369063,814.1795938029894,803.2034314821142,803.3533298391693
1731017622.5645626,791.6857831117845,810.6380921104007,800.807062332286,796.1999828222449
1731017622.567976,785.35701139227,805.7421131782831,799.4355863796308,791.9686260268578
1731017622.568465,785.1323703846177,801.4641491985496,799.018824547228,791.648716593883
1731017622.5723672,789.960898807243,799.5727546247965,799.0812098755255,794.5901541921272
1731017622.5762696,796.7365253415666,800.4239796972776,799.2004819813337,798.9899631894692
1731017622.5769887,802.2885855227969,802.7101458174267,799.3219802978219,802.7715165975516
1731017622.5799012,805.1697097872568,804.4476097747682,799.676905613872,804.4920130916825
1731017622.580172,806.1076555427314,804.4549942519992,800.4185210114199,803.9038550935329
1731017622.583572,806.9906237357345,803.1784814945212,801.3246024377423,801.9400096597814
1731017622.5840745,809.2984743510806,802.2655746843252,801.8491470220638,800.1667934203267
1731017622.5879767,813.1512148995739,803.2591210488413,801.5129217423555,799.9738328495241
1731017622.5918791,817.4769469315759,806.4130629141922,800.3158607375203,801.8511869706309
1731017622.5957816,820.8801899996115,810.487282114363,798.8007841166051,805.0832549907227
1731017622.5987928,822.4337017518902,813.6026298623262,797.7073620283028,808.0785041051324
1731017622.5991683,821.9642849493723,814.4405640077781,797.5539141631897,809.271167036059
1731017622.599684,819.906802594601,812.8915048197748,798.5154456572792,808.1240547151634
1731017622.6035864,816.9760110029488,809.8064514022515,800.57274736103,805.5512357447714
1731017622.6074889,813.8289325227731,806.2599988399963,803.5916035438389,803.3850173717927
1731017622.6113913,810.8513295838612,803.0176388445378,807.1754881748242,803.2139479192911
1731017622.612041,808.1917950236895,800.5266192860843,810.5654014419447,805.4381582516158
1731017622.6147645,806.0015815948808,799.1530239804398,812.9272979347401,809.2226877024818
1731017622.6152935,804.6044460839787,799.1815899792141,813.9228933147988,813.2898654329892
1731017622.617684,804.3442896072573,800.4685754327046,814.0267899566134,816.8286460341681
1731017622.619196,805.2095709832893,802.1653237442403,814.1864178821392,819.7836056563983
1731017622.6230984,806.6346067220442,803.0006387621332,815.0404164359218,822.3940978399354
1731017622.6270008,807.7476869706984,802.0896799803534,816.3729941998835,824.5205233886509
1731017622.6303606,807.8946854905275,799.6527348523132,817.2834754948426,825.4403773920484
1731017622.630903,807.0078809088332,797.0115625193712,816.8857046675342,824.330856869628
1731017622.6348054,805.5702948121589,795.8171055082728,814.9069051051017,821.0217846647141
1731017622.6365757,804.2905714616948,797.0622075913899,811.7511939402716,816.3523417798256
1731017622.638708,803.7644420946428,800.5170536133135,808.1455786752978,811.7821113358816
1731017622.6426103,804.2818150157602,804.8473716690943,804.7866496896341,808.5160851124069
1731017622.6459568,805.7484867686195,808.2621293995344,802.2209049354674,806.8191713683007
1731017622.6465127,807.6246064045727,809.3511898445886,800.8452947758599,806.0599774534262
1731017622.6470933,808.8896353821567,807.7582699697244,800.8284868771913,805.3996221959562
1731017622.6504152,808.2230017954123,804.3823532099435,801.969154660601,804.4766343808259
1731017622.6543174,804.6077233264864,800.9473963799124,803.7087679692359,803.5128817484047
1731017622.655467,798.2415864726117,799.083920742753,805.4245479398327,802.8993659821734
1731017622.6582198,791.144152602219,799.4056132638951,806.8159473889143,802.7852186358147
1731017622.6615531,786.6996941631411,801.1647776907681,808.022690337356,803.0220160627381
1731017622.6621222,787.9744066529481,802.7598020528171,809.3302540398251,803.3642301831654
1731017622.6660247,795.6987777496436,802.7989176597833,810.7485157049978,803.6534789216847
1731017622.6699271,807.3740236609784,801.0153590404682,811.9077286709385,803.8598367994032
1731017622.6738293,818.3301719485977,798.418139476615,812.380628716242,804.0247123211442
1731017622.6743586,824.1327342680645,796.5943013432928,812.0765786811326,804.1934735659236
1731017622.6771493,822.7712410180139,796.6510001391532,811.304021748768,804.3845834274174
1731017622.6777318,815.3820270435805,798.5040659325196,810.4910672496923,804.5933287778682
1731017622.6816342,805.3903930628973,800.9698435721542,809.887887777883,804.8079639708451
1731017622.6821456,796.8178699817228,802.5756533096777,809.498130401942,805.0210627570324
1731017622.6855366,792.6012564837683,802.5162575017678,809.2008431715476,805.2317044240576
1731017622.6894393,793.472144427021,801.0898352729379,808.8898626039437,805.4423500044408
1731017622.6927454,797.7212829753089,799.3421679484028,808.5293613706126,805.6553865960202
1731017622.69325,802.0237014723297,798.2524464125942,808.1353607467129,805.8716877922801
1731017622.6933413,803.1456274168314,798.1268857197603,807.7359028062766,806.0909400234236
1731017622.6972437,799.7672415735308,798.6207151531817,807.3465880227225,806.3125239673914
1731017622.701146,793.2936604539855,799.2068364311627,806.9678891468127,806.5360837878998
1731017622.7050486,786.9521903378849,799.5824398830154,806.5934666779531,806.7616065032338
1731017622.7083416,783.652848017046,799.7385943707491,806.2180053579524,806.9892411987681
1731017622.708951,784.1312380109645,799.8049125366189,805.8399444114401,807.2191193790133
1731017622.7121415,786.7692670513077,799.8917305830644,805.4603058154852,807.4512880633257
1731017622.7128532,789.1512518819999,800.0328594999902,805.0805771895648,807.6857331476108
1731017622.7167556,790.007932074711,800.2083196765251,804.7015111050343,807.9224269549269
1731017622.717198,789.9823579894966,800.3875689964518,804.3230684742464,808.1613564369682
1731017622.720658,790.7465290137193,800.5546332515012,803.9448889070504,808.4025253945738
1731017622.7239375,793.3599697845181,800.7097892671813,803.5666934276762,808.6459441377879
1731017622.7245605,797.2477325226388,800.8601291492761,803.1884063738463,808.8916202910731
1731017622.7284627,800.534789078328,801.0112447104767,802.8100807950976,809.1395559992194
1731017622.7310328,801.3739291195276,801.1645903774456,802.4317869668007,809.3897497368185
1731017622.7323654,799.2192534094689,801.3189349528552,802.0535556679071,809.6421987802299
1731017622.7362676,795.1415713288956,801.4726638583477,801.6753800026715,809.8968998193166
1731017622.739534,791.0458410657579,801.6250084392329,801.297238212668,810.1538476903003
1731017622.74017,788.4484037403172,801.7760460105085,800.9191065991276,810.413034180274
1731017622.7440724,787.7252439788261,801.926171579523,800.5409584670206,810.6744493918083
1731017622.7479749,788.2638537868937,802.0756726611247,800.1627654711236,810.9380864870589
1731017622.7499244,789.1768156605654,802.2246140897868,799.7845175234015,811.2039466368929
1731017622.7518773,789.9000155530176,802.3729278588476,799.4062546200363,811.472036893483
1731017622.7522502,790.3239160462455,802.520534552801,799.0280718518225,811.7423547294152
1731017622.75513,790.5921278563236,802.6674021755415,798.6500490802125,812.0148642164967
1731017622.7557795,790.8638604107881,802.813541653969,798.2721065827443,812.2894875169518
1731017622.759682,791.2044133837458,802.958979284455,797.8938999498607,812.5661443994474
1731017622.7635844,791.5975472746602,803.1037382144358,797.5149608382391,812.8448460129223
1731017622.7674868,792.0019972463002,803.247835464589,797.1352058113316,813.1257785422544
1731017622.7688158,792.391482139497,803.3912836216073,796.7555616673327,813.4092417062064
1731017622.7707262,792.7625661240003,803.5340860246702,796.3779522963648,813.6953389604753
1731017622.7713892,793.1237727898064,803.6762271934653,796.0038189434762,813.9835404063379
1731017622.7752914,793.4834372208686,803.8176752228298,795.6313794669915,814.2725849603862
1731017622.779194,793.8446041743995,803.9584144183225,795.2539382127575,814.5613140514955
1731017622.7830963,794.206142019785,804.098501650275,794.8630975035546,814.8504605977072
1731017622.7863224,794.5658321359251,804.2380940781416,794.4587053798712,815.1440597837949
1731017622.7869987,794.9223769857239,804.3773680875154,794.0600174770436,815.4479288620718
1731017622.7873025,795.275688676994,804.5163022622729,793.7034669054669,815.7635370368356
1731017622.787707,795.6262581200457,804.6544597479283,793.4125475608365,816.0800590048576
1731017622.7909012,795.9745231644034,804.7910860501058,793.1466864371054,816.3737465979168
1731017622.7948034,796.3206310954455,804.9257988030316,792.7758267512077,816.6252155355174
1731017622.7987058,796.6645190255821,805.0596520466421,792.1526060408274,816.8532083141947
1731017622.8019185,797.006080681566,805.1955244758818,791.3092195098146,817.1373797259889
1731017622.8026085,797.3452661002175,805.3363701344601,790.6660398427124,817.5817161055153
1731017622.8065107,797.6820901797713,805.4810381606561,790.9884715144652,818.1908486327246
1731017622.806599,798.0165966972878,805.6205113195529,792.895083410917,818.7168524008721
1731017622.8104131,798.3488256516633,805.7405796942473,796.164148821931,818.6395929051092
1731017622.8143156,798.6788024245463,805.8355771369822,799.5432722638029,817.423299756517
1731017622.817515,799.0065430741917,805.927818929985,801.5035950896204,814.9391994393737
1731017622.8182178,799.3320632375206,806.0718376573409,801.422170831171,811.6967822472172
1731017622.8221202,799.6553830016636,806.3164496387385,800.1109061925348,808.6735595596207
1731017622.8223548,799.9765269793636,806.6218744685094,799.1665077948098,806.9047396286264
1731017622.8254902,800.2955222552758,806.7866695359892,799.7120262761894,807.0747210329458
1731017622.8260226,800.612396679242,806.4849570689366,801.6358262550785,809.2135973138294
1731017622.8299253,800.9271783534489,805.4640380339355,803.9382600179277,812.6291152379491
1731017622.833111,801.2398959309978,803.7937666596074,805.7629226555224,816.2464306420649
1731017622.8338275,801.5505790540217,801.9541648779231,807.0820342604263,819.2472632003083
1731017622.8377297,801.859258554968,800.6556044737828,808.3971908266475,821.5169791719139
1731017622.841632,802.1659664069224,800.488159733703,809.8388914358047,823.4546160725023
1731017622.8443818,802.4707355734463,801.5765561990353,810.6873292559046,825.2591763105529
1731017622.8455346,802.7735998851552,803.4098881027256,809.9157884857619,826.3440723955493
1731017622.8487072,803.0745939807258,805.0192260568354,807.2776706997747,825.4878816457772
1731017622.849437,803.3737532879261,805.5429171543866,803.8402539212434,821.70374999701
1731017622.8533394,803.6711140088821,804.861416549575,801.3708817316888,815.159680057686
1731017622.8572416,803.9667130915929,803.7567481827735,801.0794917290609,807.395326953807
1731017622.8574069,804.2605881891471,803.3686195895086,802.7958981596782,800.6359169036399
1731017622.861144,804.5527776158748,804.3682683203248,805.2125206116411,796.6987855471612
1731017622.8632731,804.84332030665,806.5461375619681,806.9065134524423,796.2221316029697
1731017622.8643034,805.1322557785792,809.0884654712614,807.3315372064632,798.5902663648795
1731017622.8650465,805.4196240898416,811.1790945865371,807.1238560837971,802.396587486194
1731017622.8689487,805.7054657924367,812.3789370572815,807.5744761705249,806.0510272005547
1731017622.8728514,805.989821884243,812.5982816510151,809.6028927724517,808.2801609411944
1731017622.8767536,806.2727337755407,811.9028917806312,812.878342434397,808.4826892196842
1731017622.8798995,806.5542432841129,810.4504196816196,815.7532285033477,806.9140068762507
1731017622.880656,806.8343926499333,808.5846623570795,816.2364837682985,804.5550156143933
1731017622.8821647,807.1132245203728,806.8814916497338,813.4541107333838,802.577427945204
1731017622.8845584,807.3907818356242,805.9790225773147,808.5070896443551,801.6450700154613
1731017622.8884609,807.6671075971576,806.250731810862,803.9475921399286,801.5597471155628
1731017622.8923633,807.9422446506167,807.5510731278584,802.1479300924872,801.5804098797494
1731017622.8924592,808.216235769228,809.2336072285349,803.7543191547311,801.1861262408987
1731017622.8954957,808.4891242677608,810.4561448796128,807.3665103159633,800.638668581427
1731017622.8962655,808.7609549124121,810.6018947802079,810.6103712340889,800.841667952374
1731017622.900168,809.0317741521401,809.5905001093847,811.7330055409416,802.5685814963955
1731017622.901056,809.3016283924001,807.933911943155,810.5815740106614,805.6469022414268
1731017622.9040704,809.5705601831069,806.5113932910604,808.424849484559,808.7441507206952
1731017622.9079728,809.8386050566062,806.1272834213028,806.9445206787694,809.9889368100071
1731017622.9110918,810.1057944376474,807.0117124303872,807.1785422947879,808.0896860396529
1731017622.9118752,810.3721684150881,808.5482949933663,809.0286879026057,803.2587764827344
1731017622.9157777,810.6377928585499,809.5158504634153,811.4581242433528,797.3095523431964
1731017622.91968,810.9027617311367,808.83603561003,813.1266336819132,792.7379770608957
1731017622.9199476,811.1671615704711,806.3605815735515,813.0945266621815,791.2385526386884
1731017622.9235823,811.4309995613996,803.0705719759898,811.273368649967,792.6007020634864
1731017622.926688,811.694151440997,800.4723020354178,808.4260234121641,794.8617916376963
1731017622.9274848,811.9564312542532,799.6338482705164,805.728955455169,795.7767039831622
1731017622.9275117,812.2178431789877,800.5845983282194,804.155984131977,794.5766979478549
1731017622.9313872,812.4788908505652,802.459747031196,804.0493277656377,792.58613616435
1731017622.9352896,812.7405707872042,804.1774048472198,805.091529407861,792.0872468264527
1731017622.938839,813.0036404133567,805.0952406866041,806.5979596175835,794.2972537785151
1731017622.9391918,813.2672624732169,805.2137902737801,807.8723683094474,798.1561336060006
1731017622.942284,813.5281691933582,804.9177903032753,808.4319823693274,801.0098103766667
1731017622.9430945,813.782250692279,804.5884161549942,808.0864258035525,800.6885841719511
1731017622.9469967,814.029474366447,804.3963154188662,806.9410361081242,797.2897361667009
1731017622.9508991,814.2794024476169,804.324505251396,805.3486700076512,793.2193892696882
1731017622.9548016,814.5500798183442,804.2890517999795,803.789398018869,791.5008159762848
1731017622.9577303,814.853112499205,804.2306938151313,802.7095529844349,793.7140091460562
1731017622.9578805,815.1683040486837,804.1381321236071,802.4161045561442,799.0667825952034
1731017622.9587038,815.4308519766729,804.0278518754384,803.0719775718984,805.0929861222513
1731017622.9625638,815.566325579342,803.9180176165819,804.7150463752628,809.3372525873625
1731017622.9626062,815.5858006946295,803.8161801465973,807.2019139271046,810.9084892171671
1731017622.9665086,815.6821590445685,803.7206168381853,810.1121307007901,810.9809080168404
1731017622.9704113,816.1875820423653,803.6266995674166,812.7753186706589,811.8877849044162
1731017622.9734764,817.265207407535,803.5314464103274,814.5220475881272,815.2371447270482
1731017622.9743135,818.4161079616239,803.43444919123,815.042251782256,820.2559586370452
1731017622.976622,818.2289054631217,803.3366639179438,814.5758540609066,823.744499672095
1731017622.978216,814.9212571025117,803.2390384606592,813.7299414379397,822.0781253527449
1731017622.982118,807.6698444325572,803.1419277109683,812.9954031400082,814.0348320350251
1731017622.9860206,797.7480411093082,803.0452125722792,812.3238932494077,802.2327307719827
1731017622.9890726,788.2567965205876,802.9486471021296,811.1552550243872,791.7871336198328
1731017622.989923,782.3656954080953,802.8520869580523,808.9354443171825,787.0070636022451
1731017622.9938254,781.3809024242278,802.75552441411,805.6847371792695,788.6288665979532
1731017622.9955134,784.1124781262241,802.6590186438767,802.065742885263,793.6419006697552
1731017622.997616,787.8517471734232,802.5626243210554,798.8688881961627,797.6110023624724
1731017622.997728,790.033389920679,802.4663630212787,796.4386359501739,797.5528053905444
1731017623.00163,789.4330545165221,802.3702293819038,794.6302188752505,793.4053982261773
1731017623.004669,786.4556234017258,802.274208062667,793.2963616531138,787.5747979144331
1731017623.0055325,782.7653035387331,802.1782877182847,792.6956397319326,783.378098252391
1731017623.0094347,780.5763675219038,802.0824711894609,793.2900695457819,783.4325355160693
1731017623.0133374,781.6918801131012,801.9867824729448,795.1071596435299,788.5331307517075
1731017623.0144048,786.4867351925303,801.8912623883027,797.3914136497584,797.2174066506267
1731017623.0172398,793.4278859021642,801.7959405716028,799.0199653667636,806.2383191893608
1731017623.020265,799.6996654801635,801.7007874295185,799.3639871670549,812.0027501066718
1731017623.021142,802.7389482948886,801.6056863245276,798.803535725034,812.3884004203625
1731017623.0250444,801.651944789612,801.5104932942618,798.4261085260694,807.8065132014929
1731017623.0289469,797.5064696380149,801.4152149177561,799.1780065873552,800.7249849639522
1731017623.0326684,792.4253564697929,801.3202035304698,801.1724202200676,794.0255094814961
1731017623.0328493,788.331784662866,801.226109291907,803.674880346468,789.4868712641597
1731017623.0332963,786.2518372252503,801.1333360172657,805.7300637401654,787.437305044588
1731017623.0358613,786.3655950443241,801.0411332695718,806.9127876661616,787.4524240361545
1731017623.0367515,788.3633293998847,800.9471619385196,807.5991796943482,789.09779181895
1731017623.040654,791.6903658621727,800.8487931410871,808.5201249330338,791.9927457662426
1731017623.0445564,795.682337643658,800.7465522884235,809.9441718874624,795.4779415537618
1731017623.0484588,799.7521626748161,800.6475494539919,811.1987811915974,798.6675389090984
1731017623.0514574,803.5423879899226,800.5638975449832,811.025527266646,801.0645796470901
1731017623.052188,806.8039790586546,800.5017885110493,808.5719002860125,803.0144748819733
1731017623.0523612,809.0848013674187,800.4447753161091,804.2177270410332,805.2944819545461
1731017623.0562637,809.7261193479914,800.3480619259923,799.4969747452983,808.155034997442
1731017623.060166,808.480369910393,800.1672755092613,796.1216433229396,810.8933877982668
1731017623.0640683,806.281598712586,799.9273935920047,794.9031643547938,812.5412438022178
1731017623.0670536,805.1960001901278,799.790298825208,795.4643138563313,812.9944179617122
1731017623.067721,807.1116796088972,800.0405724876327,796.9250512352461,813.3325999794955
1731017623.0679708,811.978191272275,800.9515175168839,798.8690711393158,814.8614122568849
1731017623.0710793,817.1876888033892,802.6162631067209,801.6568216746027,817.7640795091894
1731017623.0718732,819.0627330375162,804.8864414424374,805.7718879823345,820.7625760416038
1731017623.0757756,815.6661373411582,807.4490487315029,810.8218721854668,822.2630826491818
1731017623.079678,808.736432206823,809.9261909975307,815.2134860300347,821.9418739759534
1731017623.0826497,802.9244865106111,811.9022013236422,816.9791622929571,821.1496240007513
1731017623.0835805,802.62318086012,812.9388603783134,815.1895418383385,821.5904760482204
1731017623.0874827,808.7693124255914,812.7116937250714,810.7852431858247,823.4983688344016
1731017623.0899708,818.1192210115136,811.2617908542712,806.0800969553428,825.1664902425708
1731017623.0913851,825.4997608724672,809.146270338742,803.2708837372514,824.4221984659356
1731017623.0952876,827.2201823161432,807.2559199631264,803.0814695098335,820.7060927909756
1731017623.098246,823.1646901990142,806.33627876449,804.5172039839298,815.7882241451684
1731017623.09919,816.3813656138442,806.5545690732431,805.8035999977706,812.4535029577803
1731017623.102773,810.8783324149965,807.462531587264,805.7149684994932,812.3623008380926
1731017623.1030922,809.2983866424212,808.3703055276042,804.3198840652143,814.9268642067426
1731017623.1069946,811.7743915343814,808.7977717232864,802.714483828101,817.9931658215311
1731017623.1088622,816.2758081731707,808.6567938670216,802.0731893023323,819.5439530302698
1731017623.1108973,819.9664410838583,808.1214530261175,802.7553223591074,818.9732600308175
1731017623.113842,820.75832735802,807.4112591342122,804.0646087498387,817.0896244138492
1731017623.1147995,818.2486580950351,806.6796540664479,804.7644455879381,815.1150158907127
1731017623.118702,813.5579085298941,805.9856260420543,803.9589592337943,813.6076924462649
1731017623.122604,808.2766847756412,805.2459017207691,801.7415003225061,812.1148345625867
1731017623.1265066,803.400532308357,804.2086935381252,799.1880942760256,809.7334361196985
1731017623.1277535,799.1266746923575,802.6047838484645,797.7061094153809,806.0972042410046
1731017623.1294382,795.5574502531279,800.4739490271432,798.1527344009786,802.0014270921375
1731017623.130409,793.4491590079652,798.37263431336,800.2692241476733,799.1202828135551
1731017623.1343114,794.0810626977857,797.145472054573,802.7837877413838,798.9405552191083
1731017623.1378253,798.18703214043,797.3358201068296,804.1405517909844,801.6769009760427
1731017623.138214,804.8585963051675,798.7365087528428,803.426415811558,806.0221924485379
1731017623.142116,811.4789964731531,800.5242407322331,800.9231706106443,809.9700346644556
1731017623.1450343,814.937581016649,801.8719726571443,797.929216154481,812.0820386292244
1731017623.1460185,813.3218263207087,802.4694253798752,795.9547368334627,812.2180500886445
1731017623.1466453,806.9024629271415,802.5108012947784,795.8009495620265,811.2523995694623
1731017623.1499207,797.8048206843741,802.2756715567475,797.1253769623955,810.1922277038768
1731017623.1538234,788.7510376094971,801.8091842460276,798.7854512816562,809.54205607716
1731017623.1577258,781.8323895545622,801.0257840058567,799.6970671588776,809.3655871290405
1731017623.1606307,778.0388646266726,800.0640269921038,799.5431486181014,809.7494766618325
1731017623.1616282,777.5366725474477,799.4447734985346,798.8104469405215,811.0177263523136
1731017623.1655304,780.1089239267851,799.783938506293,798.2418501072426,813.3646844377514
1731017623.1655366,785.222232748341,801.2602004225205,798.2732881286254,816.223026297408
1731017623.1694329,791.739182827686,803.3139887665847,798.9083036599937,818.0613625588828
1731017623.1728773,797.7915341858296,804.9165648754965,799.9701254670737,817.0526185943569
1731017623.1733353,801.2715904975643,805.2961524335409,801.3457377274244,812.32688993744
1731017623.1762269,800.8473113252661,804.5821621924894,802.9728492961225,804.9150717761698
1731017623.1772375,796.8768350352849,803.7931208104405,804.6696681915154,797.5677939678359
1731017623.1811402,791.5389424120633,804.0739252854048,806.0744467232594,793.4105569085289
1731017623.184428,787.9284415821579,805.7601122052619,806.8158446785691,794.261947450044
1731017623.1850424,788.4941236161937,808.0784220098908,806.7727499683717,799.6919555555072
1731017623.1889448,793.6771774786229,809.7534665121826,806.1863087439616,807.3565776749499
1731017623.191823,801.6376160301634,809.9541471437043,805.534193735381,814.2906436535961
1731017623.1928473,809.3670776527108,808.7582370851627,805.2827343815356,818.3344683148288
1731017623.1967497,814.5190375124131,806.8885094073887,805.6883504424275,818.979578234865
1731017623.200652,816.6620110003088,805.1685848596437,806.7242751793684,817.3783113577833
1731017623.2033195,817.0286815545576,804.1985289325783,808.1122205449868,815.6496933207129
1731017623.2045543,817.0348951227253,804.2820557666104,809.428372945322,815.7914971963979
1731017623.2074192,816.8784270895338,805.36318604114,810.2738254987536,818.6183457432488
1731017623.2079296,815.4391169580917,806.9414154311559,810.4682421529358,823.2400611982082
1731017623.2084568,811.5201626119352,808.2001170312161,810.1583787330196,827.4680874377361
1731017623.2123592,805.2614939847347,808.4467220947618,809.7343460995457,829.043295748991
1731017623.2162616,798.4413877569643,807.5710088308405,809.5730787350114,826.9841644089164
1731017623.220164,793.4346859234689,806.0961802968104,809.786953027607,822.1863388523739
1731017623.222211,791.7603789263395,804.7352863574622,810.1807536489677,816.8849315167946
1731017623.2230153,793.3510991933797,803.83052129079,810.4637065801244,813.3544819310201
1731017623.2240665,796.9018804669296,803.16795334231,810.5537375576529,812.6730333819385
1731017623.2279687,800.8023515649063,802.3220058136937,810.7218418105225,814.2451177049692
1731017623.2318711,803.9416037857256,801.211318877452,811.4275199636284,816.2555446118812
1731017623.2357736,806.0116688512709,800.3439610122474,812.9257568839208,816.6968065631329
1731017623.2386117,807.3355760872541,800.4672167036163,814.91966239983,814.3737185075853
1731017623.239676,808.4442668533435,801.8533372008607,816.536092842672,809.4127133899539
1731017623.2411025,809.6604795657013,803.8402456694449,816.7005048606554,803.1293615189487
1731017623.242982,810.890560283974,805.1250528764718,814.7266822206867,797.3972519624559
1731017623.2435784,811.6935851978566,804.6855164803359,810.7849472013787,793.8150609196581
1731017623.2474806,811.5494573878235,802.5887321183712,805.9491745775128,793.0278779068482
1731017623.2513833,810.1809899183158,799.9551173665573,801.7403816988807,794.5127291314452
1731017623.2542076,807.8028589203157,798.0695538907817,799.3849969332142,796.9092387085229
1731017623.2552855,805.1791271428699,797.4253859628051,799.1990367005789,798.656403529823
1731017623.259188,803.3704181939829,797.5494430457868,800.4444519564541,798.5812212224463
1731017623.2599938,803.187620479234,797.6858220225957,801.7314174112123,796.2897024364238
1731017623.2630904,804.6549336404286,797.5887681346627,801.7546102940936,792.4157613392588
1731017623.2669926,806.9129433728609,797.6461503520719,799.9946922889432,788.6431923047069
1731017623.2698038,808.685949762148,798.3219840400884,797.0302185917595,787.1529158031701
1731017623.270895,808.943437740058,799.6097441933349,794.2915763028798,789.3691667901066
1731017623.2747974,807.2745781442867,801.0823721082284,793.3719827409,794.6710853801584
1731017623.2780342,803.8958926401674,802.3999439801869,795.2214534958333,800.2656403103279
1731017623.2787,799.57557366136,803.6438915256392,799.5835712545241,802.7897533963983
1731017623.2788854,795.5968243997027,805.1029568625332,804.948688127633,800.6874257664543
1731017623.2826023,793.4868081308302,806.7877923948142,809.1424611855963,795.4247366886752
1731017623.2854,794.2973892739913,808.2530372388547,810.3827829175124,790.3437938867978
1731017623.2865045,797.8255332887377,808.9568843726365,808.266926058765,787.9826242019051
1731017623.2904067,802.5449039127714,808.7987898377738,804.0231525811242,788.172150560301
1731017623.2943094,806.519755956752,808.2771582191916,799.7730890564401,788.6458878866052
1731017623.2977767,808.5996199893227,808.0920951493322,797.2852158301788,787.627478079862
1731017623.2982118,808.8915215863966,808.5711340950368,797.1023819453933,785.9694015083512
1731017623.300996,808.2712730263495,809.4566362407924,798.5860196930836,786.7605500243191
1731017623.3021142,807.5791862053559,810.2281021961654,800.6523939208341,792.6649568016054
1731017623.3060164,807.1870401639875,810.6307494512648,802.5049557902386,803.3871907411368
1731017623.3099189,807.0562482107559,810.917552327699,803.8625360397643,815.5295595441935
1731017623.3130865,807.003516725672,811.5901362307563,804.7353381799359,824.8779468732699
1731017623.3138213,806.900328605671,812.8620879159558,805.1365471924535,829.0410089761697
1731017623.3165922,806.7227953546419,814.3094937792911,805.0147600097307,828.34360210729
1731017623.3166685,806.507168293088,815.0470549217385,804.3960551758045,824.7001318817229
1731017623.3177238,806.2929630166267,814.3574815290759,803.5513966684574,819.894691708908
1731017623.3216262,806.0964161115721,812.3018613460249,803.0158734606504,814.7792510512978
1731017623.3255286,805.9136030959355,809.7915599981018,803.3749052042551,809.6926937013228
1731017623.3294308,805.7343698343303,808.0043022363769,804.8605733492724,805.282320118049
1731017623.3321886,805.5522111343059,807.5675959885338,806.9832321972431,802.7687686501199
1731017623.3333333,805.3662361936363,808.1385586403482,808.5443514348915,803.36112984889
1731017623.3355598,805.1785051059978,808.6988968563417,808.2193282883317,807.2971467131586
1731017623.3372357,804.9910400798498,808.3308603564894,805.4456012445806,813.3046882702359
1731017623.341138,804.8045644047925,806.8944550751154,800.9618186458418,819.0050509547043
1731017623.3450406,804.6187721409846,805.127843838454,796.475976712392,822.1136538603752
1731017623.3477848,804.4330874549847,804.1263076484483,793.616568478667,821.6941014888996
1731017623.3481388,804.247160024911,804.5891117949282,792.9633374773243,818.6392319710969
1731017623.3489428,804.0609370960566,806.3636321842176,793.9132465289777,815.072968453211
1731017623.3528452,803.8745077349394,808.5834659100514,795.404249964101,813.0884306471647
1731017623.3544512,803.6879458124608,810.258341107382,796.7884888292111,813.6194696710287
1731017623.3567476,803.5012511961853,810.8466978861784,798.1061594552923,816.0718841748952
1731017623.36065,803.3143726843716,810.3968491673635,799.6531773032024,818.8258386952666
1731017623.363381,803.1272554675652,809.2508314920619,801.4041873619582,820.2188852986152
1731017623.3645525,802.9398699843632,807.6878812491004,802.9169120396883,819.3901781645857
1731017623.3684547,802.7522070506238,805.8578894870536,803.7914229178391,816.520217937908
1731017623.3723571,802.5642459485106,803.9673833036255,804.166474754032,812.4559587975973
1731017623.3733428,802.3759195650371,802.384101986587,804.6927916917996,808.1490769075879
1731017623.3762596,802.1871152201492,801.4561566966331,805.9584888493314,804.3734799037716
1731017623.3789773,801.9977449637896,801.226072773426,807.9072101452059,801.7824029533083
1731017623.380162,801.8078688590468,801.3916953862829,809.8149992342055,800.9582644193534
1731017623.383191,801.6177624600998,801.6078937155094,810.8573770528287,802.1779477124439
1731017623.3840644,801.4277592590386,801.8184078247999,810.7430066385728,805.0732307680988
1731017623.3879666,801.2378009104847,802.2287250736533,809.8531005233672,808.6173657314272
1731017623.3918693,801.0469620468403,802.9062762451053,808.8099963988741,811.5702615555995
1731017623.392234,800.853606314791,803.4340793848364,807.9128422178567,813.039668020028
1731017623.3945732,800.6567836461577,803.0531188624607,806.9539120941279,812.7542291712954
1731017623.3957715,800.4584842449738,801.2627688386731,805.5466025741634,811.0052406976893
1731017623.399674,800.2646105502191,798.3745156105074,803.6420382683394,808.4705784873657
1731017623.4035764,800.081557933227,795.5060139571398,801.7795044199031,806.017641307657
1731017623.4074788,799.9075625400653,793.9570123192394,800.8636647954761,804.4163513697137
1731017623.4101694,799.7244917998838,794.3982197868132,801.6230463258645,804.0135311992952
1731017623.4111257,799.5027202708645,796.4333122406861,804.099721499959,804.6294490310696
1731017623.411381,799.229734413383,798.8261454425304,807.4859948041099,805.8284887431126
1731017623.4152834,798.9535098020459,800.2605094646707,810.440733981516,807.3263405618558
1731017623.4182434,798.800733991774,800.1754920067659,811.7556919448634,809.1112900049827
1731017623.419186,798.92088884885,799.1505212991842,810.9953030532861,811.1630305363469
1731017623.4230883,799.3725762620296,798.558287789249,808.6912968497127,813.1281538747253
1731017623.4257655,800.0888339390657,799.6665292163734,805.9551202854506,814.3937964202288
1731017623.4269907,801.0310987004085,802.759244062922,803.8008439227096,814.5616634819754
1731017623.430017,802.3515769826148,806.8553050528731,802.674806279158,813.8412070018167
1731017623.4308927,804.224040845085,810.2030323743471,802.4686363563802,812.9034557662549
1731017623.4347954,806.3855047080768,811.2317469516497,802.8563588272283,812.2719944173753
1731017623.4386978,807.9381324990896,809.3954583419911,803.5692921366824,811.8203135333839
1731017623.4413617,807.8301567900103,805.4530586695755,804.4133699483112,810.8690845891423
1731017623.4426005,805.7076248959495,801.0580237867354,805.1826471494173,808.7986758744995
1731017623.4465027,802.3333902342792,797.8907253753466,805.687905367572,805.6079205414306
1731017623.4489086,799.1102917390854,796.8152922751483,805.8706710324566,801.9490986063685
1731017623.450405,797.1115384979624,797.5556775934562,805.827225891649,798.707260628268
1731017623.4532957,796.5012128890842,799.0785326304189,805.7091282573932,796.5741110695469
1731017623.4543073,796.7987655775573,800.3661307874073,805.6179776045296,795.9242874656459
1731017623.4569578,797.5722945584644,800.9763603598786,805.5772385789469,796.8776972240761
1731017623.4582098,798.7806487335343,801.04795041732,805.5643487723281,799.2505849622902
1731017623.4621122,800.4720093353008,800.9395699045142,805.5517824228906,802.3494345972829
1731017623.4660146,802.2835423407955,800.9055219009771,805.5273154828368,804.9138103677502
1731017623.4678,803.3747785215002,801.0045462761852,805.4930169307722,805.5286617496644
1731017623.4699168,802.9515682703568,801.1772844901619,805.4558330812314,803.4406228398573
1731017623.472554,800.9458944713335,801.3515698229521,805.4204762629923,799.265386087707
1731017623.4738193,798.2441013990349,801.495102357585,805.3877586008716,794.9692424547177
1731017623.4777217,796.1980432488359,801.6129900985775,805.3563109818588,792.914047683429
1731017623.481624,795.7345988972477,801.7232568534804,805.3246841988603,794.4588433110271
1731017623.4855266,796.7534493861095,801.8382248570941,805.2923019768982,799.0681756705654
1731017623.4866917,798.3136054634298,801.9600687910252,805.2593252786279,804.606239348201
1731017623.48815,799.4446953255981,802.085243389532,805.2261335051464,808.6323258256936
1731017623.4883478,799.8671338015167,802.2099600044303,805.1929649685429,809.7971111565613
1731017623.489429,800.0134848147981,802.3326925248522,805.1598499691524,808.4673022532771
1731017623.4933312,800.4289682647334,802.4538408299252,805.1267110680405,806.3350946760901
1731017623.4972336,801.2140243932234,802.5743829485895,805.093473011471,805.3953360313325
1731017623.501136,802.034393313281,802.6949349449095,805.0601098543343,806.9013155829756
1731017623.5037465,802.5404571853365,802.8155735633422,805.0266378716519,810.7786735417019
1731017623.5050385,802.6642489952604,802.9360972174092,804.9930897327702,815.7034500119992
1731017623.505583,802.5692549263968,803.0563114892423,804.959491836055,819.7735766424436
1731017623.5089407,802.4469493865764,803.1761459891355,804.9258476330773,821.4645683681689
1731017623.5128431,802.391163708474,803.2956261594683,804.8921275520387,820.4096449947892
1731017623.5167456,802.398372311132,803.4148030130426,804.8582782545564,817.583295556913
1731017623.519343,802.4264616659203,803.5337126399918,804.824268403423,814.7494653466104
1731017623.520648,802.4433913874533,803.652375001688,804.7901614459277,813.444257762278
1731017623.5234,802.4415853549125,803.7708034068684,804.756150230661,814.056132213904
1731017623.5244744,802.4287566633029,803.8889968546079,804.7224526640199,815.562752077462
1731017623.5245504,802.4143868188684,804.0069163840863,804.6890338277167,816.1605084377081
1731017623.5284529,802.4028017257442,804.1244809706786,804.6553266925496,814.4891545342784
1731017623.5323553,802.3934148129748,804.2416273964775,804.6203550932968,810.6676142463674
1731017623.5349388,802.3839005687641,804.3584323944397,804.5836141266634,806.3188268795201
1731017623.5362575,802.3726452578902,804.4751971001162,804.5464333407378,803.409924242055
1731017623.54016,802.3593558804467,804.5923168023295,804.5124816913119,802.7113391326375
1731017623.543366,802.3444971424883,804.7098392637656,804.4855415994222,803.1341310464009
1731017623.5440624,802.3285765735571,804.8269413566328,804.4641647976657,802.5988286499514
1731017623.5479648,802.3118110088859,804.9419776484483,804.4368409471233,799.8440469120795
1731017623.550535,802.2941650978064,805.0537896155108,804.3853786029232,795.7541935847512
1731017623.551867,802.2755252316174,805.1640444976633,804.3024654307801,793.0807652508144
1731017623.5557694,802.2558228658913,805.2785692899215,804.2166522745206,794.6214116314501
1731017623.5584524,802.2350597602702,805.4044071513772,804.1981744804157,801.0995007373879
1731017623.559672,802.2132769541952,805.5411999726418,804.3113729172617,810.2864502328067
1731017623.5622573,802.1905203655203,805.6718948789221,804.5109501621428,818.090333065175
1731017623.5635743,802.1668252113029,805.7653791031499,804.5550082579479,820.9494112296841
1731017623.566131,802.1422126476683,805.8030095993036,804.0732072222568,817.9156112434514
1731017623.5674767,802.1166860934189,805.8220863746441,802.8649310639694,811.0249449444627
1731017623.5713792,802.0902283843742,805.9352959265578,801.2461738934483,803.7930823594957
1731017623.5752814,802.06281639901,806.2652047971172,800.0367033022403,798.9838887468144
1731017623.5791838,802.0344658608734,806.7739450553744,799.9931690263343,797.1802516584412
1731017623.5811489,802.0052849926581,807.0892758413629,801.1042898512009,796.9568472028717
1731017623.5817273,801.9754691546007,806.5523961576833,802.4612552397344,796.3032142067442
1731017623.5830865,801.9451630422171,804.6424223042309,802.9354321345824,794.2112394451306
1731017623.5869887,801.9142133978756,801.5463173210783,802.1197089477798,791.3708291175104
1731017623.5908911,801.8820263746123,798.2959231181036,800.7309783366917,789.5603661929694
1731017623.593505,801.8478763483563,796.1888043842058,800.1298170564838,790.1983158647442
1731017623.594793,801.8118166499927,795.9684858902534,801.3143413457259,793.1444016202678
1731017623.5973234,801.775666888545,797.4985857282425,804.1205952469466,796.7195227958225
1731017623.5986958,801.7427430192653,800.0995922627959,807.200904211413,798.9882421286308
1731017623.6000402,801.7150544091372,803.0746448448635,808.8230227108209,799.2674555863941
1731017623.6025982,801.6886817479807,805.9208231246595,807.9808744323169,798.5618694656353
1731017623.6065006,801.651640051865,808.1844801204933,805.0714158450867,798.5489847566905
1731017623.6104033,801.5906247629597,809.3002408011171,801.6590974446314,800.0785298226034
1731017623.6129196,801.508602218265,808.7042692345706,799.4860191701011,802.5883300003835
1731017623.6143053,801.4420104470834,806.1834600653774,799.4254875580642,804.8428695860453
1731017623.6182077,801.4519000782743,802.1827655550842,801.07253262309,806.0542581245677
1731017623.6189318,801.5668672767581,797.8143339196374,803.1411546646873,806.2942703328868
1731017623.62211,801.6953809330429,794.4964086786968,804.2793124270013,806.1063969838658
1731017623.6260126,801.5900278796098,793.3506241495072,803.7544707680868,805.9609808455403
1731017623.6285155,800.9712155113481,794.6376969657387,801.6990583397176,806.0237486535507
1731017623.628557,799.8010919231964,797.5603151987082,798.9301969350568,806.2326840799343
1731017623.629915,798.4527836918005,800.628652316427,796.5401727691179,806.4688295563899
1731017623.6338172,797.469916671953,802.4673354588957,795.4743105141994,806.6638035991381
1731017623.6377196,797.0489524318033,802.6152218447897,796.2428730449469,806.8139330112384
1731017623.637823,796.8508341616377,801.7944223759274,798.8089548659389,806.9457395405694
1731017623.641622,796.4829151261802,801.4293069390685,802.6081641505037,807.0821878346625
1731017623.644112,796.1678795870592,802.7045135966305,806.650912452239,807.230384190114
1731017623.6455245,796.7670527108863,805.7834180528724,809.7337503781315,807.3861926845963
1731017623.6494267,798.945823005616,809.6972299075458,810.82257424117,807.5432420797789
1731017623.6533294,802.2297618435017,812.9436209613325,809.5403196277238,807.6981933243381
1731017623.656715,804.9774463157692,814.3641307885329,806.4721371410302,807.851108846811
1731017623.6572316,805.525293339886,813.7348825943805,802.9764525840062,808.0034859028755
1731017623.659708,803.6297320573734,811.7579662032739,800.51474463652,808.1565148142671
1731017623.661134,800.9356005138595,809.5533766412839,799.9244090649872,808.3105221964374
1731017623.6636093,799.9522181777318,808.028086175625,801.1172603243648,808.4652712403567
1731017623.6650364,802.2563517570491,807.4945193978967,803.3135509801817,808.6204423923392
1731017623.6689389,807.2841637656649,807.6896179670749,805.5208706614153,808.775890942201
1731017623.6728413,812.6179514050974,808.0886905163247,806.9248804609018,808.9316480496165
1731017623.6753044,815.5497048173618,808.2744843933987,807.0993735177345,809.0878120193202
1731017623.675606,814.8069175538818,808.1535404590866,806.1095514652282,809.2444618548997
1731017623.6767435,811.2729124776183,807.9362035868307,804.5223479349485,809.4016345098188
1731017623.680646,807.280173443775,807.9212649047079,803.2308038291967,809.559340380379
1731017623.6845484,805.034147189319,808.2192247198233,803.0535680748186,809.7175790103588
1731017623.6884508,805.2686845626204,808.6025165448476,804.2637853572722,809.8763405919984
1731017623.6909006,807.0013544729484,808.6318915998692,806.3422517146475,810.0356072381312
1731017623.6923532,808.4521651597229,808.0244557661421,808.1793081365604,810.1953765309584
1731017623.6944976,808.4017348081512,806.9902196083473,808.6738877641326,810.3557074536304
1731017623.6962554,807.0165758227049,806.1985754551938,807.3775083856152,810.5167448634609
1731017623.6986616,805.5766259690062,806.2915016061953,804.7508387742618,810.6786509459582
1731017623.700158,805.3222870521128,807.28403987359,801.8471968438282,810.8414167384341
1731017623.7040603,806.3018039703314,808.3898679039689,799.6497709295827,811.0046692876335
1731017623.7064967,807.1629723488495,808.5120055138316,798.5425263034892,811.1677508655188
1731017623.7079628,806.1485509672567,807.0535157674881,798.2734520939257,811.330317192044
1731017623.7118652,802.5717889228162,804.3930288213073,798.3657238349579,811.4932736551352
1731017623.7133887,797.5852762208682,801.6610026424656,798.5837410898712,811.6591364695608
1731017623.7157674,793.5746603347233,800.0412975617132,799.060588194509,811.8305304036411
1731017623.7196698,792.604871647704,800.1284368829904,800.0295749339219,812.0065345102423
1731017623.7220929,795.0863129021876,801.7010179548369,801.4647600757626,812.1793323460807
1731017623.7235725,799.6144512729741,803.9261773662296,802.9992413856025,812.3364370356775
1731017623.7274747,804.0040548419533,805.7999061165075,804.2131166350359,812.4726420470147
1731017623.7313771,806.6690192160356,806.5792533407525,805.0294879086442,812.607196121318
1731017623.7322805,807.3425621058306,806.0059108185689,805.8412450995698,812.7880721196441
1731017623.733714,806.7500628461476,804.264382860032,807.203620478798,813.0597172605669
1731017623.7352796,805.7045178447171,801.8092722520338,809.2854531408237,813.3918413133345
1731017623.737689,804.4846387946877,799.2481947770303,811.4978833437129,813.6183666054351
1731017623.7391818,802.9732167241001,797.2987546218525,812.646155438325,813.4804255270001
1731017623.7430842,801.2611360754547,796.6590893462009,811.6128411607436,812.8232594905803
1731017623.7469866,799.9983560049202,797.7057539353423,808.1866985866732,811.8248055842153
1731017623.7508893,800.0820085117508,800.2049558129927,803.4706522647576,810.9958595816075
1731017623.751172,801.9640521417043,803.3477599511172,799.496561143102,810.8448382886872
1731017623.7532852,805.2321450952767,806.1931252058504,798.1620618929308,811.4633523382222
1731017623.7547915,808.8408976773048,808.2289984852847,800.0900404551874,812.4271038931317
1731017623.7586937,811.7740269661614,809.6173883765309,804.1593175953388,813.1176106675695
1731017623.762596,813.5742950490029,810.9170560981918,808.095967274076,813.1525058355148
1731017623.7664986,814.3548341179043,812.4828131004782,809.8073199629794,812.5056048068939
1731017623.768766,814.3989539186632,814.005340415923,808.578750291066,811.245349736946
1731017623.768881,813.8170452708747,814.5841376632043,805.3312048464775,809.2878049271958
1731017623.7700634,812.6310454095582,813.3526355773012,801.8473710189614,806.5971459046027
1731017623.770401,811.1722854152351,810.2375218086305,799.6211814031209,803.7296318920935
1731017623.7743034,810.2629338488097,806.2569421005853,799.1430307473428,802.064207087706
1731017623.7782056,810.7619576245196,803.0414247657848,799.9534296057633,803.19163909809
1731017623.782108,812.6900126387628,801.8499666810648,801.1940703666728,807.7359849243887
1731017623.7844777,814.7428981325758,802.7811230454442,802.1660886560126,814.5650056883013
1731017623.7860105,814.8955840909181,804.7475395340663,802.6101658997554,821.1747457660881
1731017623.788955,811.9000695365668,806.1911180279332,802.7126455841543,825.1120274657275
1731017623.7899127,806.5256048465945,805.9885755633993,802.9476605882905,825.4374650210393
1731017623.7938154,801.3549205591951,803.9582709851297,803.8325372044794,823.1564160127006
1731017623.7977176,799.0610062644362,800.7763842849279,805.6658065398024,820.3100303065418
1731017623.8000736,800.4391060371955,797.5434856629755,808.3490928226934,818.4327374640932
1731017623.80162,803.7968632641551,795.3661170764077,811.3738302242485,817.5665672320656
1731017623.8038182,806.2438333541427,795.112555692517,813.9766516568864,816.574960553449
1731017623.8055224,805.888198016733,797.2400327107126,815.4138904726714,814.4418879584305
1731017623.8078463,803.2519882456774,801.5665214428943,815.2870582294318,811.4236293114992
1731017623.8094249,800.8596617103519,807.093803963695,813.8047510169275,809.0304094538579
1731017623.8133273,801.3334878813317,812.1819476501955,811.8076500741623,808.7919232707862
1731017623.8156698,805.3875076548635,815.2187770484779,810.4329380701996,810.8165724565779
1731017623.8172295,811.1542818047385,815.4763248408616,810.5072847888674,813.3991798093967
1731017623.821132,815.3375752547245,813.5357436090522,812.0003395238368,814.1129705263503
1731017623.8250344,815.4160219833861,810.8817626297588,813.9251793040775,811.5866520868877
1731017623.826738,811.3877632078563,808.9105943304029,814.8404589181756,806.5667731454862
1731017623.8289368,805.850898591025,808.0951890782803,813.7137849428005,801.4334154036355
1731017623.831266,802.3502411648562,807.923614026584,810.6176402136279,798.5844817440455
1731017623.8328393,803.1010514980928,807.5683215244968,806.7786460996696,798.9552646522092
1731017623.8367417,807.6157426365787,806.6586172197669,803.8975211040523,801.7145668360257
1731017623.8388703,813.1251188573726,805.5265544065362,803.1521897628938,805.1579395829232
1731017623.840644,816.4366333569546,804.8163620963767,804.5388365417512,807.9147053547465
1731017623.8445463,815.8983130215852,804.8753896311237,806.9903447169538,809.5120072015204
1731017623.8456292,812.1539507644483,805.4431546607854,809.1537456649115,810.0507270615511
1731017623.8468623,807.3381440399879,805.827868689429,810.2191130959799,809.5572657763972
1731017623.8484488,803.479994049757,805.3566336455992,810.2054292699307,807.7728802522997
1731017623.8523512,801.3139106059524,803.7430732057524,809.6340141270377,804.5985118739738
1731017623.8562536,800.2228162507885,801.1838137963516,809.0174221349665,800.6774283245763
1731017623.8601558,799.1433931275451,798.2425817777519,808.5847528554324,797.3974422742376
1731017623.8624585,797.6225706524039,795.6581584643419,808.3133050692393,796.1366541519128
1731017623.8640585,796.2135541436196,794.1178668838393,808.0906122955058,797.3284235185857
1731017623.8645208,795.9656763948676,793.9865074574321,807.8372835480324,800.1394331251671
1731017623.8679607,797.4709069501497,795.0887493876991,807.5381957767856,803.0393297986473
1731017623.8718631,800.2630485133172,796.7451797293509,807.2154386107449,804.8006899450301
1731017623.8739228,803.058023607594,798.1391099749018,806.8933342498872,805.1664858396017
1731017623.8757656,804.611631319337,798.8089107880468,806.5819748574918,804.7513445161694
1731017623.8780546,804.4644630973881,798.9235306027521,806.2790273960278,804.3470852585722
1731017623.8796678,802.9996169358852,799.1626639957649,805.9782696303736,804.192605195344
1731017623.883412,800.8964311857691,800.3052334588351,805.6756881107073,803.7285967704644
1731017623.8835702,798.5744745176631,802.7653218923131,805.3707188013373,802.0059417172383
1731017623.8874726,796.1162382341995,806.2754150547066,805.0646249686439,798.4959345019795
1731017623.8913753,793.6208905902904,809.8599150389414,804.7586581726364,793.7686678757036
1731017623.8936508,791.5563822450243,812.2077993788124,804.4532750321446,789.5203464021031
1731017623.8952775,790.752396295145,812.393444366923,804.1482971303777,787.8003240639213
1731017623.89918,792.00233494926,810.5700911091567,803.8433765268788,789.8350167221048
1731017623.9023037,795.4887290958357,808.0710186721391,803.5383021510562,795.1761446128347
1731017623.903082,800.3564090128858,806.658286099816,803.2330467920948,801.7408377946639
1731017623.9069846,804.7964506632917,807.3474943243817,802.9276731461874,806.7847645001325
1731017623.9089751,806.8437782334856,809.6859873887726,802.6222368345688,808.3240297756774
1731017623.9092467,805.5873000426981,812.0722169978244,802.3167467650331,806.2491945911875
1731017623.910887,801.9424711255787,812.8858177955752,802.0111739485583,802.4296011367971
1731017623.9147894,798.201377500396,811.5748125902427,801.7054783898715,799.559633652954
1731017623.918692,796.4902803912175,808.9255787203298,801.3996343505468,799.3225432499219
1731017623.921195,797.303794324966,806.3892547857329,801.0936465978982,801.1630656514203
1731017623.922594,799.3524451170848,805.0111246378106,800.7875493982577,802.7713191214028
1731017623.9248433,800.8283192004126,804.7442953169386,800.4813753064382,802.073878396283
1731017623.9264965,800.9160142044594,804.6174285866393,800.1750941403681,799.1154555981119
1731017623.9303987,800.2269656103865,803.5985558164356,799.8685637109518,796.155893835628
1731017623.9343014,799.9261207231466,801.4782194197967,799.5615755344472,795.8632362207308
1731017623.9382038,800.5117824189203,799.0798057062627,799.2540551321114,799.1926379728985
1731017623.9400866,801.3759312702264,797.6466266991331,798.946332578094,804.7151270601365
1731017623.9404392,801.417921158936,797.922836186979,798.6391845958793,809.7470736928685
1731017623.942106,800.050901382938,799.6530594996815,798.3332843422654,812.1626232292159
1731017623.9440274,797.7351483274347,801.815272769499,798.0280727273009,811.5366272322506
1731017623.9460084,795.6866811341495,803.3036378233302,797.7209243471415,809.0753040830397
1731017623.9499109,795.0690630802019,803.5315972100902,797.4082113557984,806.6468609244313
1731017623.9538133,796.2779741039608,802.6348263588824,797.089237124659,805.5849089705158
1731017623.9560354,798.7657170700664,801.292158560231,796.7711304572123,805.9239314920616
1731017623.9577155,801.437769374744,800.3370344760029,796.4688665166979,806.4966982753717
1731017623.958978,803.2959888531065,800.3121273886408,796.1939396790631,805.85628993548
1731017623.961618,803.9162926301306,801.1199403684078,795.933163037898,803.4297101586588
1731017623.9655204,803.528356323201,801.9822984696756,795.6355074516777,800.086681216707
1731017623.9694228,802.7255536671976,801.8554324124667,795.2373651408406,797.6732559068765
1731017623.9716315,802.001186284625,800.1439974304362,794.742293622732,797.7737433625517
1731017623.9733253,801.3667193282183,797.2386255754013,794.3171544345197,800.5135207048363
1731017623.9772277,800.3115723583467,794.4297554460594,794.3037664980056,804.2543144266699
1731017623.9778695,798.2484154257952,793.1861290982607,795.0580492114897,806.5334192085281
1731017623.9790795,795.2428258297202,794.2678620197927,796.6698199487527,805.7742337757029
1731017623.98113,792.4157671671596,797.2575246684145,798.777166614657,802.6031656379674
1731017623.9850323,791.4286317725553,800.7803280344853,800.6656868455459,799.6528069344005
1731017623.9872277,793.1948141521126,803.2374250814847,801.6170967751875,799.7659352211786
1731017623.9889348,796.8718329411593,803.6082109693807,801.2792056410703,803.8837672910663
1731017623.9928372,800.235849595159,801.89595068353,799.8521632779504,810.3410549466921
1731017623.9967396,801.3844714498335,799.029545921672,798.0371662879576,816.1837406899716
1731017623.996761,800.3683121511677,796.3504037734876,796.7876171857126,819.3771307339624
1731017624.000642,799.2421409418694,795.0199234422131,796.916010838027,820.041120139055
1731017624.0028238,800.383032744623,795.6342387473081,798.6665957839908,819.8142969884697
1731017624.0045445,804.4582456701346,798.0953850355554,801.4863346232376,820.1185081947106
1731017624.0084467,809.7059761983745,801.6315411047766,804.2335773704923,820.9117699960381
1731017624.0123491,813.0695497874191,804.9475696657968,805.8081931234708,820.9011951896459
1731017624.014132,812.291839606296,806.6417958560633,805.822680100647,818.8794225798918
1731017624.0156524,807.4651292119657,805.9249444737125,804.8165974326762,814.9984747495272
1731017624.0162516,801.0101858347265,803.2938521966739,803.8221909296622,810.9649626567183
1731017624.0184202,796.1337349030518,800.5447831386629,803.5958769145564,809.0438547794686
1731017624.020154,794.8029923643867,799.8079310284033,804.1066767656836,810.6504458396768
1731017624.0240562,796.625174778286,802.0876403611848,804.6683485833943,815.5447386545047
1731017624.0279586,799.4340684166999,806.4049278102362,804.578502168513,822.0876483867295
1731017624.0318613,801.121884667762,810.3379949907285,803.7292310208479,828.1733803482393
1731017624.0340164,801.2397818773195,811.647254739681,802.7126989175349,832.0715725967385
1731017624.034544,801.0685340155627,809.7469375031519,802.3801398681095,832.7805452117736
1731017624.0357635,802.1861450209428,805.9344629518082,803.2273864707334,830.089335987214
1731017624.039666,804.863811092915,802.3425420482553,805.0581932217495,824.652112627436
1731017624.043568,807.7104437650332,800.5325977963018,807.1318499254177,817.9718147015353
1731017624.0474706,808.818572415881,800.7323252533123,808.6661564739178,811.9448493434916
1731017624.0491843,807.3565455363657,802.054266972603,809.3526787583276,807.9774890445012
1731017624.0496123,804.2534282609539,803.3036460036999,809.5398033693039,806.2539514018787
1731017624.051373,801.4793676998763,803.7314007546677,809.9415077624424,805.7946019391966
1731017624.053435,800.5930143585023,803.3335402749236,811.0423615682508,805.3353105832498
1731017624.0552754,801.7361200377682,802.6940876505653,812.6178123299534,804.3547683912179
1731017624.059178,803.7799207439285,802.5864132346385,813.7762282711353,803.4308214416336
1731017624.0630803,805.341586220495,803.5352014918036,813.5794567526074,803.6469474563788
1731017624.065209,805.7419725709606,805.4747355179759,811.810241846723,805.5455238570748
1731017624.0669825,805.1967140821654,807.652295289953,809.2499088880477,808.5023820112406
1731017624.0708847,804.3290147760148,808.9287493606021,807.1834160035395,811.0548362752501
1731017624.072327,803.6229426283845,808.442841904628,806.5157542112228,811.9198331808711
1731017624.0747874,803.2419181193831,806.2679562263384,807.237769131917,810.864872099025
1731017624.0786898,803.1369832994044,803.5287907184478,808.6479995592244,808.7481795378148
1731017624.0808048,803.1914267486216,801.7479766567089,810.0334939085083,806.7832275845868
1731017624.0825922,803.3001234569598,801.8071378352095,811.1339566547008,805.7149133560288
1731017624.0842364,803.4017094988685,803.2941077550377,812.0156902469299,805.5417446867477
1731017624.0864944,803.4800346646788,804.7685304807792,812.6188593390345,805.8200674274963
1731017624.090397,803.544595350549,804.780733578358,812.5463202459742,806.1194698861644
1731017624.0912182,803.6087191518793,802.9075496264865,811.3514139298029,806.2551999936875
1731017624.0942993,803.6786458046004,800.0724800984237,809.0311214287049,806.2541111093071
1731017624.096401,803.753539417986,797.9470775726548,806.2254528865785,806.214159651915
1731017624.0982018,803.8300047433285,797.8598508133535,803.9176461486693,806.2016513741416
1731017624.1021042,803.905656729673,799.944476975655,802.8571129695777,806.2275229386557
1731017624.1060064,803.9800330333576,803.0796004355205,803.0977618967274,806.2719617279821
1731017624.1099088,804.0537878768888,805.6408275800982,803.9278591532512,806.3142720717076
1731017624.1101098,804.1276488125609,806.53824536344,804.2501362448218,806.3462872716044
1731017624.1119971,804.2019227616968,805.8240152348677,803.2520349168035,806.3703134055093
1731017624.1138113,804.2765465772056,804.4810599768206,801.0050707914266,806.3917042531338
1731017624.1177137,804.3513399653768,803.6092788057698,798.5687396178145,806.4137663453981
1731017624.1192887,804.4261872538596,803.6358798466307,797.4131067972281,806.4368485267562
1731017624.121616,804.501074904256,804.0911199035687,798.4532489013827,806.4597988336043
1731017624.1255183,804.5760435806579,804.034133199543,801.3454011127357,806.4815285537289
1731017624.1275933,804.6511336470186,802.7703724798791,804.579501928589,806.5016450710453
1731017624.1290011,804.7263622714057,800.3625615895739,806.3531287998393,806.5202890324282
1731017624.1294208,804.8017286413402,797.6245163663991,805.6518753717027,806.5377312687801
1731017624.1333232,804.8772275337298,795.6408946041388,802.8248796287215,806.5541183366003
1731017624.1372256,804.9528566016919,795.160041173487,799.3140972606814,806.569440972867
1731017624.141128,805.0286148828037,796.2655525697485,796.7717600593032,806.5836181018068
1731017624.1431894,805.1044988524166,798.4862349376316,796.1625632103451,806.5965779995711
1731017624.1450305,805.1805041554082,801.1532275990835,797.3760086450799,806.6082874414759
1731017624.1478927,805.2566357876314,803.6852129191454,799.4879946280226,806.6187401889997
1731017624.1489327,805.3329188965934,805.6720297512616,801.4202084867281,806.6279352340208
1731017624.1528351,805.409392872311,806.8662484827555,802.5785959211089,806.6358645369479
1731017624.154341,805.4860750005522,807.1996446038075,803.1252423909033,806.6425129987305
1731017624.1567376,805.5629070686111,806.7838293238825,803.7574597455545,806.6478639429826
1731017624.1587856,805.6397407413206,805.8100978777874,805.1431299259345,806.6519028538539
1731017624.16064,805.7164346508633,804.4050312668902,807.3818253532917,806.6546162142317
1731017624.1645424,805.7930701098401,802.6041448977365,809.8707378008277,806.6559871819604
1731017624.166784,805.8701290004976,800.4972159896516,811.6829852252016,806.6559935097372
1731017624.1684446,805.9483249522094,798.3923245196941,812.1815080312355,806.6546135793579
1731017624.1723473,806.0278733033455,796.791378976363,811.4103786168333,806.651841030025
1731017624.1743815,806.107516685912,796.1377098459595,809.9915047300899,806.6476969706474
1731017624.1762495,806.1843986123436,796.5133234866623,808.6491888094736,806.642218562535
1731017624.180152,806.2560937703793,797.5262405968964,807.7549555650153,806.6354095266521
1731017624.1840544,806.3247046025206,798.5005451945327,807.221909782133,806.6271743834194
1731017624.1856756,806.3998101689505,798.8810847439128,806.7583060195448,806.6173106235324
1731017624.1879566,806.4944586086664,798.6206542975283,806.1979199333983,806.6056470421435
1731017624.1893933,806.6108026921446,798.2917040774503,805.6131403317744,806.5923209710232
1731017624.189978,806.7225262755607,798.7828984868617,805.1746144974428,806.5779756152855
1731017624.191859,806.7753668890916,800.7000675090709,804.9640348643367,806.5634846545056
1731017624.1957614,806.7290280800127,803.8668544626923,804.9260406023188,806.5489773895736
1731017624.199664,806.6346068839902,807.3488502968439,804.9486601623822,806.5326537523997
1731017624.2035663,806.6825483608577,810.0482443675933,804.9523080601033,806.5108330328283
1731017624.204567,807.1137209865389,811.3991663097282,804.9167418427569,806.4808019737062
1731017624.2055745,807.9456195638224,811.5926009110236,804.858475381245,806.4460351348441
1731017624.2074685,808.6797392533934,811.2367491356756,804.7990485987224,806.4193446570082
1731017624.2113707,808.3740798670326,810.8642701838435,804.7485555859568,806.4166309350765
1731017624.2152734,806.279964930144,810.6916976418797,804.7058160430772,806.4378413844865
1731017624.2191758,802.5881363399685,810.680377357997,804.6655259267213,806.4458201492511
1731017624.2211704,798.50754090609,810.7113239693375,804.623918071866,806.3709097520709
1731017624.2230785,795.5247417788769,810.7070656898536,804.5802383095439,806.1685075348038
1731017624.2234583,794.5158596144855,810.6569370699426,804.5354983514967,805.9153275037615
1731017624.2244456,795.3910147904394,810.5858368202794,804.4908366606916,805.8532343923672
1731017624.2269807,797.3294758693908,810.5184567030791,804.4467347683357,806.2532573159239
1731017624.230883,799.2437460174535,810.4639959832695,804.4030908633265,807.1045607218776
1731017624.2347853,800.1858840153402,810.4192583695998,804.3596158180959,807.9045584154247
1731017624.2367666,799.6548933857347,810.3777236807516,804.3161203107404,807.8978981825223
1731017624.2386878,797.8337348199094,810.3355220739297,804.2725757425811,806.7246925889652
1731017624.24235,795.6607452442622,810.292344908043,804.2290399710695,804.9202924395337
1731017624.2425902,794.5424716751278,810.2496104279473,804.1855715205081,803.6830223915814
1731017624.2464926,795.6459230975015,810.2085958267114,804.1421925320009,803.9393175998285
1731017624.2503948,799.0589886949799,810.1697221374478,804.0988955630406,805.4428618443192
1731017624.2523627,803.4026894047851,810.1327814471663,804.0556643165384,806.7391787128769
1731017624.2542973,806.3600899024157,810.0974268779904,804.0124867343998,806.1426971377034
1731017624.2581997,805.9878565468099,810.0634688433701,803.9693569325656,802.9981936181676
1731017624.259498,802.015691692776,810.0309026466288,803.9262732638233,798.2402456380938
1731017624.2612414,796.209975053423,809.99980402112,803.883239215282,793.8501529297939
1731017624.262102,791.4747939181416,809.9702350605169,803.8402661623908,791.6768994800952
1731017624.2660046,790.2457883887297,809.9422153721542,803.7973697968511,792.4826258110905
1731017624.2679589,793.2053068674749,809.9157386121581,803.7545531608903,795.760750711637
1731017624.2699068,799.0753631639192,809.8907923184465,803.7117829268036,800.2428304516919
1731017624.2738092,805.497037202036,809.86735733557,803.6689859017541,804.5981625114117
1731017624.2777116,810.3524478373895,809.8453948310248,803.6260989545971,807.8742876470895
1731017624.280133,812.7185123540854,809.8248505543671,803.5831710634354,809.5713963983075
1731017624.281614,812.9755115692672,809.8057002332368,803.5404380581172,809.5518181265668
1731017624.283555,812.1823519816305,809.788018785789,803.49822483337,808.0184052865135
1731017624.2855165,811.2859664572683,809.7719964857512,803.4565881365679,805.5790484261399
1731017624.2894187,810.7078962792915,809.7578044390791,803.4148750886557,803.196045791436
1731017624.2933211,810.4156777924128,809.7453053757717,803.3717275632556,801.8442217601797
1731017624.2945502,810.2118954422251,809.7338268860548,803.32611772317,801.9826211459623
1731017624.2972236,809.9548001795472,809.7224109732192,803.2792777132016,803.2212121258452
1731017624.2990243,809.616179489085,809.710809303805,803.2359058794292,804.5255644646685
1731017624.2991512,809.234583184706,809.700766185882,803.2019407273422,804.9005709341732
1731017624.301126,808.8532738129593,809.6961053826986,803.1775991638364,804.0534162116597
1731017624.3050284,808.4905370175611,809.699907260903,803.1495589812525,802.5022129447129
1731017624.3089309,808.1425024433813,809.7090189169463,803.0926432122203,801.0823297203249
1731017624.3128333,807.7981922403301,809.7103364014913,802.9915578287721,800.3651908380558
1731017624.314747,807.4504278137947,809.6866029848949,802.878900813646,800.5285228045065
1731017624.3167355,807.0981431879974,809.6358828581355,802.8595160230163,801.6368153915832
1731017624.317916,806.7435598256204,809.5944344370199,803.0791875376191,803.7836065787252
1731017624.320638,806.3889182353261,809.6339099915205,803.6317272188074,806.7700019858046
1731017624.3245404,806.0350613469698,809.801873501231,804.4657599590638,809.7085927242933
1731017624.3284428,805.6816989929599,810.013771257248,805.3702386281213,811.2272053776059
1731017624.3296025,805.3282296825253,809.9793253302702,806.0526474430171,810.3524917314568
1731017624.3303435,804.9742883747043,809.286260475548,806.255714728016,807.3305550114134
1731017624.332345,804.6198341664486,807.6682780779701,805.8612035948211,803.5792898852745
1731017624.3362474,804.2649855102121,805.2818326218885,804.966806642792,800.7791630773605
1731017624.3368073,803.9098501258618,802.735442799974,803.9197510152123,799.9062182823482
1731017624.34015,803.5544592046148,800.8017176745037,803.2506097023835,800.9635521803198
1731017624.3440523,803.1987875241012,800.0081506140839,803.4571836910771,803.4120951547961
1731017624.3459396,802.842797183049,800.3757805539316,804.6989155054791,806.6827031166056
1731017624.3479548,802.4864628445713,801.4459043324435,806.6017178504763,810.2554559181538
1731017624.3518567,802.1297725127831,802.5709411074846,808.3744709197941,813.4028665245017
1731017624.3556988,801.7727189770636,803.3231731030569,809.2323472610257,815.1264595080727
1731017624.3557594,801.415297454747,803.7754731543813,808.8616916926379,814.6292516091113
1731017624.3596618,801.057512598823,804.3977739269957,807.596181262929,812.0458349021071
1731017624.361536,800.6993836296257,805.540243764009,806.1836288348672,808.7106448160906
1731017624.3635645,800.3409304411562,806.8854413159967,805.3214104935895,806.4778909802031
1731017624.3646548,799.9821356391236,807.4442277294238,805.2742823146624,806.4226338822818
1731017624.3674667,799.6229088628991,806.274859403932,805.7915044735256,807.958795357282
1731017624.371369,799.2631107788998,803.3604350648158,806.3355096300796,809.2544535410518
1731017624.3745902,798.9026816996483,799.7761392229979,806.4634412201818,808.755417635474
1731017624.375271,798.5418261191478,796.8921025908622,806.1221534920662,806.5427518828513
1731017624.3771322,798.1810583678905,795.3489035777822,805.6529735709058,804.2646934709434
1731017624.3791738,797.8208584454463,794.8131929736252,805.4800350885524,803.6473710360225
1731017624.3830762,797.4609212777398,794.6899362664171,805.7044012600958,804.9385364506254
1731017624.3869786,797.0995516524201,794.9278848767757,805.9409893929571,806.7078541043236
1731017624.3908813,796.7342780065932,795.9940689855036,805.5628686906798,807.1297034467518
1731017624.3927283,796.3644103843454,798.0810747266285,804.1741236523276,805.5304330821141
1731017624.3934815,795.9944052230577,800.5020411780614,801.9340530827951,802.8746031125911
1731017624.3947833,795.6342225429556,802.0217173612255,799.4892221863911,800.9252044826185
1731017624.3986857,795.2921872157194,801.8468055504476,797.5972186236852,800.9034967857687
1731017624.3997068,794.9608516976073,800.3056814082944,796.7427950682173,802.6942022094713
1731017624.402588,794.6073229230459,798.5798549161802,796.9906654286244,805.0538936797644
1731017624.4064906,794.1886375958261,797.7761840242679,798.0889693601271,806.5305008450491
1731017624.4083245,793.7049102803055,798.1860114259897,799.6585320056415,806.4130329050728
1731017624.410393,793.2687846505994,799.2952499953619,801.3121379625744,805.1185469305369
1731017624.4123733,793.1286311956308,800.3794219345733,802.6917100432569,803.8275344305702
1731017624.4142952,793.5858988488391,801.071966884604,803.517865913587,803.652653742639
1731017624.4181976,794.8203723669143,801.467430929885,803.699096657161,804.9162849750023
1731017624.4221,796.7253580342535,801.8281369414626,803.4091947521975,807.0271376447498
1731017624.4239206,798.8767480590899,802.2832306208895,802.9969522307553,808.9970874382345
1731017624.4260025,800.7022307975129,802.7983542267207,802.7389117661079,810.1423220637402
1731017624.4299047,801.8064340152962,803.3466111710381,802.6461745545924,810.4121648856664
1731017624.4312646,802.2668560821244,804.0069832609663,802.5380687503518,810.1938857639477
1731017624.4338071,802.6384273498921,804.8436101538912,802.3342943620146,809.907785416916
1731017624.4347591,803.5560860090853,805.7122149569072,802.2485365069892,809.7607551912454
1731017624.4377096,805.1986429843716,806.2607111602312,802.6189978862593,809.7500826679706
1731017624.4395168,807.1304444706318,806.1901729684155,803.4913473470895,809.788378484062
1731017624.441612,808.7823870647187,805.5346366826031,804.3897778029375,809.8076863454991
1731017624.4455144,810.1702955756432,804.6629230007405,804.5926581420271,809.7912782441524
1731017624.4494169,812.0428572387995,803.9923569154939,803.746058143407,809.7550477834681
1731017624.4501562,815.0795290916362,803.7048935194857,802.2817046657163,809.7190435439394
1731017624.4533193,818.7587588547759,803.7115826952702,801.230700052868,809.6926090954069
1731017624.4551127,821.085602254759,803.8181470220519,801.5293384348001,809.6746752541353
1731017624.4572215,819.7705670865188,803.8874861570364,803.3435565034258,809.6603886200147
1731017624.461124,814.0985917772358,803.886571072025,805.9328068570036,809.6463238451439
1731017624.4650264,805.8978596015764,803.8457251467679,808.1500550610716,809.6318309923702
1731017624.4689288,798.6124037899637,803.8028874269662,809.1834249791515,809.6178799834727
1731017624.4690475,795.0595135439979,803.7753361063978,808.9841826240008,809.605551314487
1731017624.4698114,795.5977965287138,803.760587063177,808.1122238247829,809.595317784067
1731017624.470709,798.1163509107853,803.7491748558625,807.2009527692617,809.5871150091591
1731017624.4728312,799.7896350932424,803.7345238276104,806.5004061361169,809.5807069072307
1731017624.4767334,799.1931676619196,803.7153905221545,805.8234332034466,809.5759495833362
1731017624.480636,797.1873479086328,803.6935836719216,804.856996754182,809.572846650124
1731017624.4845383,795.9873199356048,803.6710779294705,803.5266761285085,809.5714803213427
1731017624.4863052,797.2082809573178,803.6486701049689,802.1160697323553,809.5719321514975
1731017624.4879391,800.4049647763643,803.6261379277262,801.0861915673346,809.5742488366607
1731017624.4884408,803.2295512782226,803.60294539785,800.779868991441,809.5784487398793
1731017624.4923432,803.1220675231451,803.5787423425177,801.2415896625922,809.5845418316037
1731017624.4962454,799.2877795166938,803.5534633791243,802.2419610767621,809.5925429251032
1731017624.5001478,793.4642169959409,803.5271928625506,803.4313329781393,809.6024737487229
1731017624.5019014,788.8687876960083,803.5000136368051,804.5001121146234,809.6143589142804
1731017624.5040505,788.0945792318927,803.471943335099,805.286255729186,809.6282217705193
1731017624.5048635,791.4972059492189,803.4429481169142,805.8291949384845,809.6440827880414
1731017624.5068305,797.1811929256661,803.4129811107013,806.3548477848597,809.6619600318882
1731017624.5079527,802.4539332863749,803.3820074600251,807.1477832334136,809.681870227002
1731017624.5118551,805.5824015366105,803.3500079664253,808.3217796331031,809.7038294040569
1731017624.515757,806.6081013519905,803.3169712608624,809.6232621933219,809.7278529530897
1731017624.5174975,806.803887743603,803.282885940249,810.4531833512548,809.7539553812229
1731017624.5196598,807.3953401850338,803.2477376062855,810.1662316580056,809.7821500871695
1731017624.5235622,808.6269888839939,803.2115098652608,808.4757632902222,809.8124492768869
1731017624.525722,809.8254881305741,803.1741864090243,805.6690384880313,809.8448639860934
1731017624.5274646,810.2102347079838,803.1357522638959,802.4638272546981,809.8794041285813
1731017624.5313673,809.6140410125962,803.0961939056306,799.6256752533981,809.916078519804
1731017624.533094,808.4828836640578,803.0554988197225,797.6507182581647,809.9548948699223
1731017624.5352693,807.2775955243875,803.0136551019963,796.7191205850067,809.995859763387
1731017624.5391717,805.9702144730253,802.9706513274065,796.8437014630096,810.0389786413658
1731017624.539916,804.1870058696533,802.926476613653,797.9739468444886,810.084255792821
1731017624.543074,801.8640300365927,802.8811207250913,799.9314798692672,810.1316943518084
1731017624.5446134,799.727762459724,802.8345741314881,802.2971292731746,810.1812962963362
1731017624.5469766,799.0243816621594,802.7868280272038,804.4564601422494,810.2330624459023
1731017624.54869,800.5934949875488,802.7378743497138,805.8465844310554,810.2869924575851
1731017624.550879,804.0089209584852,802.6877058035489,806.2190526696328,810.3430848225703
1731017624.5547814,807.5464200589761,802.6363158404091,805.6912115705419,810.4013368656783
1731017624.5586836,809.1462748144719,802.5836985362654,804.5534276265108,810.461744749257
1731017624.562586,807.7692544943031,802.5298483942764,803.0370911563593,810.5243034793607
1731017624.5635047,804.1798619857168,802.4747602651638,801.2787964211293,810.5890069078148
1731017624.5642862,800.5319834806418,802.4184296659994,799.4924048494931,810.6558477230003
1731017624.5664885,798.9761770100263,802.360853569021,798.1097759339937,810.72481743053
1731017624.5703907,800.2508829888246,802.3020311385632,797.6544615880408,810.7959063424848
1731017624.5742934,803.2764634731349,802.241963273877,798.3959176783095,810.8691036074032
1731017624.5749683,806.0477912593519,802.180650035341,800.1050211625883,810.9443972979684
1731017624.5781956,807.1434859242157,802.118086885014,802.1836495993949,811.0217745133244
1731017624.5798824,806.6964984084717,802.0542636311459,804.0871250583452,811.1012213759849
1731017624.582098,806.0890515952651,801.9891711947722,805.6540868118177,811.1827227987604
1731017624.5823965,806.6413413541435,801.9228167340407,807.0364529339319,811.2662620676617
1731017624.5860004,808.3770457431037,801.8552362218395,808.3250489058391,811.3518206166966
1731017624.5899029,809.8970987576178,801.7864828083456,809.2799415819103,811.4393785917002
1731017624.5938053,809.4734202043372,801.7165757567016,809.4597346431117,811.5289164469846
1731017624.5954783,806.4424372927995,801.645431874827,808.619891947933,811.6204166421556
1731017624.5977075,801.7467549244133,801.5728558923796,806.976349934212,811.7138631252351
1731017624.6012878,797.2453058020938,801.4986819550802,805.0902458020745,811.8092364384705
1731017624.60161,794.4532607977563,801.4230609990876,803.5169983444906,811.9065057780361
1731017624.6055124,793.7468186707852,801.3466697552444,802.5533924722849,812.0056255345046
1731017624.6094148,794.541939224644,801.2704335839493,802.2550848978296,812.106547313694
1731017624.6100206,796.1095716087027,801.1945211259804,802.6126647560897,812.2092505268749
1731017624.6110747,798.2540518079389,801.117106281605,803.6621983309429,812.3137717445991
1731017624.6133173,801.3105907191884,801.034388615264,805.42558613715,812.4201885345387
1731017624.6172194,805.525375571825,800.9435120279504,807.7629902022566,812.528520933397
1731017624.6201792,810.3858674487095,800.8479840195904,810.2970659046235,812.6385845567427
1731017624.621122,814.5338613926348,800.7610363674701,812.4985114589256,812.7499447628938
1731017624.6250243,816.4718775953273,800.6993161670623,813.8899736762858,812.8621725912384
1731017624.6266708,815.6179643811536,800.6632672244656,814.2363130764464,812.9754307671702
1731017624.6289268,812.8600070594862,800.6151141898154,813.600241634524,813.0909757667895
1731017624.6328292,810.0376242856113,800.4834234266257,812.2462279669169,813.2107347164664
1731017624.6367316,808.6500487101739,800.2233261100698,810.4954515972297,813.335344745637
1731017624.6390707,808.8222753849868,799.9201126503935,808.6567769393264,813.4614647231476
1731017624.6406338,809.4042755669166,799.8474971533306,807.0479250106849,813.5813000062773
1731017624.642267,809.0926172532545,800.3491333059358,805.9964977716447,813.6879602238384
1731017624.6445365,807.5732201134869,801.522417077681,805.7276739577453,813.7865791803315
1731017624.6450727,805.7335266907796,802.9604203552202,806.1967116202803,813.9026137799852
1731017624.6484387,804.8755701726869,803.9301903296229,807.0350902328017,814.07132545039
1731017624.6523411,805.6887843601569,803.9728867276773,807.7161024896087,814.2981872311283
1731017624.6562436,807.796039786786,803.3458777710465,807.8635380065762,814.5074028765455
1731017624.6578631,810.0783852981689,802.7850727826592,807.4891381341772,814.5320634759153
1731017624.657962,811.3803458242105,802.7864495378112,806.9631862810049,814.1984350487373
1731017624.6601458,811.0696558085667,803.1413587212454,806.6974977139557,813.4688849560223
1731017624.6640482,809.18722542174,803.203736954162,806.7533750654231,812.4825662921711
1731017624.6679506,806.2315160790201,802.6101921730632,806.7066580788012,811.3618039146495
1731017624.6718533,802.7935035199481,801.712884685605,805.9524640182999,809.9255302340533
1731017624.6734593,799.2951563508894,801.2947629066435,804.2595297088121,807.6804637330401
1731017624.6757555,795.9830893751464,801.8757893058851,802.1005812585636,804.2634322944673
1731017624.6768537,793.1048013857519,803.2941218712888,800.4107752726711,800.0017379293184
1731017624.6796577,791.0177653037348,804.8945672142992,799.9137555817767,796.0167998884216
