timestamps,eeg_1,eeg_2,eeg_3,eeg_4
1731305877.7854252,812.3556033299744,809.7526986476703,790.3844566275051,773.634183828266
1731305877.8074656,813.4259911176255,811.0711761192417,775.7931913505971,781.1006016528748
1731305877.8130314,814.7401269861567,813.4560916486643,786.1576201014217,786.8476954139438
1731305877.8169365,816.3379636171468,817.015518206097,829.3812517916349,789.1863700032089
1731305877.8203332,817.9210514765648,820.7476565150533,890.5941876144948,786.9855388838695
1731305877.8208413,818.8428207433593,823.2552038178118,942.0208507048346,780.4155560486655
1731305877.8230696,818.2875331489464,823.6834151693331,962.0234132326657,771.0381151793966
1731305877.8247464,815.6743584542211,822.2226955752559,949.4740935250092,760.9000985826694
1731305877.8257546,811.1408994847532,820.0222205316239,922.1447986389637,751.3278581887657
1731305877.8286512,805.727117270526,818.7274476370238,900.0253319441138,742.4883235899428
1731305877.8325562,800.9431060670203,819.8207301982562,887.4746116361812,734.0300029856629
1731305877.8364613,797.904323783721,823.8766910073215,870.5372795962843,726.018760307677
1731305877.8386738,796.719366759542,830.0385247948369,833.4335205186384,719.1022474139384
1731305877.840366,796.6822260835514,836.1747957245597,779.8436479949172,713.6906863025354
1731305877.8442712,797.0561942376469,839.851852795208,737.2913406093242,709.0629370281467
1731305877.8446667,797.6526578910746,839.6259001361335,736.91318531397,703.5238171041785
1731305877.848176,798.6959649733999,835.8569981924248,785.5846548261414,695.7717382530042
1731305877.8520813,800.2845106169497,830.562794691827,857.565215621187,686.3891176269573
1731305877.8542778,802.1270780395486,826.4184004616777,915.1744682715095,678.0470321427448
1731305877.8552413,803.7769586510541,825.4242055635536,938.9770699939811,673.983133095843
1731305877.855986,804.9671490678644,827.8958956034855,938.278131391831,675.7728559396783
1731305877.8598907,805.6398483361506,832.3281160426234,933.2999050833727,682.1253557032353
1731305877.8635788,805.7636338089249,836.2983079055351,929.5752823437311,689.7422593374658
1731305877.8637958,805.3129206924792,837.9579521967394,912.3457505746868,695.6586344991756
1731305877.8677008,804.4967669199875,837.1887419013552,867.0678846616187,699.2370855047182
1731305877.869882,803.8997912445232,835.6328156619002,804.0905381991082,702.209195636547
1731305877.871606,804.22448356239,835.5382354667788,759.5149639456924,706.7737703351438
1731305877.8755107,805.79336743177,838.1702089166663,766.6133909448938,713.4368437818134
1731305877.8794158,808.3140009520399,842.8449967809519,821.9991191214652,720.5132652610625
1731305877.8824906,811.1882336804244,847.2452854196395,879.5241070465759,725.7136837772105
1731305877.8833206,814.0561693203888,848.8215026964215,882.7264596175651,728.3244613457969
1731305877.885486,816.9562694619937,846.3230616642738,811.8098956732194,729.94098467044
1731305877.8872256,819.8750193221405,840.4060952474216,704.8931308930707,733.0831553161123
1731305877.8901494,822.2158117758951,832.9766950965703,632.4089895717477,738.993613288288
1731305877.8911307,822.9843363091097,825.9078270544903,643.6191860195933,746.5969156429474
1731305877.8950355,821.8044253173299,820.1653708526844,729.8060422622433,753.4213168017246
1731305877.8989406,819.8252941516446,815.8595541168861,834.9296509534959,757.5286883688848
1731305877.90109,819.3319921174585,812.8452090938271,902.5381630292454,758.8264788143357
1731305877.9014027,821.9477528255641,811.0982145035088,916.6359191737903,758.9184618410641
1731305877.9028454,826.8545520178693,810.5241312015542,903.197989589581,759.8851166738292
1731305877.9067504,830.8753792399153,810.6044683783153,897.504411730749,762.9945293314937
1731305877.9106553,830.8348181887729,810.5333638104215,911.7853328918484,768.1390280175367
1731305877.9145603,826.4341704882612,809.9127759542499,931.4141837718903,774.2076839281713
1731305877.9166942,821.0424483248981,809.2375840817191,936.739087607709,780.036802033661
1731305877.9184654,819.3768744866494,809.3451704130828,924.4182643254802,785.2423461123689
1731305877.9203148,823.7932854341193,810.0717376381098,907.2110349503869,790.3318071194802
1731305877.9223702,832.3063756596047,809.5325638778545,895.4130229236347,796.0588566969027
1731305877.9250574,840.0922861649726,805.2254280091967,881.3276933939803,802.6056936066332
1731305877.9262753,843.1972658904324,796.3631624771964,844.3244197028831,809.2517737667023
1731305877.93018,841.2110664502026,785.215193448817,773.4008751478318,814.6562235750708
1731305877.9322982,836.6455207419674,775.7656641955431,686.0574000442391,817.3849642872077
1731305877.9340851,831.858119438941,770.5462189192605,623.4624351530838,816.3645821768935
1731305877.93799,826.6290429541586,768.561364543947,622.5454952696799,811.249198657586
1731305877.9392269,818.7056179010198,766.435964650438,687.6632621457112,802.6720396764209
1731305877.941895,806.600854195759,761.8159096928091,786.402565957741,792.1161501309805
1731305877.9458,791.7646383480763,755.7744600764606,872.7944107829777,781.2789020331546
1731305877.9479022,778.0344946419708,751.9258023593425,917.2209942438927,771.3662097112998
1731305877.949705,768.9931140931649,753.1451343859447,919.0429823191264,762.9816468612328
1731305877.95361,765.6802053242995,758.9639524898348,896.6874469328925,756.6935976002013
1731305877.9575148,766.4644551768107,765.8480992994716,869.5466588367706,753.566423817467
1731305877.9581387,768.812663766247,769.8687123035343,847.8039503018574,754.8993335509342
1731305877.9599657,771.2838718460315,769.4543623174318,833.3294358616345,761.2329832543153
1731305877.9614198,774.2750105675922,766.2839640809759,824.4971510894472,771.4915150909279
1731305877.9635065,779.2276179113957,764.0448450546171,819.0875894496886,783.1224255288662
1731305877.9653246,787.0908588178219,766.1495465168397,815.1517304910806,793.3183497930718
1731305877.9692297,797.2140749616856,773.8452144479902,811.3812437207816,800.5344613014696
1731305877.9731348,807.4417049224842,785.6581874545275,807.2597569567165,805.2238884206884
1731305877.9770396,815.304602176617,798.2580560954125,802.8359620912697,809.2268429598641
1731305877.9770508,819.4366968331636,808.0556896699967,798.3389835830512,814.2353467796867
1731305877.9791105,820.2541938192501,812.6078170496659,793.9217555237693,820.4937780375672
1731305877.9809446,819.5406392634545,811.3005863422842,789.6052935272899,826.7512187040991
1731305877.9848497,819.3360477612737,805.3541749653293,785.3394322399404,831.4681604546948
1731305877.9887545,820.8651440200621,797.3545589313522,781.0741427107442,834.1912443327352
1731305877.992659,824.0557874244104,790.3548881025249,776.7903392568564,835.8286975417845
1731305877.9947145,827.7798643247871,786.6744225498873,772.4938641195428,837.5462120545118
1731305877.9948735,830.5952628210769,786.9618262095352,768.1973519139636,839.3317780281108
1731305877.9959629,831.5806251719994,790.2144201201704,763.908198927018,839.7005688051997
1731305877.9965644,830.8195279786864,794.7771285993018,759.6266661528973,837.0217807672705
1731305878.0004694,829.2436518983399,799.4503735813712,755.3495188096621,831.355873024459
1731305878.0043745,827.9300700235718,803.7555948681348,751.0737705594584,824.9990199317666
1731305878.008279,827.3799414555632,807.3320103991689,746.7981391039291,820.9737670911536
1731305878.0103185,827.3695831379315,809.3731244688915,742.5226210240339,820.6698069922327
1731305878.012184,827.4745385619391,808.9079612473354,738.2475335392495,822.8074704213664
1731305878.0148747,827.728410502182,805.7234766788723,733.9729152442528,824.7338465410029
1731305878.0160892,828.7371299207063,800.9541393769234,729.698413521499,824.808203802017
1731305878.019994,831.0921440587528,796.648423393598,725.4233977935551,823.5965416316128
1731305878.0238993,834.6073097234306,794.5945969822145,721.1470967259277,822.8672076213278
1731305878.0259228,838.1098153079639,795.3392384138149,716.868780845097,823.5999254441851
1731305878.027804,840.0799581567542,798.1040006434984,712.5880827256769,825.0751285092722
1731305878.0297816,839.7281974601602,801.5147804676421,708.3053302032537,825.8327987173514
1731305878.031709,837.667912523243,804.4422734484571,704.0214255309681,825.3404740330036
1731305878.0337868,835.540387472355,806.3051806998271,699.7367760702914,824.5751017555968
1731305878.035614,834.7213093732341,806.7978731338984,695.4495185363836,824.9059542592595
1731305878.0395188,835.0766207072925,805.5837309192301,691.1546668157542,826.4007004060786
1731305878.0415268,834.90236970812,802.4723706955327,686.8466594364983,827.3007021676564
1731305878.043424,832.3160572004475,797.9662898413598,682.5261293582118,825.363947472567
1731305878.0473287,827.0464744364411,793.4721092537344,678.2066639900794,820.0042293823788
1731305878.0512338,821.0387199145059,790.6405403607341,673.9117152967509,813.2751172477915
1731305878.0526989,817.2291777737622,790.1921698592854,669.653082234281,808.626251072136
1731305878.0551388,817.4592547824801,791.298124814501,665.3977985468667,808.295457135569
1731305878.0571308,821.2311540312621,792.2552816418265,661.0561813988958,811.4768010972535
1731305878.0590436,826.2135974916221,792.0289408966545,656.5364906099529,814.8436668899885
1731305878.0629487,829.952684740187,791.3729345560533,651.8751172409578,815.0723962332794
1731305878.0646896,831.4426486296445,792.5392638819765,647.3532838370554,811.3881069062855
1731305878.0668535,831.517007620404,797.7425988698366,643.412851930706,806.1934260231747
1731305878.0707586,831.9349073105224,807.4790759499672,640.2275498045967,803.39046060285
1731305878.0716107,833.8570979421161,819.8136310907082,637.0971008604091,805.6838292697693
1731305878.0727348,836.7300371172715,831.0438384585946,632.3139946103333,812.6998187120498
1731305878.0746636,838.3297625364828,837.357079470393,624.3356068381098,821.0476175779295
1731305878.0785685,835.9954917714219,836.631075957795,614.3264436137399,826.2373106786007
1731305878.0824735,828.3004690914956,829.4622304586172,608.3064753311759,825.3733749443412
1731305878.0863783,816.0899490263912,818.8487577835224,615.6109927047128,819.065400328976
1731305878.088339,802.2270029545657,808.6576765206951,642.0877302344632,811.2490682017079
1731305878.0902834,790.2355984834035,801.7403737781995,682.7024700704978,806.7723115289697
1731305878.090523,782.69435054987,798.8089944861597,722.6033525043722,808.2446117736878
1731305878.0941882,780.3034951621905,798.6916219803547,748.7454046410639,814.4796596824533
1731305878.0980933,782.075928025977,799.656954841816,760.9135802678272,821.7593136868263
1731305878.0995977,786.3998059220676,800.7925303264017,769.6421601223308,826.7305186855864
1731305878.1019983,792.1416150030157,802.4467615570749,783.1153800677839,828.3908955044437
1731305878.103943,798.9064537253631,805.5034782631595,797.580242614453,827.8409515342876
1731305878.1059031,806.2860098833264,810.1904900245019,801.4609186444972,826.7323238508496
1731305878.1094348,812.9784402598275,815.4834531906924,788.3891594682354,826.0603366609806
1731305878.1098082,816.9882387717784,819.628207420604,765.223600239529,825.961487644893
1731305878.113713,817.0866122972726,821.3197123809109,746.4747630595616,826.1325926359677
1731305878.117618,814.2212074111751,820.5293097488249,740.5618432812755,826.2757760424681
1731305878.1195471,811.3224881443135,818.3502034712903,742.1829566909894,826.283201958131
1731305878.121523,811.4389900288171,816.1212891578851,739.460486701135,826.1966837211588
1731305878.125428,815.7739698624856,814.6200835826895,728.9877896187597,826.0964734663888
1731305878.1283467,823.189229131266,813.8712749672252,722.2839002327107,826.0293286728562
1731305878.129333,831.2389649264052,813.4878991262098,735.079686075399,825.998481746127
1731305878.1332378,837.5563540516027,813.1022562478721,769.5726603063848,825.9865085367928
1731305878.1345055,840.5670977580862,812.5670904510828,809.0527134132508,825.9780564589591
1731305878.1351511,839.4758504478912,811.9162920844457,832.3227345820853,825.9683134955828
1731305878.137143,834.0973592795665,811.2385981740358,833.700917892965,825.9600573457665
1731305878.1410477,824.9822739090156,810.5902637511233,826.9324053380985,825.9576400787045
1731305878.1449528,813.800430825337,809.9782207488837,827.6964147322301,825.9634143639063
1731305878.147259,803.5358312201145,809.3837875897306,833.0200808822483,825.9774423965856
1731305878.1488576,797.9346495915337,808.7889063433315,821.0532921395727,825.998797830516
1731305878.1507554,799.9834649643386,808.1870440105498,774.3884019192625,826.0267386970248
1731305878.152763,809.986397506866,807.5806813545465,704.591295531965,826.0610911980453
1731305878.1566677,824.5536935642541,806.9746027831794,651.4149252171935,826.1020535711768
1731305878.1605723,837.6421778182626,806.3715731353474,652.8310316624048,826.1498733386733
1731305878.1644776,843.4297374634219,805.7717413876625,710.4212792047016,826.2046741721708
1731305878.1661713,839.2783616955747,805.174018794655,781.8027895900228,826.2664594729838
1731305878.1663594,826.8262344123333,804.5774446022872,810.146460625072,826.3351920857862
1731305878.1683824,810.645611280252,803.9816930981063,768.7855984106556,826.4108516410555
1731305878.1694138,795.6166102475984,803.3868947022343,684.0819386442304,826.4934309647982
1731305878.1722877,784.7507431257,802.7932738295345,615.9764745660466,826.582891873986
1731305878.1761923,778.490740528975,802.2009340954977,611.0505169547249,826.6791359957381
1731305878.180097,775.431765199453,801.6098411522896,667.4643949692146,826.7820482056549
1731305878.1819634,773.7496556252546,801.0199017795676,741.3826808085378,826.8916226475878
1731305878.1840024,772.4891853060872,800.4310358298574,787.2243440892494,827.0080810974378
1731305878.185083,772.055444906612,799.8432004883625,793.797710310584,827.1317981441389
1731305878.1879072,773.677816691755,799.2563774308453,784.48661744609,827.2628902301788
1731305878.1918125,778.2109659708493,798.6705485698634,785.5964671863643,827.4006252141894
1731305878.195717,785.1055079710156,798.0856788955823,796.6718265617013,827.5432749660467
1731305878.1975677,792.334111570789,797.5017153061004,791.8646858687633,827.6892126724546
1731305878.1996222,797.4287348318417,796.9186045467801,749.3105416821289,827.8393096984639
1731305878.2035272,798.9849555306786,796.3363245504067,678.3617436467666,827.9988708004839
1731305878.203995,797.6028047942959,795.7549059039371,617.1890850880504,828.1756817178151
1731305878.2043216,795.5560167127263,795.1744049153242,601.2620839642656,828.3718494236211
1731305878.207432,795.3258094973586,794.5948059485248,630.4043788778808,828.573059006517
1731305878.211337,797.9581606728818,794.0159008854658,665.0072077186076,828.7474254238688
1731305878.2131715,802.41608317257,793.4372892020402,658.0644205273687,828.8682994843874
1731305878.215242,806.4489182367157,792.8586575491187,598.13924182704,828.9595346725546
1731305878.219147,808.3636940615468,792.2803029859981,525.787082853926,829.1268468623434
1731305878.2229073,808.3340659335057,791.7034627276935,505.7219277668987,829.5101266594942
1731305878.2230518,808.2193514416597,791.1297146963204,575.1727706769038,830.1177699850358
1731305878.2269568,810.0824753194355,790.5590878307818,711.8169067138931,830.6168969384256
1731305878.2287755,814.6336270698528,789.9879176857153,849.1130495208647,830.29373527455
1731305878.230862,820.7676892099386,789.4092269174298,925.3877270182567,828.3947242879718
1731305878.2347667,826.3542387730009,788.81842765771,924.5805704238359,824.7760586365177
1731305878.2386718,829.4910626540944,788.2231184646428,877.3674890907007,820.3660016576302
1731305878.2392297,829.3353950856463,787.6481735360038,828.5080174397035,816.812566833549
1731305878.2418191,826.2253499084364,787.122505224874,802.9200982239815,815.227062266106
1731305878.2425766,821.3531237286835,786.6425064769327,796.964069214676,814.9295262004061
1731305878.2443798,816.298715844375,786.1346106183707,794.1201415726631,813.5862163989103
1731305878.2464817,812.5015201897086,785.4709282390181,784.1241812211248,809.1924163964318
1731305878.2503865,810.7063306666563,784.5878044268517,767.8494895858087,802.4520501831151
1731305878.2542915,810.6438472860812,783.6781409887863,748.7238885704628,797.1403999148678
1731305878.2581966,811.2957926860583,783.2962558795009,724.984811854926,797.4707761162197
1731305878.259984,811.7328609347868,784.1698822180163,693.2607421812381,804.3655067382819
1731305878.260731,811.9416646726098,786.7148023296656,658.6119208661905,814.0155656284096
1731305878.2621014,812.8857202961815,790.5636042649197,636.6065032980212,820.3967758193593
1731305878.2660065,815.5957118282519,794.4885867998513,640.7661479093092,819.855184754485
1731305878.2699113,819.9740686597031,796.8635815495616,666.52236108028,813.8421632528375
1731305878.2738163,824.4184242741396,796.5127739675696,690.4532428962438,807.4156284852389
1731305878.2741375,826.8164329385421,793.5166412491649,689.8326975707796,804.8844138527836
1731305878.275588,826.2888819397002,789.3956720143926,665.2568460093355,806.4697794687585
1731305878.2777212,824.2554762154514,786.3926261908528,643.1031874619625,808.7985429134118
1731305878.2796433,823.7645989833635,786.2765517682068,653.4341762151647,808.4929039403511
1731305878.2816262,827.3951045583739,789.5455714386844,703.7319618434037,805.4054841827804
1731305878.2855313,835.2950217238055,795.5584950638369,773.092045483163,802.574962619563
1731305878.289436,844.9169440382302,803.2413315754196,830.6402449461385,803.1090733002245
1731305878.291192,852.6479868993177,811.5144448975785,858.7753402012304,806.9902602054848
1731305878.2933412,856.0118703082624,819.0710790120677,860.779246073236,810.7560352619785
1731305878.297246,854.82453038549,824.101267000535,851.2036374699536,810.3354983688006
1731305878.2985551,850.7512106466502,824.8324622175242,842.5366433448693,804.5703986428746
1731305878.301151,845.9666615819369,820.8849665811987,839.285879917129,796.4779036836607
1731305878.305056,841.9669996250235,814.2877764725299,839.9151229116728,791.2413713045341
1731305878.306796,839.086840182021,808.8671536041909,841.3163518597597,792.4368806528968
1731305878.308961,836.7035836906414,807.9560885231613,841.6695897378085,799.237800878271
1731305878.3090458,833.8672609129737,811.990724675284,840.8528649032457,806.6284719387734
1731305878.312866,830.0206428096802,818.0515276654534,839.5527532873514,808.5891673469256
1731305878.3167708,825.4230606722226,822.0467406472847,838.3753310477539,802.111045425781
1731305878.3174672,821.0019212552944,821.946016223338,837.5138393310083,789.2000304753391
1731305878.3206758,817.726237002535,819.3332587187308,836.8636256697137,775.3988921985585
1731305878.3224003,815.9841234800699,817.8872956858963,836.2576251022895,765.9426904083215
1731305878.324581,815.4459658908143,820.1679075438168,835.6065510868723,762.4664953869202
1731305878.3284855,815.4390467486968,825.6083127237439,834.9105438569262,762.670242956468
1731305878.3323908,815.4239644980851,831.3458525219362,834.208293367116,762.8952410800065
1731305878.3362956,815.2009480358681,834.7808344932204,833.5310779918402,761.274555340945
1731305878.3363793,814.8232581637342,835.3296385047149,832.8876344503817,758.9309489887165
1731305878.3380044,814.4138688311739,833.997736099513,832.2717333138985,758.5949680539962
1731305878.340201,814.0470157298018,831.6959604903565,831.6747800346099,762.1233143925017
1731305878.3439538,813.7290045399463,828.2703820656841,831.0927019902163,768.9276272594346
1731305878.3441055,813.4328187143341,823.1722319688719,830.5260760908933,776.2321610573628
1731305878.3480103,813.1339491822164,816.8519755310058,829.9772719492152,780.6834252003329
1731305878.3519154,812.8242712114798,811.2140211623488,829.448098712371,780.209690055192
1731305878.3536084,812.5077852897693,808.464150551299,828.9391395495202,775.1828325354948
1731305878.3552911,812.1912144649633,809.3448597359038,828.4502254202321,768.3581950146588
1731305878.3558204,811.8782629888772,812.4182522783359,827.9810966960213,763.5248688488772
1731305878.3597257,811.5690351855305,815.0852297977237,827.5317255614343,763.3781338281601
1731305878.3636303,811.2620350204603,815.4127411309338,827.1022922026524,767.7380133655838
1731305878.3675354,810.9560249858682,813.1909958275054,826.6930440999166,773.3880372031518
1731305878.3692124,810.6506623580628,809.5501979285884,826.3042223215011,776.031163838303
1731305878.3714402,810.3462122013993,805.8886460079837,825.936077816475,773.3722903332587
1731305878.3742032,810.0430440142223,803.2770382809483,825.5888762154877,767.1609904396496
1731305878.3753452,809.7413524718994,802.6036051705506,825.2627844354241,762.3169131313358
1731305878.378862,809.4411511326546,804.7058950456375,824.9576637913414,763.2595418850043
1731305878.37925,809.1423854331656,809.8183654148087,824.6729959784593,770.0241969433179
1731305878.383155,808.8450176672743,816.6836052859727,824.4082585039354,777.5204105780655
1731305878.3848166,808.5490351419934,822.3774901254156,824.1638049598599,779.1352599362773
1731305878.3870602,808.2544185527498,823.4552930600868,823.9416300178046,772.124911851358
1731305878.390965,807.9611370873002,817.8869950247138,823.7447437118237,760.2260437023853
1731305878.3931153,807.6692070261142,806.5068302116649,823.5742153767319,750.9739545473249
1731305878.39487,807.3787767002107,792.9387499846763,823.4250930106977,749.8432918349785
1731305878.3987749,807.0901226363884,781.9075968375065,823.2856366624283,756.1976562639773
1731305878.400421,806.8034387921984,776.8535921543626,823.1453647899167,764.3091323571231
1731305878.40268,806.5184574977715,778.2483820674402,823.0118665872504,768.1149118915777
1731305878.4065847,806.2342378134658,783.6229888511484,822.9234420262288,765.4037945732492
1731305878.4104898,805.9496545375737,789.2090806484288,822.9332716349762,758.3231078283011
1731305878.4120274,805.6648058280442,792.0300612368623,823.0491674067172,750.7425837301698
1731305878.41377,805.3825097656442,791.116666114907,823.1538922515492,745.3840203888559
1731305878.4143949,805.1078309464325,787.3515042539171,822.9848024101166,742.9163345902238
1731305878.4160247,804.8437118344792,782.4519360968216,822.2463368875341,742.845786633157
1731305878.4182997,804.5838928264865,777.9382175366354,820.8061530372187,744.5861380751385
1731305878.4222047,804.3098171011301,774.5734607069618,818.7963445845375,747.6259836814546
1731305878.4261096,804.0013065108418,772.3020351792402,816.5122239672787,751.1389103178436
1731305878.4300146,803.6637591048727,770.5568387680399,814.2161870785617,754.04207549582
1731305878.4309392,803.3542551295589,768.8057504710075,812.0252240915925,755.8551191432339
1731305878.4316287,803.1671959228643,767.0966603336157,809.9312772439156,757.576638127096
1731305878.4339194,803.1467407743195,766.2278351734946,807.8809216099601,761.4054357135849
1731305878.4378245,803.156440413409,767.3191711130968,805.8356145999293,769.0121098326442
1731305878.4417295,802.8394574239921,771.0153482246309,803.7875268706026,779.5584557007711
1731305878.4456344,801.8493903363358,776.9226761174207,801.7469030747204,789.3400741355739
1731305878.447233,800.3813418355512,783.7605172691281,799.7252498573512,793.8523953233387
1731305878.448678,799.6486484545494,790.1306876736163,797.7272887019686,790.9686435402159
1731305878.4495394,801.6216861652052,795.2631902680246,795.751720734331,782.7225452012481
1731305878.4498513,807.6646981892377,799.0962302228849,793.7953062459766,774.1555577809111
1731305878.4534442,816.8276628345686,801.6552548440698,791.8558232938105,770.0245548838382
1731305878.4573493,825.4274823454681,802.4072054986766,789.9327011683041,771.8381903181469
1731305878.461254,828.8743297330965,800.3962831798037,788.0262644082967,777.3495349147213
1731305878.462837,824.7577148422581,795.2823467454525,786.1368517540833,782.6698736849991
1731305878.4651592,814.8514094516813,788.4426115740256,784.2644186805724,785.2059265169881
1731305878.4687634,804.3148383501466,782.9730883673028,782.4085723101947,785.1587038601832
1731305878.4690642,798.5172519713967,782.1750744026953,780.5687566779955,784.6188280381538
1731305878.4729693,799.786195182453,787.4026735890915,778.7444169452967,785.2540605806769
1731305878.476874,806.389654852663,796.866187589082,776.9351404006634,786.6519891775318
1731305878.478441,814.2155428917196,806.4283749950821,775.1407953050201,786.7452548791248
1731305878.4807787,819.5698602760257,811.9923626072637,773.3615562219913,783.9569491819274
1731305878.483586,821.024775524711,811.9231455305959,771.5975934631504,779.2141442612461
1731305878.484684,819.4598975965522,807.9348648166258,769.8483645576443,775.9888550245341
1731305878.4876754,816.9311751165404,803.9123157101484,768.1119704027874,778.0546766402921
1731305878.488589,815.4510844508343,803.4405367665835,766.385595653379,786.5371435068123
1731305878.492494,816.2339782151989,807.6071269566653,764.6678468983977,798.6115701440059
1731305878.494045,819.4074707878368,814.4838405445406,762.9621208057517,809.1321323856614
1731305878.4963987,824.1229644644784,820.618884428122,761.2774769530755,814.2062627703291
1731305878.5003035,829.056836430466,823.4795134129967,759.6224345809478,814.0088840764819
1731305878.5042088,833.0707312830542,823.0572285957059,757.9913210533227,812.5244655896448
1731305878.5065873,835.5636698882291,821.4526549224896,756.3531352718278,814.3021634657235
1731305878.5081136,836.3081520076839,820.8531479130412,754.6624518040616,820.7586546855886
1731305878.5096493,835.1507814764744,821.6433280577237,752.9057533096357,828.948480825665
1731305878.512019,832.1063653225157,822.2646179178769,751.1628353818408,833.7413988225379
1731305878.5159235,827.7949082134392,820.8746384042987,749.6140124100381,831.7163548254213
1731305878.518494,823.5768352713483,817.213700405497,748.4107456984616,823.868464343137
1731305878.5198286,820.9515307641426,812.9200079310466,747.4165639627461,815.1688458959948
1731305878.5237336,820.6147496568025,810.0565536047768,746.0227689463559,811.2721385625769
1731305878.5252533,822.0454438626938,809.3476447762366,743.4058294290674,814.66658550004
1731305878.525499,824.0452092944769,809.8357119054654,739.4375618070026,823.0111683540007
1731305878.5276384,825.7535039744012,810.1610605053147,735.7889334658748,830.933849986933
1731305878.5315435,827.2257554936102,810.010997426938,735.8736399279728,834.029567927233
1731305878.5354483,829.0894079529778,810.1885085129258,742.1556163271347,832.0056948247072
1731305878.5393534,831.6446502407343,811.2835072782125,751.1799262862858,828.483709871876
1731305878.5408573,834.2591849210539,812.4701600541048,750.3528291389638,827.7250453733145
1731305878.5432584,835.6198559294207,811.8827499052526,722.9253662493111,831.2066087437862
1731305878.5444114,834.6536519661536,808.3829028546012,663.1359867258178,836.951431562256
1731305878.5471632,831.3746512608674,802.9797084818479,590.4953380572615,841.7443010890619
1731305878.5510683,826.9760196832282,798.3199581326909,544.174345291408,843.7449568694708
1731305878.5534022,823.0838944534054,796.4907064542112,553.8229222153689,843.252331466127
1731305878.5549731,820.7518611685176,797.131509874137,611.765364451652,841.670500760696
1731305878.5564616,819.9695019755414,797.7314172339578,676.5396167609496,840.1862202791636
1731305878.5588782,820.0050195655792,795.9564001732665,707.4600638477209,839.2179008525618
1731305878.562783,820.1958164270765,791.8534879023372,697.7646551020704,838.6139632333887
1731305878.5633235,820.4945384030482,787.8397883272042,675.515809566142,838.0796510518236
1731305878.566688,821.4067525929437,786.509397778947,673.7861287829168,837.4452021816378
1731305878.570593,823.5023308633699,788.3685556277259,700.5617625282655,836.7014712468258
1731305878.5720656,826.9114439013416,791.5726088530522,736.1558752371388,835.9143795070377
1731305878.574498,831.0772897560865,793.7023885666888,756.9078275245629,835.1410744920618
1731305878.578403,834.856580472065,793.7223826160698,758.9266846781078,834.3993205579065
1731305878.582235,836.9875669482988,792.385226266496,758.3082241234677,833.6789307986168
1731305878.5823078,836.8095496592044,791.1180771526115,769.6285654088658,832.9641378627919
1731305878.5862129,834.8249609395368,790.7757711302232,786.5337432781523,832.2466922817174
1731305878.5876696,832.5454973879023,791.3075036074033,785.7654495793752,831.5267921731912
1731305878.5883102,831.4509451474016,792.2061969848892,751.8295776370994,830.8082020158575
1731305878.5901177,831.7034987607498,793.0441289644587,697.4013769845415,830.0939237739564
1731305878.5940228,831.7654794213126,793.6815062320196,657.1349603057863,829.3848102532809
1731305878.5979278,829.5723343184411,794.1852865812696,658.8732025957355,828.6803094923918
1731305878.6011474,824.6088063926494,794.6680532689678,700.1024450901592,827.9796599747517
1731305878.6018326,819.2203777550687,795.1912103338396,752.8637874327877,827.2825327805426
1731305878.6032736,817.7837891093188,795.7556637315956,790.8875032873659,826.5890347587952
1731305878.6057377,823.9037130983111,796.3357181967044,810.2227473047137,825.8994350455116
1731305878.6096425,837.4505431832902,796.9103009818328,823.6298578082956,825.2139435256306
1731305878.6135476,853.6749268970459,797.4735047828142,838.415785821445,824.5326500241828
1731305878.6174524,865.3489475680195,798.0296467615724,844.1410421121882,823.855570568247
1731305878.618878,866.728900307163,798.5847571461691,823.8785166173437,823.1827107773696
1731305878.6200595,856.7514351812107,799.1418506104662,776.4027163990331,822.5140970411975
1731305878.6213574,839.3918975440199,799.70077792679,724.7859392770648,821.8497743953269
1731305878.6232183,821.1169226089853,800.2601389264954,700.0350783507446,821.1897913769986
1731305878.6252625,807.2569989478163,800.8188861207362,712.8982837547678,820.5341886294908
1731305878.6291673,799.5558281401296,801.3767933161918,740.1113840736202,819.8829961038833
1731305878.6330724,796.0643769618977,801.9341435590526,740.8359228382308,819.236235739739
1731305878.634482,792.9909719081002,802.4912765725322,692.4816231481789,818.5939252217663
1731305878.6369772,787.2109286961623,803.0483587060567,615.1565391349997,817.9560805340968
1731305878.6389716,778.1644815020444,803.6053923499588,560.4937681623744,817.3227167855947
1731305878.6408825,768.3443534964249,804.162322233246,571.1835277211927,816.693846939004
1731305878.6447873,762.0869828660165,804.719116437734,645.5259147990984,816.0694780076685
1731305878.648692,763.068135906838,805.2757853364014,738.7828056903028,815.4496059854303
1731305878.650086,771.816290921218,805.8323620833867,799.9955571733362,814.8342143021542
1731305878.6525972,784.9755452794769,806.388880247435,810.5453933345519,814.2232824405412
1731305878.656502,797.1141616275161,806.9453667944331,791.0351869678749,813.6168058737302
1731305878.6578834,803.9617076326768,807.501847470535,774.8745942578034,813.0148137019337
1731305878.6581264,804.7476714534804,808.0583507434126,777.2673430185162,812.4173555438364
1731305878.6604073,802.052927628836,808.6148989661405,787.9525540455073,811.8244360658052
1731305878.664312,799.6057393407829,809.1714893320728,789.1498208845065,811.2359229116893
1731305878.66569,799.8721436137789,809.7280857134391,776.2159112409316,810.651526648497
1731305878.6682167,803.0201596329241,810.2846504031081,759.893179748386,810.0709775088314
1731305878.672122,807.5021997007326,810.841221743013,750.5667763742969,809.494403184172
1731305878.6760268,811.4237386042762,811.3979838382655,743.5326521025403,808.9226253103354
1731305878.6767955,813.6782308317938,811.9552153900981,722.6954803592037,808.356835924563
1731305878.679932,814.2622280776485,812.5130315509363,680.9585521253999,807.797301876653
1731305878.6812942,813.7825928529909,813.0710198840285,637.0524794184349,807.2416912910486
1731305878.6838367,812.6712345485039,813.6281595184721,628.9356767040858,806.6849537571115
1731305878.6877418,810.7979397813705,814.1835168200635,685.0435141334774,806.1229899207455
1731305878.6916466,807.8078068492767,814.7377363083608,797.491250779141,805.5598038380259
1731305878.6930344,803.8158780564497,815.2942142988704,922.268484330925,805.0123637073715
1731305878.6955516,799.733820119579,815.857828174618,1007.76715564882,804.5030738048102
1731305878.6957076,796.8903049561308,816.4298258127716,1027.8635922578128,804.0343935779645
1731305878.6968982,796.3150978827438,817.0012101166279,993.6886750799429,803.5588991333462
1731305878.6994567,798.3148260171588,817.5522373710836,938.8483784211039,802.982513385451
1731305878.7033615,802.5924855327908,818.0668630602486,894.2266764930818,802.240979430575
1731305878.7072666,808.6606983832114,818.5609457693864,872.2136758462404,801.4379390097198
1731305878.7111714,816.1308723436642,819.1014047550182,867.6929855082178,800.932907364738
1731305878.7125022,824.6175775649258,819.7763119124742,869.006017986202,801.2072294851544
1731305878.7146196,833.3060394737846,820.5937856826162,867.810448427631,802.4773856393919
1731305878.7150764,840.5947398722166,821.3606104108488,862.0920898423241,804.372123516269
1731305878.7189813,844.4045718611286,821.6851925186381,853.7913132388419,806.0778646561588
1731305878.7228863,843.3604407165296,821.2502838181249,845.3434001901915,806.8099920183147
1731305878.7267914,838.1706743150596,820.2700825188139,837.8771231412411,805.9969881907814
1731305878.7279425,831.9634022815777,819.6512536602631,831.255131606466,803.063029364213
1731305878.7281065,828.8750609467586,820.3425353798559,824.8818855801469,797.498297801474
1731305878.7306962,831.5770206057224,822.1456385953919,818.3370433852672,789.6829673975207
1731305878.7335317,839.4576347056666,823.1896171777593,811.5381836036688,781.7863118470008
1731305878.7346013,848.8425113853093,820.9822282047571,804.5995880508247,777.4224841810017
1731305878.738506,855.1446938780687,814.4134650959606,797.6486340166659,779.5928069346782
1731305878.7424111,855.4292676733631,804.9456784343389,790.7386947913059,788.182491445335
1731305878.7437105,849.6866766202152,795.8018948728171,783.8579469559066,799.1900137736658
1731305878.746316,840.1913714511921,789.7356021542398,776.9738987374537,806.8001923861124
1731305878.750221,829.7174289888089,787.2146447897692,770.0654476469375,807.0920460398651
1731305878.7524436,820.0135176262677,786.4447154939343,763.129542092601,800.6503135908897
1731305878.754126,811.4542130569881,785.0527673485731,756.1727593086832,792.0528536994162
1731305878.758031,803.7183481924515,781.9266697187262,749.2016641061285,786.5873480152627
1731305878.7593143,796.6169103978099,777.7761293682506,742.2186837474057,786.6327045877864
1731305878.761936,790.3420167018392,774.2531302165413,735.2229570525234,790.289127538566
1731305878.7628503,785.1522337963299,772.6907038520203,728.2128019462133,793.065905711795
1731305878.7658408,781.0544298043387,773.5596709664655,721.187297330663,791.2088940965722
1731305878.7697458,777.8880492427846,776.7199091199516,714.1463963003097,784.2209173691414
1731305878.7713556,775.6337636276434,781.6844658066052,707.0902427117322,774.9158751923392
1731305878.773651,774.459113262324,787.402499561669,700.0186266626622,767.2398852830141
1731305878.7749186,774.3432885522722,792.0738488173243,692.9311616692135,763.6603730459717
1731305878.7775557,774.7095041217548,793.8435505641062,685.8281374901763,764.0244112032431
1731305878.7814608,774.6174943071669,792.2449221451144,678.7112735228095,766.4094409063284
1731305878.7853656,773.5059024023576,789.0401072139414,671.5831186646994,768.8633526289241
1731305878.7892706,771.8124688126354,787.2745137341772,664.4443381556268,770.514064330285
1731305878.7902677,770.8025414928086,789.0264983537157,657.2901716298818,771.5058400573533
1731305878.7905226,771.6561294061792,793.7635600062007,650.1101565565826,772.3322998910057
1731305878.7931757,774.5669923323212,798.8096044821827,642.895824987945,773.3186941608809
1731305878.7970805,778.5902794739508,801.5495168398828,635.6557215944713,774.5083699610972
1731305878.7977586,782.3008085437843,801.4975842385726,628.4256018235667,775.7943440268346
1731305878.8009856,784.6843875637404,800.5712926936336,621.2525912972834,777.0711625165684
1731305878.8048904,785.6270296218346,801.4839736001231,614.1418018006153,778.2996657844938
1731305878.8061268,785.7871474657101,805.6432095934048,606.993213934081,779.493548908263
1731305878.8087957,786.0614051473103,812.1682562421536,599.6076754164202,780.6806075600696
1731305878.8091798,787.0347154239151,818.6234183299828,591.8449957688028,781.8772860405443
1731305878.8127005,788.7824370672265,822.7397733701897,583.9061310023341,783.0848358191057
1731305878.816605,791.1558438577721,823.7782094486417,576.4940302231313,784.2971597455933
1731305878.82051,794.2080421930168,822.6342526284143,570.4588981058037,785.5087766225963
1731305878.8217309,798.1053002498235,820.8381332206097,565.7612595356985,786.7178605250124
1731305878.8244152,802.3251462106681,819.3858189072464,560.3603199554998,787.925263808143
1731305878.8280916,804.9881414703967,818.2726955594303,550.5600931304848,789.1324242606343
1731305878.8283205,803.5733542079067,816.8881436604076,534.2918616462543,790.3401007244482
1731305878.832225,797.1234371669492,814.7789425230326,516.6039388606633,791.5482555758106
1731305878.8326666,788.2302507379625,812.1837625942298,512.7601640431113,792.7565040223869
1731305878.83613,782.629700239807,810.0470683149981,542.6668067379626,793.9645254109126
1731305878.8373349,786.0032721371308,809.5474986145712,616.1564328602017,795.1721985491906
1731305878.840035,800.099632163641,811.3727677399805,720.1370280466599,796.3795309484834
1731305878.84394,821.1278569026845,815.1133274292001,822.1554210843201,797.5865444686369
1731305878.8470037,841.6800798886017,819.1917113570199,890.9233352797116,798.7932218805797
1731305878.8478448,854.7669885429319,821.5144399942587,916.1490762654433,799.9995265904614
1731305878.85175,857.2057253409139,820.5457414891207,910.083334911228,801.2054478599218
1731305878.852939,850.4494882323326,816.1266974076077,892.1383588357253,802.4110090636166
1731305878.855655,838.9315545734631,809.4894778299054,873.6915889486011,803.6162032480478
1731305878.8595598,827.4697921992661,802.500418123418,856.2660233823196,804.8208867359043
1731305878.8634648,819.4011533522594,796.7122355818984,839.5837008094228,806.0247458925056
1731305878.8659158,816.1423967391014,792.8471065545979,826.3873300695982,807.2274809888762
1731305878.8673697,817.7001975370229,790.8920973673823,818.3662167619873,808.4292198033197
1731305878.8675747,823.1929590540249,790.516111997005,811.4506418066629,809.6308585993801
1731305878.8685431,830.9569675808784,791.3987985157229,800.8081827480343,810.8337372165269
1731305878.8712747,838.6234555098443,793.2849907997726,792.2485776839154,812.03823879672
1731305878.8751795,843.7275262514075,795.864754607318,804.259921262009,813.241924982508
1731305878.8790846,844.7771845152118,798.6998407695479,851.8218842571112,814.4393020009313
1731305878.8829896,842.054574244634,801.3300693891638,925.2148572533445,815.6257209528549
1731305878.8841472,837.5050833055296,803.4931544127772,988.7349715154942,816.805226131304
1731305878.884828,833.7558857593694,805.2343851261686,1007.7278021217962,817.9961789361057
1731305878.8868945,832.856539802711,806.712849242626,981.5674263972892,819.2235302044786
1731305878.8907995,835.3618349605055,807.7604454301041,948.7170759294041,820.4912604183578
1731305878.8947043,840.1277628457857,807.5607976868538,953.844866542117,821.7487342014872
1731305878.8986094,844.9608913499475,804.9006433834944,1004.5691031227908,822.8917781674795
1731305878.8997512,847.9566793692244,799.1118395899719,1058.7862452586041,823.8428897641928
1731305878.9024827,848.8455197380554,791.1927927799637,1057.7884606389553,824.6986796627476
1731305878.9025142,849.2837319232191,784.1388670553786,978.6861916786363,825.8185736445042
1731305878.9037397,851.4467431310989,781.7507180355618,860.0058022727526,827.6453673599171
1731305878.9064193,855.6353742921272,786.245648895601,774.8212862186714,830.1549719410527
1731305878.9103243,858.9054333615917,796.2258524427011,770.4276214649205,832.2193219598241
1731305878.9142292,856.4866820244584,806.8085916784954,825.5423124726356,831.6194386241776
1731305878.9153554,845.5651692967822,812.3539379071995,865.8238969924289,826.3289672086789
1731305878.9181342,828.5003954844724,810.0622274152311,829.6350593632857,816.4844178007941
1731305878.922039,812.2936082989077,801.6863140846368,728.2336133393164,805.0782593559696
1731305878.9226518,804.0045194737789,791.9435146487326,643.6937315954588,796.0172184557349
1731305878.925944,805.590772853503,784.9509452697599,661.0342497203999,790.9838880071007
1731305878.9298491,812.636608569507,781.6463573534559,792.4206484028239,788.2718676934202
1731305878.9309597,818.2236689065206,780.114357872883,961.5987779457465,784.88702593193
1731305878.933754,818.5374147420616,778.0422576726014,1063.2015841387872,779.747062206847
1731305878.9373908,815.2245239514224,774.8112559529445,1044.3730701243605,774.7627403048723
1731305878.937659,812.6730969551937,771.5208646197474,938.7711151714348,772.8955703232879
1731305878.9415638,813.1924241934203,769.4914768404158,828.9717091050284,775.2112399496322
1731305878.9415638,814.8160041330053,769.1081810667586,776.262969518512,779.6323689475217
1731305878.945469,813.6059136291951,770.0846432038242,779.7474117803046,782.390964629953
1731305878.9465635,807.9280014576631,772.4507211541994,794.417529067116,780.967199979895
1731305878.9493735,800.5108752194753,776.8111907780994,784.1531680191622,776.2521993378291
1731305878.9532788,796.4783028104937,783.400520071304,757.7576130329892,772.2403272385708
1731305878.9571838,799.2864233294109,790.963571594688,755.4154367860709,773.2763910761184
1731305878.960476,808.06299724667,796.8530612968124,800.4143966693971,780.7312840141093
1731305878.961089,818.2754227426677,798.603931076918,864.6055288289615,791.6351960388704
1731305878.9621675,824.8779862494232,795.8077580272295,884.9749884231819,800.4957946362049
1731305878.9649937,825.4912906089762,790.7365140377854,820.6576121010905,803.055347044188
1731305878.9688983,821.5360084486405,787.122566886149,698.2410168168633,799.1282422690136
1731305878.9722989,816.8389313391382,787.9131192319604,599.7711309816971,792.3884935165032
1731305878.9728036,814.8833159947358,793.5527470539748,599.6987585822285,787.4551150844541
1731305878.9767084,816.6498667843041,801.9042574031678,705.1619196822671,786.6815200936105
1731305878.9777718,820.4426083990035,809.7103776084562,851.1357419825157,789.0146200880952
1731305878.9793878,823.5807247190771,814.4812405020592,951.7419558082308,791.4504156262732
1731305878.9806137,824.4885594684193,815.583730615586,961.3311466649936,791.6860684981833
1731305878.9845183,823.5700067451971,814.0428550813742,896.884891195397,789.931215114642
1731305878.988423,822.346761709631,811.4745085220196,812.1875999737787,788.6190418072395
1731305878.9923284,821.7312611180228,809.0226383225375,753.7109149480125,790.2606666769185
1731305878.9933758,820.9376178877667,806.9775517855526,734.9894523024753,795.0402908678916
1731305878.9962332,818.0022150910922,805.1273974718788,741.8669128154413,800.0945145876456
1731305878.9982998,811.5923921474458,803.3249167350882,753.5403222023847,801.3111850761446
1731305879.0001383,802.6507672774569,801.7096181092952,758.1739545553862,796.5374007405616
1731305879.004043,794.3760050739129,800.52585174723,755.047539050816,787.805593090045
1731305879.007207,790.3013223577876,799.9402439606373,748.6848151101318,780.6966203448402
1731305879.0079482,791.8923632893477,800.1312318744327,743.042221508479,780.9681869256641
1731305879.0089798,797.6524347364547,801.4034913591228,739.3619498338506,790.621741889836
1731305879.0118532,804.5047865918797,803.9327716589272,736.9439238615033,806.1546615853968
1731305879.015758,810.2050541729866,807.2723388058051,734.6908300927549,820.3548031357097
1731305879.017212,814.6076043574049,810.2913409291004,732.020294321704,826.5506166982266
1731305879.019663,818.7269869281494,811.9328742298459,728.9351679396538,822.492156880708
1731305879.023568,822.6897354661336,812.216309614899,725.688059791919,811.3298790151132
1731305879.0245838,824.7667944678495,812.3939675890298,722.48108635059,799.2747020834202
1731305879.027473,822.5998976230294,813.9050605121569,719.3683699979929,791.8394476093488
1731305879.0313778,815.5416450954722,817.0881619957956,716.3066072122859,791.3140312819564
1731305879.0352829,805.8967812019462,820.9821490486943,713.2376817926971,796.8092402981064
1731305879.036124,797.8335232224428,824.3909675670566,710.133425994271,805.9939008523017
1731305879.039188,794.7706243849232,826.9619580386919,706.9961378702343,816.4935273732223
1731305879.040188,797.2418849358229,829.0255627020679,703.839762653734,825.8443940684442
1731305879.0421147,802.7455210079808,830.4320251892126,700.6745435617164,830.9246418173498
1731305879.0430927,807.5594721484929,829.8811437660612,697.5027858367644,828.6751428208195
1731305879.0469978,809.162010488439,825.7825557003077,694.3220519346091,818.4556123986199
1731305879.0509026,807.5706621476879,817.9681398353907,691.1294959317013,803.952791614519
1731305879.0548077,804.7572630886895,808.4824849105074,687.9238522744134,792.0378356359134
1731305879.0550358,802.7688520556524,800.4565896997358,684.705071747996,788.5077267034968
1731305879.055792,802.1937186144338,796.003978928763,681.4732784121978,793.9230045970062
1731305879.0587125,802.2481455558678,795.0719499238062,678.2285198888287,803.2001678849699
1731305879.0626175,802.2389528659178,796.0796058185632,674.9715827865984,809.4431952306563
1731305879.0665226,802.8495918636496,797.3753390563279,671.7048119734997,808.786751227066
1731305879.0704274,805.8707834770132,798.1472785273378,668.4312019071314,802.4192131000851
1731305879.071396,812.5194394981256,798.3991705675843,665.1509033075658,794.7935995179072
1731305879.073948,821.9240586249426,798.4658988003822,661.8571216056148,790.2567013734722
1731305879.0743325,831.337617093603,798.6098806344735,658.5367765869237,790.943571677117
1731305879.0770228,838.1307820402129,798.8966198087666,655.1813118229518,796.8243243624678
1731305879.0782373,841.9181301774233,799.265473044103,651.8053378136356,806.6982172450041
1731305879.0821424,844.825625828404,799.6392838584726,648.4563319359186,818.6697982579018
1731305879.0860474,849.400742943397,799.9819520870622,645.1894055413857,829.9426194577371
1731305879.087,855.8316672869851,800.2975666554663,641.9974881920838,836.9532945734015
1731305879.0899522,860.9879317507165,800.6049344424506,638.7392982650653,836.7098904168059
1731305879.09286,860.3626178061576,800.91743979291,635.1668880454288,828.8565821685268
1731305879.0938573,851.4907132637504,801.2377767135489,631.1448280440368,816.756866525315
1731305879.097762,836.1425934077536,801.5623642322423,626.9966687456993,806.1628024450733
1731305879.1016672,819.6398807721087,801.8871646463463,623.6440282484483,801.9500978803057
1731305879.1026044,807.8969764753124,802.2104692436894,622.0615278580982,805.2767852911196
1731305879.105572,804.2528814426322,802.5326399377058,621.9339293352148,813.3438861913024
1731305879.109477,807.919384569727,802.8547039110219,620.4140408510627,821.6858796516179
1731305879.111772,814.6266783792097,803.1773333638401,612.9353406887294,826.8838003160807
1731305879.1119308,818.937953023299,803.5006282726184,597.6687409132984,827.7906468138272
1731305879.113382,817.1415240209133,803.8243800446727,582.1174646799348,825.1934662685114
1731305879.1172867,809.37342625483,804.1483771542078,585.5259674375029,821.0121071195043
1731305879.1182084,799.6795718592695,804.472537891156,629.3605440460451,817.6001965888642
1731305879.121192,793.5851251027285,804.7968858882379,716.7723840586509,816.8013515213581
1731305879.1250968,794.4308607083824,805.1214733455798,818.1576425033634,818.744651732097
1731305879.129002,801.031249169279,805.4463296445475,884.2478250212416,821.4410588005333
1731305879.130684,808.5546988838717,805.7714528401704,884.3884863131881,822.1265106202268
1731305879.132907,812.0360473744169,806.0968248812296,835.628354113499,819.5211632786134
1731305879.1338124,809.7706375579799,806.4224278266594,789.4993603995131,814.8361859975668
1731305879.1368115,804.0589159345803,806.748250988741,784.384261548069,810.5141003195946
1731305879.1407168,799.0772853591562,807.0742901923077,808.6485300609554,808.1550710377176
1731305879.1446216,797.8267000985161,807.4005435509678,811.463865283326,807.6883148378365
1731305879.146839,800.4007635552051,807.7270062416574,752.3058767627882,808.0857812080609
1731305879.148527,804.423550779115,808.0536654103419,643.2713936061577,808.4252346787403
1731305879.1494164,806.9056745960962,808.3804982581606,546.032106292918,808.365489114391
1731305879.149596,806.1142948377761,808.7074788867696,527.2144725415499,808.0150557433275
1731305879.1524315,802.4364848366698,809.0345963920046,610.8886689443385,807.6036187692706
1731305879.1563363,798.0217600355206,809.3618741163704,764.8095949089659,807.268013947112
1731305879.1602414,795.6169851453127,809.689364318551,925.3399438794128,807.019193796638
1731305879.1641464,797.2369072194626,810.0170934358418,1036.440326055258,806.8069902935334
1731305879.1650207,803.2458410583015,810.3449717201472,1074.5869721109248,806.5862406984673
1731305879.1680515,812.2184648981638,810.6727511563332,1050.1014907163647,806.3421145711669
1731305879.168508,821.6402407289356,811.0001568626186,994.0365746982282,806.0820575233353
1731305879.1719563,829.1019648541471,811.3272311756126,943.0869397657955,805.8184127656224
1731305879.1758614,833.3216479319739,811.654672455327,927.0016222478575,805.557892077474
1731305879.1797662,834.4269229703503,811.9836691118135,957.1724397207738,805.3005689996853
1731305879.1806247,833.5172418112586,812.3148003899881,1017.9936327779009,805.0435938424308
1731305879.181747,832.0916163551645,812.6463633322554,1068.7006533816127,804.7846170190057
1731305879.1836712,831.8340296297207,812.9737951132961,1062.4447319466747,804.5229480209786
1731305879.18742,834.5482408885011,813.292478243087,977.1584155086524,804.2590168234073
1731305879.187576,841.5930833203644,813.604321799136,837.6178817985303,803.993441888511
1731305879.191481,852.6971409961475,813.9235099574785,706.5948825639546,803.7265112425885
1731305879.1953862,865.0979877004265,814.271800586822,644.0323596258615,803.4581657113786
1731305879.1962287,874.2896919052494,814.6558659600274,663.1964076852424,803.18820962618
1731305879.199291,876.5617624219161,815.0343162419373,722.1747741978099,802.9164890094638
1731305879.203196,871.7565934167582,815.3041126877049,761.8160241986243,802.6429443692169
1731305879.2063322,863.9439263907863,815.3378617826354,757.9526598881744,802.3675733539305
1731305879.2071009,858.9962627945275,815.0422615515243,739.40835191652,802.0903721404225
1731305879.211006,860.5410938786706,814.3168429408485,754.3966602332308,801.8113009680674
1731305879.2118328,867.3524911972908,812.8859743845032,818.3339940813573,801.530289029198
1731305879.2149107,874.3426715715884,810.3092434311643,894.9151112498911,801.2472749785394
1731305879.216655,876.4665826399613,806.4982727388789,929.3687910286926,800.9622609378424
1731305879.2188158,872.4411667887974,802.4031240044884,900.9109897128087,800.675332002412
1731305879.2227209,865.3246265205618,799.9772600137387,842.4436617922037,800.3865818498244
1731305879.225244,859.614810908876,801.0498849588647,807.7604525455581,800.0959345239683
1731305879.2266257,857.3963346293344,805.8711079126942,817.8146869907235,799.802982696786
1731305879.227437,856.7917873018632,812.5522696836891,838.5485106155421,799.507095816095
1731305879.2305307,853.9661854074224,817.9382235538518,813.594685564058,799.2079965750363
1731305879.2344356,846.8638887346283,819.3316419342239,722.8544380474636,798.9065886287754
1731305879.2383406,837.3101703040887,815.8933822938185,611.2303911083111,798.6051664276308
1731305879.2422457,829.5018374064803,808.8566694028722,557.0336705744285,798.3058833503222
1731305879.243041,826.1700705971541,800.5957824270199,605.4036066707673,798.0073949804861
1731305879.244156,825.9404915350309,793.3384776009207,726.5876752673707,797.7021364746087
1731305879.2461505,824.4528079905444,788.3315260822752,838.0325651372974,797.3790330252061
1731305879.2500556,818.3563365448326,785.7011280664434,871.2356616756344,797.0349106853749
1731305879.2515633,808.5408601223578,784.7604882002613,823.9395159315659,796.6895620248763
1731305879.2539604,799.5529143114344,784.4817505672904,753.509755009181,796.3874169543382
1731305879.2578654,795.6351628810744,784.0073511059571,722.3028236042946,796.1656298605097
1731305879.2586453,796.9996161113223,783.0733109537598,747.1967018824873,795.9904511653294
1731305879.2617702,799.7962082617374,782.1233275209943,795.6693926668357,795.7123890664275
1731305879.2630682,799.8031763872282,781.9718777369502,823.7431574040962,795.1305183483324
1731305879.2656753,796.3191018066757,783.1506339793427,814.8464134389598,794.2180072354342
1731305879.2695804,792.5006823032203,785.3374885872053,785.533886375636,793.397242027466
1731305879.2734852,791.8070722217996,787.3163560758595,761.074731285702,793.5376722921496
1731305879.2742493,794.035973997214,787.638664338964,751.1157101136098,795.3340728124444
1731305879.2773902,794.9219204315837,785.6312159473015,748.1007827044251,798.2160015621238
1731305879.2812953,789.9089048619434,782.0089240210993,742.4206654534673,799.8193871355217
1731305879.2819805,778.7570213661168,778.560283780232,733.0761824256152,797.2441578284162
1731305879.2852,766.8043189303554,777.1186171668687,724.971166413003,789.7773088398812
1731305879.2864711,761.5800060212105,778.6228612296875,721.5825856710247,780.6456007733573
1731305879.2891047,767.3217249943037,782.9079267843863,722.3552331480453,775.4713049527538
1731305879.289853,781.5762977169884,789.1464221590951,724.7468593655923,778.0523454686119
1731305879.29301,796.4449706547474,796.3582369029195,726.7544133009103,786.9947767439032
1731305879.2969153,803.6518363202496,803.5770551441168,727.7948261749843,796.4297076432393
1731305879.30082,799.945000106868,809.8202148835725,728.2392027175318,800.5228982594791
1731305879.300892,789.155122743294,814.28564702336,728.630338322932,797.9676810743548
1731305879.3047247,779.5828303817299,816.8758902026061,729.2436388395247,792.5809683167367
1731305879.3054574,778.593483361741,818.5757082669269,730.0669376704733,789.6664811462387
1731305879.3086298,788.0988807263475,821.0646853572991,730.9719822654479,791.5538221362884
1731305879.3125348,803.7758911451725,825.5181598067029,731.8608314721857,796.1396787615924
1731305879.3164396,818.1413254928585,831.366506967152,732.709890248568,799.262137182203
1731305879.3198042,825.0651257406449,836.0485421730605,733.542398061318,798.4474706881865
1731305879.3203447,822.7526586293311,836.1985154794468,734.3873440301156,794.8532232748579
1731305879.3210614,813.7529097482206,829.6879817567676,735.2582155133454,792.1265501629584
1731305879.3213792,802.6568900521952,817.2355969906002,736.1535489915599,793.3274930240229
1731305879.3242495,793.2811652499139,802.3979439330159,737.0665075223745,798.2599793913232
1731305879.3281546,786.9537208205262,789.7234773045121,737.9923536168213,803.1672612101238
1731305879.3320596,782.6450445212449,782.1905332277219,738.9303481913674,803.2405448916278
1731305879.3359644,778.6196850207959,779.7434981545878,739.8820671767503,796.4186335824396
1731305879.3366656,774.2984419465125,779.9884846252115,740.8492301768451,785.6270483810879
1731305879.3387165,770.76722849789,780.3570711362037,741.8326761031482,777.2643200228849
1731305879.3398695,769.4745079064487,779.8755034021971,742.8324718462944,776.5485587893726
1731305879.3437743,770.4545460649076,779.2175465985,743.8484400456985,783.2429192980751
1731305879.3476794,772.0386557564805,779.3762476446811,744.8805372428704,791.4456579222078
1731305879.3515844,772.5392117864767,780.4064244744795,745.9289314655128,793.9079517907873
1731305879.3522696,772.2403241830061,781.3376525117305,746.9939021320737,787.4468636557602
1731305879.3554893,773.5352747819119,781.1335735037475,748.0757260316738,775.0752067079142
1731305879.3562872,778.7956612808457,779.7082801686605,749.1746283766794,763.3294288960568
1731305879.3576283,787.7933237199992,778.1014610624115,750.2907922528774,757.2370756299598
1731305879.3593943,797.0805010548189,777.6599122695707,751.4243873687091,756.9954919559111
1731305879.3632991,802.1511872164665,778.8604857887863,752.5755896532565,758.692790633319
1731305879.3672042,800.8192795172392,780.7550328119248,753.7445853615551,758.059328380528
1731305879.3678737,795.0546519139996,781.6307925659547,754.9315659934135,754.0061806893578
1731305879.3711092,789.6040833263485,780.4650784857963,756.1367208660171,749.1884250258429
1731305879.375014,788.3563168974322,777.8874697388767,757.3602302372706,747.4909270893252
1731305879.3765402,791.4140656000501,775.6364042283219,758.6022607992783,750.8830983998937
1731305879.3789191,795.3245774024842,774.9323549041331,759.8629680726132,758.3033287974368
1731305879.382824,796.1661409887123,775.3976513031458,761.1425109934371,767.059519274367
1731305879.3834777,792.679227556339,775.6819734211613,762.4410755214568,774.9587643511337
1731305879.386729,786.7796602239616,775.1286008759541,763.758886522588,781.2295358674924
1731305879.3906338,781.4189825892577,774.6422676003244,765.0961755379633,785.9969559198963
1731305879.3911953,778.1961066267522,775.789023698447,766.4530923838342,789.4126671134899
1731305879.3945389,777.0057792418282,779.1153897497547,767.8296140208791,791.2619915056938
1731305879.3954525,777.6729581271162,783.5001827053433,769.2255792122994,790.9735230949555
1731305879.398444,781.4562010618542,787.1844369294826,770.6409653695936,787.8559767555026
1731305879.399082,790.4980683360927,789.3592390522971,772.0763264338627,781.8036508762904
1731305879.4023488,805.4391213733082,790.7290337565275,773.532968873453,774.382991845554
1731305879.4062538,823.410161125737,792.6165097294407,775.0122624996754,769.1835015464314
1731305879.4101586,838.5934437681043,795.5822251469381,776.5139401766286,770.2297330749282
1731305879.4140637,845.437252923694,798.8446048210983,778.0345167605042,778.9970760843637
1731305879.4143643,842.2359832294696,800.9400961947987,779.5682837167976,792.5393982383493
1731305879.414686,832.2645295166448,801.0031093207493,781.1128501688996,804.8834385997853
1731305879.4179685,821.4927756887671,799.617203978659,782.6772062041837,810.9642446608617
1731305879.4218736,814.5728948229234,798.5493269339512,784.2839322566846,809.8232717116667
1731305879.4257786,812.1066321493919,799.487487233881,785.9545760231986,804.4034343585346
1731305879.4261034,811.1403711257916,802.6540175205959,787.6771214830906,798.531468420491
1731305879.4296834,808.2773192724666,806.3604801632157,789.3790722183517,794.1732841211331
1731305879.43029,802.7795472772534,807.9729287509839,790.9526870040783,791.2837058334089
1731305879.4332764,797.1578747883054,805.707987173744,792.3647472044325,789.6185328539473
1731305879.4335885,794.8714028736258,799.9702944129798,793.8030609735551,789.9864028043462
1731305879.437493,797.1091869620042,793.189890385644,795.6943535464632,793.4294339896338
1731305879.4413984,801.3076855171846,788.2169861626509,798.3935075323882,799.3881032751395
1731305879.4453032,802.6223310027984,786.4574106678017,801.5494210765813,805.175123107539
1731305879.445894,797.2967168340687,787.153012480414,803.6080036585723,807.7733609571189
1731305879.4492085,785.5579151041235,788.2904679903655,802.2571986954503,806.5631598305916
1731305879.4521885,772.1089584462954,788.322839794548,796.1105821682124,804.5187745901757
1731305879.4531133,763.863757523359,787.3372368027606,786.3785953760162,806.5625274540276
1731305879.457018,766.1301406658246,786.9073032963532,776.507535209948,815.9754623824612
1731305879.4609232,779.3142346894462,788.9515488361485,769.7120740131955,831.3537078101405
1731305879.4610114,798.1827623783698,794.5005367165195,766.864926272594,846.5539544323584
1731305879.4614985,814.5859386762365,803.0866111684255,766.6378679298191,854.2351963301285
1731305879.464828,822.4016729214334,812.973699224206,767.1340323515504,850.887852051641
1731305879.4687333,821.4619517726272,822.0512792714526,767.2010539480112,839.6485803346799
1731305879.4711003,817.3087807650933,828.9016976798829,766.6585759848741,828.4627163788944
1731305879.472638,816.5906383714263,833.3311479587993,765.8346200757073,824.7111914281635
1731305879.4765427,821.6952734365135,835.9089249424075,765.0635814474682,830.3263820004522
1731305879.4771025,829.1854389826092,836.9190958779411,764.4713224592515,841.0296267250939
1731305879.480448,833.3389570715386,835.853326954501,764.0146728406024,849.9514614098127
1731305879.4843528,831.4774926960044,832.1747408604444,763.6045342663018,852.5403097979503
1731305879.488258,826.307258499613,826.6897043295018,763.1876542670294,849.0899993493086
1731305879.4900124,823.5095187024272,821.9404752476588,762.7594277489865,843.5255086262321
1731305879.4921627,827.1060912795517,820.8011775844118,762.3390171463199,840.0189609779869
1731305879.4927063,836.5995539458803,824.3177106905912,761.9438100491298,840.2314271557972
1731305879.4959197,847.7588022396302,830.7979059300419,761.579547882323,842.9371502691325
1731305879.4960678,855.8032122388915,837.0601949788647,761.2433570300725,845.6943300459159
1731305879.4999726,858.3717467685967,840.6795072163111,760.9304313793172,846.8173587878218
1731305879.5038776,856.4668675306824,841.261315806469,760.638108721635,846.1515088292567
1731305879.5077827,853.2126650648922,839.9824459211263,760.366279854359,844.5290768533831
1731305879.5083103,851.5417088541224,838.2873699063814,760.1159657454057,842.8266190203968
1731305879.5089245,852.4064788863453,836.9816319650147,759.8879963083118,841.4467680899198
1731305879.5116875,854.6645491879659,836.1449504669897,759.6825583885924,840.3546719127328
1731305879.5155926,856.4732464667675,835.5121950276066,759.4993997882247,839.3549953823338
1731305879.5194974,856.8009795252898,834.8411715847593,759.3381877885158,838.3073503061796
1731305879.5234025,855.829428489161,834.0526538830698,759.1987100550048,837.1832881365414
1731305879.5239146,854.3325547143821,833.1875345105024,759.0808822397023,836.0204384403567
1731305879.5273075,852.9351264267187,832.3129587349831,758.9846677139778,834.8613723781768
1731305879.5278363,851.8334004734938,831.4654456868709,758.9100096678683,833.7241912054792
1731305879.5308275,850.9253112090169,830.6455334826131,758.8568109835838,832.6051576196076
1731305879.5312123,850.0471401166758,829.8379444758433,758.8249473134281,831.4934653057699
1731305879.5351174,849.1119139011167,829.0301288714343,758.8142863499352,830.3820004013422
1731305879.5390222,848.1203355232664,828.2185276302645,758.8246976596628,829.2696571051562
1731305879.5395186,847.1105024109751,827.405644527735,758.8560519861394,828.1585765345664
1731305879.5429273,846.1128634256291,826.5949975534832,758.908215966615,827.0509288519115
1731305879.5467484,845.135614717813,825.788313436649,758.9810480097786,825.9475097685055
1731305879.546832,844.1723179688007,824.9854393141198,759.0743980742299,824.8479939023013
1731305879.5507371,843.2143147079713,824.1854775091975,759.188111191846,823.7517420228439
1731305879.5546422,842.2574466666043,823.3877370076008,759.322032081602,822.6583420170775
1731305879.5551226,841.3021300802284,822.5920116554711,759.4760059997853,821.5676974315669
1731305879.558547,840.3505270571653,821.7983951647018,759.6498709896086,820.4798662739216
1731305879.562452,839.4042366403813,821.0070126460586,759.8434423228605,819.3948932407511
1731305879.5656605,838.4636519386743,820.2178840423134,760.0565015371369,818.3127440018441
1731305879.5657356,837.5284350463874,819.430929621253,760.2888118048417,817.2333244672639
1731305879.566357,836.5981756575843,818.6460331349246,760.5401719109958,816.1565246016248
1731305879.570262,835.6727171031674,817.8630903418605,760.8104814550271,815.0822454735772
1731305879.5707266,834.7521357133294,817.0820209630325,761.099737397881,814.010402261314
1731305879.5741668,833.8365840628979,816.3027574962132,761.4078759608312,812.9409151113085
1731305879.5780718,832.9261736559658,815.5252311210945,761.7344845914295,811.8737005562972
1731305879.581977,832.0209478680281,814.7493652116575,762.078630338649,810.808668606854
1731305879.5845726,831.1209105949548,813.9750762250092,762.4392085160968,809.7457241714745
1731305879.5858817,830.2260609529235,813.202277260533,762.8159949533288,808.6847695228557
1731305879.586331,829.3364089086808,812.4308806000284,763.2108054982873,807.625705745436
1731305879.5897868,828.451972963567,811.6607982816764,763.6272194706498,806.5684329138353
1731305879.5936916,827.5727715938748,810.8919415310461,764.0673641031083,805.5128496919762
1731305879.5975966,826.6988173816048,810.1242201187905,764.5265356973382,804.4588530200431
1731305879.6006436,825.8301159887903,809.3575421520367,764.990607002612,803.4063381288734
1731305879.6015017,824.9666678604891,808.5918142475798,765.443685707368,802.355198775854
1731305879.601935,824.1084700331313,807.8269418270189,765.8884894066734,801.3053274935625
1731305879.6034844,823.2555168729202,807.0628293470722,766.3666869835349,800.2566157179773
1731305879.6054063,822.4077999660416,806.2993804268649,766.9495918970753,799.2089538062969
1731305879.6093116,821.5653078558815,805.5364979220662,767.6734078222113,798.1622310857645
1731305879.6132164,820.7280260191782,804.7740840019227,768.4396081099343,797.116336121225
1731305879.6171217,819.895936935225,804.0120402508593,768.97902080551,796.0711572610022
1731305879.6175387,819.0690198259977,803.2502677853068,769.0163522246554,795.0265831885748
1731305879.6210265,818.2472499129714,802.4886673683329,768.6619202179679,793.9825028572435
1731305879.6223965,817.4305977947918,801.7271395170949,768.7626903644385,792.9388042736414
1731305879.624931,816.619030236611,800.9655846171681,770.6487971570381,791.8953725657777
1731305879.6288362,815.8125132604265,800.2039030651545,774.8435575627536,790.8520893844037
1731305879.6327412,815.0110161858547,799.4419954408567,779.2416785152801,789.8088364584568
1731305879.6331432,814.2145120648121,798.6797626636334,778.71212332902,788.7655038227119
1731305879.6355517,813.4229691578105,797.9171060490058,768.6346331332426,787.7219971278219
1731305879.6366465,812.6363340421219,797.1539272161423,752.1569967001554,786.6782323593651
1731305879.640551,811.8545199032595,796.3901279488912,744.3666097890666,785.634109107835
1731305879.6413083,811.0774240052345,795.6256103162709,763.4329763139406,784.5894729572822
1731305879.644456,810.304987745055,794.8602773853506,810.108426194199,783.5441073919604
1731305879.648361,809.5372685709555,794.0940344377962,855.8598713531356,782.4978062959201
1731305879.6487472,808.7744350435624,793.326789749195,859.7670447079936,781.4505287100665
1731305879.652266,808.0165903541182,792.5584533753968,806.2633320892727,780.4025201362176
1731305879.6561708,807.2634533804829,791.7889332210115,728.6271881578976,779.3541798079781
1731305879.660076,806.5141720337928,791.0181306517728,689.9302138515495,778.3055300207571
1731305879.6602206,805.7677158062888,790.2459415726516,731.3748007371851,777.2555311915911
1731305879.663981,805.0240452907825,789.4722688001929,831.597164061357,776.202033810685
1731305879.6643512,804.28538931366,788.6970428671202,916.0733210276431,775.1432820960981
1731305879.6678858,803.5559159667962,787.9202323387971,914.1857582262662,774.0808419808453
1731305879.6704595,802.8381453276556,787.1418148647824,818.1523337488053,773.0215865424657
1731305879.6717908,802.1269966161624,786.3616990898998,692.3512733064804,771.974602384913
1731305879.6756957,801.4069858768439,785.5796458792548,622.135855545148,770.9407765920491
1731305879.6791327,800.6608285110891,784.7953025802902,644.9175917926133,769.9004919302799
1731305879.6796007,799.8920741096684,784.0084505760824,724.182162380436,768.8148073964762
1731305879.6799552,799.1474958925822,783.2193893095626,789.3368804859731,767.6562940518804
1731305879.6835058,798.5063989121448,782.4290796626677,803.3420728055213,766.4640307250925
1731305879.6874106,798.0086200998188,781.6385191411216,793.8698607428986,765.3748359196611
1731305879.6913157,797.5449088549184,780.8472382346654,819.0377985598715,764.5537317947064
1731305879.6952205,796.8202149534727,780.0519381605116,902.1057928624027,763.9908090009421
1731305879.6955595,795.5432799100347,779.2474381826564,999.2628683800693,763.2818167027183
1731305879.6980443,793.877318103984,778.4316200112049,1032.7113368259647,761.6875422614476
1731305879.6991255,792.8743421860369,777.6124864809418,959.6875107294682,758.7484055237244
1731305879.7030303,794.336540046793,776.8098858144042,814.7890785599913,755.2755695457416
1731305879.7053678,799.7666527884228,776.0423425015808,686.721337607271,753.8078433834254
1731305879.7069354,808.9443704869603,775.2984553976062,648.4098531553257,757.5143651051724
1731305879.7108405,819.4248477869918,774.5141947991457,700.4228173274198,767.7766347044219
1731305879.7111635,827.7883416620064,773.5976203729147,776.3369710263843,782.3245131352109
1731305879.7147453,831.9042318555705,772.5301266927171,804.3636825196897,795.8777900699685
1731305879.7169566,832.3560666616274,771.5051167115968,769.7569412568117,803.3490538404563
1731305879.7186503,831.7087947340823,770.9723561820254,722.7350269849798,803.3799576482246
1731305879.7225552,832.0610350971679,771.46053155292,727.5551223022275,799.2850474646123
1731305879.7264602,832.8356166392027,773.2479136795058,802.1663956532985,796.3123902480875
1731305879.7267675,830.7851543553077,776.1447890509826,903.3579125732332,797.378095083612
1731305879.730365,822.576614446577,779.5286866886222,966.5227205030025,801.1064044409601
1731305879.73427,808.1557244693327,782.5322575606534,959.3604311325246,804.0023971656595
1731305879.7358687,792.1007488418308,784.3521963302262,901.9631041029361,804.5251001015263
1731305879.7381752,781.4301101515115,784.7644835418398,842.1204914389714,804.9006294495755
1731305879.740276,781.1065397376453,784.5989061206108,814.6619716103771,808.8442987826235
1731305879.74208,790.532735927599,785.5387598197149,821.1828111827617,817.4747501800695
1731305879.7423716,803.7799311347085,788.9891195322044,840.7818388927824,827.3451483027985
1731305879.745985,813.4537788563979,794.7586721011655,853.3284633266272,832.343621446925
1731305879.74989,815.3261062139228,800.7813208780655,852.4459496583889,827.8057934096938
1731305879.753795,810.416358960428,804.3455815826609,842.9050957314457,813.7301913277668
1731305879.7547808,803.3450961388605,803.9717010262126,831.8765304093063,795.108999794754
1731305879.7576995,798.6590105093333,800.4832232770373,823.2733104218072,779.4306321450595
1731305879.7579758,798.1202111497142,796.4666871603237,817.2253151768953,772.8543342418396
1731305879.7616048,800.7467157692065,794.5350098405418,812.1751342673783,777.0976942921407
1731305879.7655098,804.8848683712579,795.6142407494098,806.8195383059249,788.7758126848985
1731305879.769415,810.0260782702177,798.3848099820316,800.7807100016115,801.6316786913617
1731305879.7733195,816.707542212895,800.2048754741744,794.3150878288292,810.225858673758
1731305879.7735798,824.8613237481472,798.8806062056749,787.791451264549,812.6327312701848
1731305879.7736926,832.4774185243808,794.1302551313416,781.3962471625597,810.5869299848431
1731305879.775184,836.2054947973287,787.8227538119604,775.1208156968355,807.5758717063213
1731305879.7772243,833.8394575422622,782.8720262174795,768.8777998408087,806.6693914416962
1731305879.7811296,826.8052938344917,781.51750187224,762.6003549381395,809.4351076003751
1731305879.7850344,820.2344382081588,784.1060395419902,756.2719758216319,815.9152504749654
1731305879.7889397,819.7350419641905,789.142823902266,749.9078605165375,824.812413470541
1731305879.789184,826.8426999477418,794.4572792270981,743.5270869758446,833.4243532142026
1731305879.7926047,836.9749219047711,798.4934259075783,737.1382366221636,837.9015711841563
1731305879.7928443,842.3125114214024,800.7449690322474,730.7398033476759,834.777369372313
1731305879.7967494,837.9132831620707,801.2829402912614,724.3267203778438,823.598136957475
1731305879.8006544,826.0969376237708,800.2497058832685,717.8954199724878,808.6678991603725
1731305879.8045592,815.1194480576861,798.0710806085781,711.4450239872085,797.5901137462296
1731305879.804788,812.9130984573216,796.0364804282725,704.9760266125514,796.6269544366131
1731305879.8084643,820.947051956066,796.1058445598966,698.4887128238232,806.0840913298292
1731305879.810092,833.1484037484032,799.43776024733,691.9826686534616,819.5851525091045
1731305879.8115168,840.5487736758074,804.7217405181394,685.4574957052114,828.1096396461558
1731305879.812369,837.7782934700427,808.1757490693064,678.913895003842,825.7290745750723
1731305879.8162742,826.4373312700448,805.8861535894139,672.3537929942853,812.7927904760975
1731305879.8201792,813.2227668682549,796.9343083892595,665.7784606576753,794.7555192937323
1731305879.820392,804.8274887417791,784.6970801261906,659.1851275452809,778.3267668638673
1731305879.824084,803.7394672441754,775.0405738258291,652.565188445448,768.0399903198645
1731305879.827989,807.7436666163876,772.6835673741606,645.9086762293829,765.0557176765658
1731305879.8304288,812.6585161943642,778.4310719759575,639.216700029297,767.9237719206194
1731305879.831894,815.5320801885026,789.1139611912785,632.5142642648441,774.0645099512428
1731305879.835799,815.8860084823759,799.91740628403,625.8453306726115,781.0250118897508
1731305879.8359962,814.7669027118438,807.2227241924246,619.233769911701,787.1554719385794
1731305879.839704,813.1062768178733,810.1250898082558,612.6217415835731,791.6982915215848
1731305879.8436089,810.8974828416194,810.0256356834672,605.8451477523433,794.492543601421
1731305879.8449998,807.5556714388979,809.0343916464049,598.7310272186876,795.6124391979523
1731305879.847514,802.8769793846699,808.4737270414253,591.3370870287572,795.1642258201343
1731305879.849341,797.8094221108837,808.3639862947373,584.1737905011604,793.2660574385827
1731305879.8514187,794.4386771763757,807.910656119244,578.0632552683198,790.1383759975347
1731305879.8516002,794.9257014431795,806.396976966639,573.3590394503371,786.2000611027115
1731305879.8553238,799.8073844969424,803.8340368227928,568.815487487359,782.0054391459365
1731305879.8592286,806.9156881748039,801.0374361822601,561.2924118170672,777.9478849724966
1731305879.8631337,812.2231047626624,799.1610740582639,547.854118688103,774.0108133524875
1731305879.8670387,812.5348314848329,798.9950968859309,530.4540815931432,770.0408036627504
1731305879.8672042,808.0806368771085,800.4867388193509,520.0295998630532,766.5375734599659
1731305879.8682528,802.6702051852824,802.8378291356521,533.9003921330988,765.1395732651428
1731305879.8709435,800.9334669410503,805.1226736445369,583.305219235516,767.9012740684409
1731305879.8748486,804.7210566470709,806.9407144096957,659.206963470434,775.5601750778359
1731305879.8787534,811.5814639447167,808.5837117078578,732.8090339677165,786.2807917072931
1731305879.8799078,816.559422321447,810.6163199573349,775.6312135134037,796.3405056550813
1731305879.8826585,815.9112117224835,813.2535663977284,780.7487843990453,802.6082241921371
1731305879.8828084,809.9430909260094,816.050279359326,762.9204993642246,804.885188286774
1731305879.8865633,802.9476950026074,818.1342116224297,738.5343286812505,805.9992596603971
1731305879.8871648,800.3010133730634,818.7907693645113,708.1979671284852,809.3107267579544
1731305879.8904684,804.7022148043918,817.972955312512,660.6042459101739,815.534755928351
1731305879.8943734,814.1768649500883,816.4051062553258,592.6754184104593,821.5725686658924
1731305879.8982782,823.3973123383723,815.2532694279498,523.6472641145965,822.6232213487343
1731305879.8984125,827.564169109186,815.5974571133015,486.8728723331183,816.2310701785098
1731305879.9021833,826.0252097365067,817.9967989634939,505.78807084714606,805.1065229784879
1731305879.906077,822.7309020072653,822.3081297293666,576.411801214984,796.1164313951286
1731305879.906088,822.9599490399412,827.7306559883652,671.781889665101,795.6899325686744
1731305879.9099932,828.8025975789662,832.9441555551094,761.6725026197934,804.9700835631106
1731305879.913898,837.0866818743402,836.2783377934383,827.7038948015675,818.6530468898186
1731305879.9140165,841.5863218920475,836.0317723339529,863.2160287493354,828.6780220177941
1731305879.914816,837.8505097034941,831.0834887962426,866.6612237750564,829.9362798923916
1731305879.917803,826.7305370261329,821.620882272066,842.7564826904352,823.4926913856237
1731305879.921708,813.6726626265403,809.4207242141958,810.6356152325789,814.9672822606431
1731305879.9249887,804.388937832645,797.2359205042173,802.400447687751,809.7309880773338
1731305879.9256127,800.6363402140541,787.5616797141038,841.4054319182345,808.9538880694109
1731305879.929518,799.7092193102811,781.6759046125618,914.4906523069255,809.5035332705739
1731305879.9296205,797.876117596854,779.6179328534816,968.3185863376501,807.3761872483677
1731305879.9334228,794.4108621232532,780.8716162906334,944.4438635025167,801.5575070399464
1731305879.937328,792.4054953079637,784.9255971596065,830.8200976649639,795.0851364643593
1731305879.9412327,795.6125484846696,791.2055721235224,684.8994331079588,792.5603315352196
1731305879.9439008,804.2702307081192,798.6770082790068,601.2322625160698,796.320495121457
1731305879.9451375,813.8575482572841,805.8038907736837,642.8808918496524,804.4793887709795
1731305879.9452248,818.1931455544402,811.1615268429621,790.5737901812205,812.3176358501942
1731305879.9490428,814.4728312463213,814.2831418614288,953.6626329647185,815.6856289529981
1731305879.949724,805.9973130685399,815.9679109756995,1037.5657911990988,813.6450658369924
1731305879.9529476,800.0940248833182,817.6277708167376,1013.7567668203449,808.5711371392218
1731305879.956853,802.7128939629151,820.0567208745758,933.7103534734897,804.1686655736065
1731305879.9607575,813.9999710147205,822.6076977882025,875.642634409065,803.232802650367
1731305879.9608288,828.320974683,823.5639093278295,873.0332327048156,806.5564123217803
1731305879.962813,838.4728727805285,821.5401593394236,890.935351079583,813.0521628591085
1731305879.9646626,840.5480630630959,816.8275282059357,870.8619299439463,820.4467861137715
1731305879.9685676,835.8302835848611,811.5533894866984,798.79089313572,826.2054205812101
1731305879.9724724,828.861103136237,808.4520476079492,728.0286339147534,828.6715491180137
1731305879.9763775,823.746188217668,809.1356368653064,732.5194748083138,828.0071105783513
1731305879.9764328,821.5775128077534,813.1087032032711,834.090611295543,826.0757906933321
1731305879.9802823,820.4413202188916,818.1791049392576,973.1825173823929,825.0331810432867
1731305879.981725,817.4844754753201,821.9370029474592,1052.7390729917227,825.7105182122626
1731305879.9841874,811.4103249744502,823.2921787392966,1017.9558075090606,827.2541383769482
1731305879.984632,803.8015571493761,823.027367295186,902.2535649583297,828.2178526199857
1731305879.9880922,798.3626042188531,822.961538240771,799.6778331740275,827.8132133369862
1731305879.9919972,798.3376417495889,824.3363962954945,787.8315576001045,826.0906621394513
1731305879.9920373,803.7718699229516,826.7371035952953,867.1977241988881,823.289101843024
1731305879.9959023,810.9038482998409,828.478673665644,966.7933283690458,819.5566952814081
1731305879.9998071,814.6488518919592,828.0605536282119,1007.7165902640176,815.523249071975
1731305880.0006368,812.4581014551802,825.2924062997741,967.461530558476,812.7820053905554
1731305880.0037122,806.3230876360007,821.1628363132872,891.1602294985523,813.1031611486515
1731305880.007617,801.1408996940118,816.9439512009328,845.5328561985439,816.618080957842
1731305880.0076413,800.8536620969871,813.6870923970047,860.5413599345434,820.7347897119741
1731305880.011522,805.62426457161,812.4226696618877,909.422869246762,821.3332265791422
1731305880.0154269,812.1557116516725,814.2400388371228,939.1267830890836,815.7803625627041
1731305880.019332,816.4680589720449,819.5303119432189,918.6406487959375,805.4019610932165
1731305880.01954,816.6692290423265,826.8805794463556,861.6049623954514,795.1944903754111
1731305880.019549,813.740220622864,832.8886833866665,807.4174606396691,790.7361651701923
1731305880.023237,810.1920726535731,833.5830085117562,782.8927147527518,794.5217176874307
1731305880.023245,807.9679148641044,826.7645052452298,780.8204099710268,804.3853191608438
1731305880.0271418,807.2416090569136,813.6788436244499,772.9138232263257,815.0567267338407
1731305880.0310469,806.912325834946,798.7013182807914,741.9693330521525,821.5991013441802
1731305880.0349517,806.2489078990335,787.0122897389123,701.019330482175,822.2421705002087
1731305880.038461,806.1486510467922,781.6944078447209,680.57597740143,818.7794833841317
1731305880.038849,808.6635731436542,782.2092985609474,696.3315737338545,814.6099375167174
1731305880.0388567,814.9398513409208,785.2809176925026,729.5430939250482,812.1198651037186
1731305880.0427616,823.3838009321008,787.4427612049791,740.9677872590753,811.2777938080842
1731305880.0466666,830.0227895551272,787.3059681724768,706.5477056605542,810.1872895102248
1731305880.0505717,831.1893411288086,785.9778573998167,641.0904174108239,806.9383306093022
1731305880.054448,826.4083166151529,785.651327063805,587.446759221415,801.3372286289338
1731305880.0544534,818.9481316280014,787.7691729761584,581.8486477285635,795.2985160755456
1731305880.0544765,813.441768549136,792.1974152138796,627.3451438151922,791.6337118441032
1731305880.057373,812.5106773242695,797.7263645159007,696.5951563635717,792.0946647164145
1731305880.0583816,815.1354802536439,803.1506161643493,756.4525974613686,796.0975152027268
1731305880.0622864,817.9658408133897,807.9998895827392,789.759086217337,801.1033371720168
1731305880.0661914,818.2833643565046,812.5078671536605,798.2572345578002,804.3961775590124
1731305880.0700574,816.0474442906994,816.9851364783261,791.3256699946046,804.899080506856
1731305880.0700965,813.3850328350164,821.107818831033,776.0428536881949,803.6325810989557
1731305880.0740013,812.1806199234234,823.7169386726604,756.9294925252882,802.5176617076911
1731305880.076285,812.1004842301504,823.4254712735955,739.9848096557284,802.5291961998355
1731305880.0779064,810.9779060664366,819.6682519488614,731.2572361347515,802.6590148245017
1731305880.0818112,807.3017475771015,813.3349949709913,728.8336832285521,800.5068564420424
1731305880.0856614,802.496784005134,806.4069087625082,718.053510901377,794.1616469633935
1731305880.0857162,800.6669156678456,800.8985949979516,679.9376222537293,784.0995148614728
1731305880.0893562,805.6347812688166,797.9684308198267,610.1279630693865,773.6230945293087
1731305880.0896213,817.5649301726194,797.7251827012207,531.6871073495906,767.1754965526522
1731305880.093526,831.9749667104688,799.518315013793,485.6141536154759,767.4305291291543
1731305880.095197,842.0637632009954,802.2599770994264,501.7972117585648,773.2957911958819
1731305880.0974307,842.7111056565496,804.7200311776455,574.4438009319687,780.5827923809951
1731305880.1012654,833.366036660136,806.0082411099064,666.3983597837814,785.0377749976753
1731305880.101336,818.0234122134385,806.1000595500101,740.8822378294591,785.3475302888492
1731305880.1052413,802.5721604804787,805.8067275838044,790.9500625688291,783.6235362830632
1731305880.109146,791.4427363008898,805.895405368427,837.2547567524814,783.0202177773145
1731305880.1130507,785.7230235608511,806.0147454939869,896.362764741257,784.6736495220699
1731305880.114109,783.7236284568365,804.5519250568695,952.9812369497288,786.7035750857113
1731305880.1168697,783.1843136328899,799.8096320147584,966.8201704231326,786.0797769874848
1731305880.1169558,783.2030077062446,791.6101617017923,910.1318287189415,781.5505203649983
1731305880.1208608,784.4047237720955,781.9391507787345,800.0771168075267,774.9636394393073
1731305880.1242642,787.5030753128151,774.0280640944537,692.7259782531636,769.872833479518
1731305880.124766,791.8329517317868,770.5452665793853,640.5370130008083,768.7838490865323
1731305880.1286707,795.3761590110344,772.1845321026373,649.8646511931938,771.5186056664357
1731305880.1324737,796.3338357861106,777.5315480114243,677.1292169229703,776.0169177623477
1731305880.1325758,794.8244467488487,784.1514764173273,668.997485750401,780.5957406038527
1731305880.133021,793.1748902190142,790.0855531974141,612.3133347284794,785.411287420513
1731305880.1364806,794.5053596674759,794.7786361726708,549.0622772806616,791.7931423091463
1731305880.1403856,800.6369793219055,798.9195484906049,541.1525838604276,800.2869783705286
1731305880.1442904,810.7155463606992,803.4658467348947,614.6484420552129,809.4949318249214
1731305880.1480775,821.3770935323073,808.6803346226691,733.129623854709,816.9063351583009
1731305880.1481955,828.4072050832357,813.8768345463913,825.2675963381427,820.8204981069324
1731305880.1519332,829.0644641912949,817.9010229553257,843.392053318501,821.435529271208
1731305880.1521006,823.7413916946849,819.8111193422495,801.884685793432,820.2782061094708
1731305880.1560054,815.7975513745198,819.2458883282679,762.4569900185729,818.8827125090439
1731305880.1591723,809.4800601473905,816.3994554900909,780.4459092638084,817.983285984294
1731305880.1599104,807.2969941753518,811.8403149654305,858.9882313562938,817.562080174167
1731305880.1636815,808.7956699090281,806.3653764285942,948.3101243707465,817.305548109735
1731305880.1638153,811.6726170088132,800.882761493734,986.896745560533,816.9742804395146
1731305880.1677203,814.1881916457759,796.2695266928374,947.3229861888282,816.512042609761
1731305880.170845,816.6656739665317,793.2388021284277,850.0934859849159,815.9770166384598
1731305880.1716251,820.6317572492924,792.2466787578544,739.8009494401375,815.4403754000838
1731305880.1755302,826.4060743046584,793.3530864847165,649.8029815655523,814.9344467578524
1731305880.179286,831.6482538978695,795.9811433070108,586.8140482711689,814.4546648648761
1731305880.1794353,832.6923829951095,798.7798141262668,543.2736759225755,813.9834483894989
1731305880.18334,827.780244619278,799.9433360692308,517.7431769112993,813.508592389835
1731305880.1872451,819.153355168371,798.0563125152266,519.478872083661,813.0278130459885
1731305880.189757,811.7545369222922,793.0223122608603,554.9256943846905,812.5445017852752
1731305880.19115,809.457634241873,786.4148086309998,615.3250153621632,812.0623542458362
1731305880.1940804,812.149765114694,780.8894171203829,681.5433695575166,811.5828717046454
1731305880.19489,816.2227084183327,778.8865948179761,740.2801770169452,811.1056583724568
1731305880.195055,817.8913323337092,781.3430309595499,792.6455447946895,810.6297346649135
1731305880.1989598,816.2798371740466,787.2031696859162,846.5947687976823,810.1544665902462
1731305880.202865,813.620254783629,794.0585556688769,904.0811623937362,809.6797494223523
1731305880.20677,812.663695971234,799.4861656414404,958.1321195374588,809.2057560826979
1731305880.2086692,813.912660561641,802.1876459293817,1000.8200214723449,808.7326556435038
1731305880.210494,815.283817187641,802.2720495594925,1029.3606021848798,808.2604948786021
1731305880.2106748,814.4164537752239,800.7507259102916,1041.3115050577953,807.7892239101297
1731305880.2145798,811.3680278315621,798.8431360460925,1025.8202045793855,807.3187677705495
1731305880.2184846,809.1554188768438,797.5949882023871,965.901076371958,806.849072991379
1731305880.2223897,811.5944219372684,797.8008312916844,855.8974353753451,806.3801143541208
1731305880.226098,820.18232475443,799.8698759912833,719.4883583978575,805.9118803071409
1731305880.2262945,832.4252323536573,803.4267778908664,607.3996213604712,805.4443583329116
1731305880.2275813,842.8413401296366,806.9436313591157,569.0226192158348,804.9775294459727
1731305880.2289884,846.0670893540042,808.0310128039728,616.5891807564276,804.5113700630961
1731305880.2301996,840.2054154521164,804.6940273002078,712.2614525812131,804.045855884047
1731305880.2341046,828.2864430329671,796.9420634898704,793.6608847860957,803.5809642226458
1731305880.2380097,816.6370671580048,787.4221072324195,820.5270442140749,803.1166742265955
1731305880.2417023,810.8952766924193,780.1714348852895,803.0912400744417,802.6529660642843
1731305880.2419145,812.2995432774665,778.1256406823599,786.1971308752936,802.1898201878658
1731305880.245819,817.0979701877304,781.298895984116,804.1496950513084,801.727217102146
1731305880.246493,819.7671147236463,787.1448520289129,850.0425228747221,801.2651375081422
1731305880.2497244,817.6304926514885,792.7264245575844,888.6855705853229,800.8035625308636
1731305880.2536294,813.0982486724964,796.7835601194641,897.8544425846172,800.3424738534885
1731305880.2573063,811.5941748183528,800.0610583674476,894.0578407933571,799.881853739435
1731305880.2575345,816.9012727598735,803.9407064687334,915.1677014145574,799.4216850042668
1731305880.261439,827.8941245883958,808.8182705147136,976.002548363648,798.9619509963684
1731305880.2638965,839.3678283342787,813.5984518876253,1041.2067025939555,798.5026356082379
1731305880.265344,846.0899074301783,816.4883229455111,1046.0412999837704,798.0437233099065
1731305880.2654052,846.5572990458684,816.2010823490676,952.4673532110271,797.5851991843186
1731305880.2692492,843.4416250248455,812.594743623746,793.1669043883824,797.127048946378
1731305880.2729104,840.6481966588499,806.4759981642185,661.0335465147272,796.6692589379343
1731305880.273154,839.687469116524,799.0039566446336,645.1053096424785,796.2118161104431
1731305880.2770593,838.4914035077119,791.2757705055542,761.5459845539741,795.7547080307052
1731305880.280964,833.6812914661302,784.3064101330099,937.8880686654566,795.2979229519866
1731305880.2843173,824.3199884268115,779.1343565712076,1067.1426383902306,794.8414499518587
1731305880.284869,813.7797117648489,776.6205727301449,1088.6561804252726,794.3852790429372
1731305880.2885144,807.813955177033,776.8558920039982,1028.5404118084632,793.9294010773569
1731305880.288774,810.1569263815982,778.695567110759,967.7843385917453,793.4738073264208
1731305880.2926788,819.2441551315405,780.1439396038588,969.2076242262523,793.0184889292196
1731305880.296584,828.9169511824091,779.6773550155076,1027.765713747464,792.5634368486658
1731305880.2988043,832.7762911070979,777.5630755771712,1083.8215342898945,792.1086430797972
1731305880.3004887,828.8458347650303,775.8923763031922,1081.4649342571845,791.6541030200796
1731305880.303229,820.8648927678829,776.9813305788444,1016.7150414693117,791.1998170996376
1731305880.3041186,815.1386991276273,781.2981776771346,934.2619809979288,790.7457883189883
1731305880.3043938,815.3929549121466,786.7252677698513,880.2196966687732,790.2920138407043
1731305880.3082988,819.7645819450944,790.0009179819173,857.5423998492086,789.8384749628998
1731305880.3122036,822.4684365635432,789.3363063336155,826.5800677881554,789.3851378922083
1731305880.3161087,818.8817437409564,786.0909109237347,750.0580049953827,788.9319785034351
1731305880.319723,809.827788563975,784.0641101320307,638.4895295311408,788.4790268930916
1731305880.3200135,801.3513597897474,786.8726749633128,549.797032520182,788.02639319379
1731305880.3221412,800.0185963703323,795.3878166990133,540.2723689672077,787.5742122377846
1731305880.3239186,807.5982858090582,807.0926572834726,612.2135889860524,787.1224798306899
1731305880.3278234,819.5720302313406,817.7143273479509,708.3195665909143,786.6708748239398
1731305880.3317285,828.7280855475815,823.8527248303166,758.5580644228575,786.2188067585162
1731305880.3337126,830.8215826743872,824.7670908607018,736.1654313792661,785.7659190029384
1731305880.335327,827.5791966064456,822.2770024480369,673.7311873141416,785.3129201564199
1731305880.3356335,824.6510962001311,819.1535330577806,630.1300431090133,784.8619705161022
1731305880.3395383,826.4462727272798,817.2990139400926,642.1439203801982,784.415471536364
1731305880.3410532,832.3685214094029,816.8588724506612,701.3756774088044,783.9728995356945
1731305880.3434434,837.6050374563663,816.5425839863514,768.4267290625987,783.527692189838
1731305880.3473482,837.5830382101949,814.6680761375288,804.8311082414689,783.0687843480326
1731305880.3509307,832.0689166618097,810.2387559180346,795.665010141504,782.5907295350603
1731305880.3512533,825.3362249054356,803.5596596955567,750.935762957461,782.1090875182972
1731305880.355158,822.3675947205093,796.1665123548345,692.6131406024057,781.6657094971147
1731305880.3590631,824.5084024162827,790.1032295675905,641.1812905174862,781.3028822766761
1731305880.359965,828.373170954419,786.9117270041374,609.6937446915979,781.002748594819
1731305880.3629682,828.8989256625813,786.9436275016993,603.3680230362543,780.63443747478
1731305880.3665347,823.8525298176901,789.4431379344443,618.6519657148181,779.9973176098658
1731305880.366873,815.9177448534571,793.2710735072783,640.6391364316643,779.0290962356315
1731305880.3686206,810.6235051300025,797.6337598476318,645.1265448668703,778.1075044331876
1731305880.370778,811.8804610643973,802.2554736903018,610.9015907670841,778.1698559247635
1731305880.374683,818.773357275905,807.0134800349091,536.7763969283598,780.3541320093269
1731305880.378588,826.0926349019404,811.5413144252694,448.12243208531993,785.2785869541741
1731305880.3788774,828.082551536348,815.2368327110931,383.185643827312,792.6052876261343
1731305880.382139,822.5328579409296,817.6290447984322,368.2983398913441,801.3446470887415
1731305880.3824928,812.2669581283878,818.6799374136924,403.6774148335471,810.4516184529239
1731305880.3863978,803.053200267192,818.6623307287465,471.92867256595997,818.8959130884934
1731305880.390303,799.4985300077569,817.673083085497,557.9307975218583,825.19705469118
1731305880.3942077,801.8959216735803,815.2533225018644,657.054362482417,827.3197570684245
1731305880.397743,806.3076042630614,810.623040811661,762.9199850065942,823.6240691538461
1731305880.3977892,807.7689987718193,803.555719849758,851.40171317901,814.4819187623082
1731305880.3981128,804.1332480379024,795.2246917260335,885.5828333036748,803.3024463179034
1731305880.4020176,797.6039670906918,788.1131895434671,845.5491980315654,795.7846306326664
1731305880.4035287,792.8346566714018,784.7272019123635,756.937310708337,797.2442013966977
1731305880.405923,793.1691140989749,785.9616134543663,684.9894350232469,809.3123027420518
1731305880.4098277,798.0280758795919,790.4740792932957,688.5505381273023,828.2152109061217
1731305880.4133472,803.4869872953604,795.6612618228421,768.5528692375389,846.2465196611125
1731305880.4137323,805.5215616588802,799.4110561312683,859.132440181555,855.9409423790853
1731305880.4167013,803.303257286089,801.1608207625449,877.6893246231141,854.327822540304
1731305880.4176376,799.9706772262765,801.6176404793956,796.4204998368847,844.3582912950768
1731305880.4215424,800.3494433832116,801.7785769865586,671.8307407241625,832.6032280133967
1731305880.4254477,807.3995421264133,802.2197818988105,600.6836394572598,825.0242536600583
1731305880.4289513,819.952656408135,803.0016766664103,637.191793098795,823.8246613082705
1731305880.4293523,833.198105236924,803.9334522238165,745.2874965076523,827.2472807072522
1731305880.433257,841.4826707441558,804.8382109086396,830.693298008059,831.8183272304625
1731305880.4356134,841.6620986403078,805.6564424189379,824.6929747592304,834.880367664539
1731305880.4371624,835.0466336644912,806.4165683266696,743.8665105334544,835.4814286865338
1731305880.4384367,826.757875812918,807.1671480329527,672.6671888761105,833.4339025993963
1731305880.4410672,822.7178347460842,807.9350938081608,686.1543691014875,828.0966527999065
1731305880.4445553,826.0045602314443,808.7212153727771,782.8327241648146,818.5843078658446
1731305880.4449725,834.9774463590048,809.5146070447454,886.3254021498736,805.4107948541334
1731305880.448877,844.5525255457252,810.3061487092082,912.2893814737824,791.6687072726847
1731305880.4527822,849.7122530329436,811.0931913997905,840.0970276413983,781.9246230315978
1731305880.4545257,848.6020792199107,811.8775264406469,726.816091072727,779.3204359715301
1731305880.456687,843.0326889856718,812.6617367120057,653.9132351433575,783.473277722843
1731305880.4601593,836.4850571623151,813.4471325573209,656.5834659059905,791.13414754882
1731305880.460592,831.6221928273875,814.2336590056038,698.622791645994,798.7588903296215
1731305880.464497,829.1659275044857,815.0207088192344,712.0593654865615,804.3717837296862
1731305880.468402,828.3771823572124,815.8078167665227,661.7420770564795,807.3414043833536
1731305880.472307,828.151001480173,816.5948676060485,575.3972482614649,807.2472080314034
1731305880.4733448,827.7748057630095,817.3819626577546,515.662386847237,803.7195099156144
1731305880.4734373,827.077212322636,818.169221764435,525.0084044885872,797.3493903600433
1731305880.4757636,826.198452148383,818.9566845975472,594.6884909359336,790.0477702029789
1731305880.4762118,825.3158899463682,819.7443255280191,680.1750857748218,783.8945950197685
1731305880.4801168,824.5089895007739,820.5321174056392,741.7023250570055,779.6335982239183
1731305880.4840217,823.764442113004,821.3200727090925,771.6498304471197,776.6440013969932
1731305880.4879267,823.0369877406739,822.1082203204694,789.5619532013961,774.4136453814577
1731305880.4913676,822.295732905795,822.8965238117719,816.0957362210996,773.5250362965942
1731305880.4918318,821.5351514090191,823.6848081039842,851.6560113332603,774.7000531097437
1731305880.4923494,820.7639850373499,824.4728081846979,876.6839828868578,777.0788188124999
1731305880.4957366,819.9915654317083,825.2604167364218,870.3239276117358,778.2914186415704
1731305880.4996417,819.2215692670658,826.0480248720015,829.5245815907217,776.9861108170982
1731305880.5035465,818.4528687946145,826.8365825285863,772.0621682489345,775.3311403016457
1731305880.5069716,817.6828999167186,827.6269217427217,722.3124128562963,778.3628685906702
1731305880.5074515,816.910007346246,828.4183518331656,693.8832791239652,789.9307739511463
1731305880.5082529,816.1338846993854,829.2076041214569,684.15520374198,808.5392746690555
1731305880.5112617,815.3549216371568,829.9901236823124,682.3849116069977,827.0358247255169
1731305880.5113564,814.573490908676,830.7649430090959,680.3656397460004,837.0828705532787
1731305880.5152614,813.789656317267,831.5408037662917,675.8362867867581,835.2266826896077
1731305880.5191665,813.0032424530788,832.3362826212331,669.9815872622333,825.678983075608
1731305880.5225756,812.2140103948364,833.165783015756,666.2739314767412,817.2878204598575
1731305880.5230713,811.4217618756215,834.0130022162783,671.8956796446877,816.8773513345045
1731305880.5269763,810.626347864807,834.8138137817581,695.3687506429816,824.2825489075718
1731305880.5301735,809.8276482212158,835.4858887306657,737.6110281072591,833.1302723610089
1731305880.5308812,809.0255839163076,836.0238409459967,784.9311437098905,836.6036608897444
1731305880.5347862,808.2201554037304,836.6080280936995,814.932263408244,833.2094121237586
1731305880.53818,807.4114302428877,837.585492810883,813.2602248335521,827.7172225613922
1731305880.538691,806.5993994903051,839.176627431482,785.3717162821287,826.8102536207875
1731305880.542596,805.7837364970768,840.9562635522585,751.3027586901866,833.5204639383502
1731305880.543161,804.9636919003436,841.5215867668796,729.3617047993681,845.1080308621188
1731305880.5465012,804.1384687844583,838.9460881371452,724.882180631809,855.5056286334635
1731305880.5490856,803.3081728180174,832.1324837009137,731.8438769315746,859.5257350065654
1731305880.550406,802.4747169438662,822.1393463421346,741.4807841905442,855.3333216569405
1731305880.553784,801.6413023049262,812.1064694270325,748.670972630145,844.1347361989694
1731305880.554311,800.8093398792233,805.4205842805436,752.847024236032,828.5625996731617
1731305880.558216,799.973893014349,803.4033063058292,755.6848688336817,811.4994976881253
1731305880.562121,799.1223048723277,804.3739106447142,758.7552596338419,795.6676558979209
1731305880.566026,798.2422320679435,804.8723261178872,762.5951798907927,783.3257777588404
1731305880.5679977,797.3398854704717,802.0929576034349,766.9595634831493,775.7503362503428
1731305880.569388,796.455506603702,795.6408167783172,771.4197368676455,772.8721038346675
1731305880.5699308,795.6499295542794,787.3533417010552,775.7358841486205,773.4164729125797
1731305880.5738358,794.9434534013878,779.5801129191233,779.8993022301023,775.4009353200187
1731305880.577741,794.2327664827653,773.5111328024185,784.0062068115537,776.729574197052
1731305880.578069,793.2780118410226,768.8653729291378,788.137947603357,775.9165516842735
1731305880.5816455,791.8731877513495,764.893297693874,792.3188121665578,772.9243863143301
1731305880.584992,790.199515188333,761.5517073483754,796.5335420370504,769.5520773230387
1731305880.5855503,789.1035373676568,759.7759920633217,800.7595696825018,768.6227214399038
1731305880.5869095,789.8350301639072,760.7113073264152,804.9854384073757,772.0828745351139
1731305880.5894556,793.0297200436057,764.6211862227268,809.2117688889801,779.3534935132147
1731305880.593361,797.6012599183739,770.3530223821871,813.4441133566926,787.423347456183
1731305880.5972655,800.8790064246084,775.7766868075714,817.686786977117,792.7948399668813
1731305880.6005962,800.4857611063214,778.9362681750514,821.9409869811158,793.7298647403305
1731305880.6011703,796.5167841436676,779.1532339992788,826.2059567582537,790.9920087683383
1731305880.6050754,791.8610008135583,777.297572263817,830.4807501998281,786.715108202612
1731305880.6058216,790.0940872937775,775.0207260154057,834.7651243952815,782.6797513402762
1731305880.6089804,792.6411164365975,773.5725347311367,839.0594049431079,779.5424936720583
1731305880.6128852,797.6098576626395,773.1673185546023,843.3638791908415,777.367924001087
1731305880.612977,801.3026693766965,773.314722520436,847.678371741379,776.5230754969882
1731305880.6162002,801.2390037302891,773.598162691015,852.0024414346456,777.8419736145024
1731305880.6167903,798.3217992505419,774.0416335864005,856.3362286315654,781.9081640215873
1731305880.6206954,796.4007433153488,774.7937176598441,860.6813541079457,788.2831955004107
1731305880.6246002,799.433644582826,775.671589699403,865.0406652345868,795.575801449032
1731305880.6247337,808.3202516968165,776.2163212718181,869.4157952640994,802.3814612335905
1731305880.6285052,819.8497174543231,776.2291727581795,873.803269552058,808.2228858750304
1731305880.6318042,828.6631586882596,776.1171712772334,878.1929072159297,813.6369646259121
1731305880.63241,830.8083955279092,776.5345839374319,882.5738620340584,819.4622656636257
1731305880.636315,826.2231366267247,777.5901495189062,886.949628093696,826.1425251345788
1731305880.64022,818.3661837771897,778.430103566743,891.3520778370619,833.6048339907651
1731305880.6436455,811.4965836063784,777.7312898356323,895.8328446413054,841.4003483384038
1731305880.644125,807.8827757270413,774.8288680573947,900.4145303312094,848.5275468058076
1731305880.6474082,807.0675339002579,770.6046550359584,905.0193764952678,853.1209160582871
1731305880.6478848,807.4484063563295,767.357597107592,909.4491911268036,852.9178838057919
1731305880.64803,808.4982524266019,767.5848024037201,913.5136887690171,846.8528293233044
1731305880.6519349,811.5519397588757,772.426368716876,917.3175110852608,836.6175871370143
1731305880.65584,818.4641334259817,780.8606738026142,921.499058539458,826.4137834048875
1731305880.6597447,829.3549099856832,790.2415567364234,927.0096390592246,820.5129188494242
1731305880.6625576,841.480282221374,797.7679208880076,934.1430224989329,820.4064905657413
1731305880.6630125,850.3590135221107,801.8301179206507,941.2281488012385,823.9508362053983
1731305880.6636498,852.4717739359467,802.4561783099574,944.4274152662219,827.2435923146768
1731305880.6675546,847.5959407368279,800.903298238467,940.3660952855139,827.6263524792894
1731305880.6714597,839.0575819582015,798.9249046758715,931.349696810664,825.3468563427703
1731305880.6753647,831.6396587047533,798.0718220001851,928.610094093317,822.6724481238721
1731305880.6786163,828.5247190994021,799.0706605254555,946.5391311766032,821.442558517999
1731305880.6792696,829.3454250077574,801.3897953236361,986.9115195673751,821.3351620537413
1731305880.6814697,830.680389769933,803.3652126343499,1025.495846107114,820.4124778186881
1731305880.682793,828.6342475337602,803.1231218814264,1019.5187177469977,817.3440584613552
1731305880.6831746,821.643187790206,799.8770940144146,939.6537948800097,812.9933574908832
1731305880.6870794,811.4686568709741,794.6301279226276,803.1415500498703,809.5590386590212
1731305880.6909845,801.7206135549702,789.6024385156853,673.6542692998481,807.982719768105
1731305880.6942203,795.1962705000063,786.7497821411686,617.5649063944686,806.4330666419778
1731305880.6948895,792.2325525483437,786.5770155090785,648.9206938718542,801.8818936458275
1731305880.6987944,791.2986840916941,788.2129971467319,714.2823036224173,793.5190124107086
1731305880.7003818,791.0049364442854,790.5621807364696,737.8618114176834,784.4488853275672
1731305880.7026994,791.4506763604231,793.3708423902777,690.610071622962,779.5727484369145
1731305880.7066042,793.5926514583169,797.1787365888345,619.500857606281,781.4483638510028
1731305880.7098248,797.3819520926079,802.2514895705041,606.6677782666125,788.0373202793702
1731305880.7105093,800.7581303540828,807.6327409181657,693.5460909675623,794.3624750269232
1731305880.714414,800.8234947411213,811.3878951326757,839.5216231229573,796.3797373918401
1731305880.717701,796.3522044294436,811.951318749442,953.515230847473,793.6454786437067
1731305880.7183192,789.3222779620716,809.3525330658296,969.8937603533042,788.9109078861061
1731305880.7192936,783.8357309967093,805.1398507108986,900.4134204344409,785.571386085715
1731305880.7222242,783.0624840266959,801.05326412103,817.0924459003786,785.3193665631273
1731305880.7254288,786.7155165567012,797.7185024778033,783.6831034342166,787.6426498657488
1731305880.7261293,791.3256767625987,794.6070662525644,798.6307904793855,791.0671760300319
1731305880.730034,793.266399602662,791.2331108938882,800.8789663225449,794.7378093493123
1731305880.7339387,791.997271190168,788.3075205337799,732.7552556545947,798.8765958196233
1731305880.737844,790.6475026366397,787.6025468786844,602.2126449943223,803.7839524031288
1731305880.7382057,793.3443663899366,790.5512838408417,486.39000955480543,808.466682375711
1731305880.7410328,801.5766828486404,796.8336766364778,470.6306708755717,810.4284872697992
1731305880.7417488,812.6815802981001,804.2207857784715,575.1434607430812,807.0909710255779
1731305880.745654,821.6146424697534,809.8447530327059,733.2504747382111,797.7020825157219
1731305880.7495587,824.4480234559652,811.9165141623914,840.4290758290856,784.1256326284293
1731305880.752609,820.9097541552409,810.663595784174,832.6670113747759,770.038293834199
1731305880.7534635,814.3036600629755,807.944097058333,729.7581449666552,759.3762250090361
1731305880.7566369,809.089914380264,805.9465005063872,612.0433109583237,754.9324726563735
1731305880.7571175,807.8151601546294,805.9144078523944,555.381412883957,757.2524050071771
1731305880.7573688,809.3875594835923,807.678769454326,579.1676426691755,763.9131740091746
1731305880.7612736,809.9321203446967,810.139887366597,644.7862730840377,770.0124746849489
1731305880.765179,805.8523285889233,812.1836698759075,697.6668604428442,770.598464585541
1731305880.7690835,797.0005804165478,813.3109331117478,713.2133954596308,764.0281265539721
1731305880.772241,787.4041919072105,813.6496835785211,708.9368083034875,753.5774447922013
1731305880.7729886,782.6543577017069,813.6194165698416,717.1190438831686,745.4070900479951
1731305880.7760298,785.7961432987892,813.713315719987,746.9448473402895,744.0353146851104
1731305880.7768936,794.9724962434082,814.5080591892902,773.0011127520078,748.9091252177835
1731305880.7807984,804.7527445949202,816.6034590976735,761.0025195623609,754.9921430736075
1731305880.7847035,810.0802421471121,820.2536458233726,705.0376053599376,756.9729175208287
1731305880.7875173,809.6944831291197,824.8858563501028,638.6545453775854,753.6517822875285
1731305880.7878451,806.4460083935659,828.9942152832045,607.4002948829467,748.9057612728219
1731305880.7886083,804.5361379973508,830.7229638677834,628.6309442635717,748.4575779076674
1731305880.7925134,806.1413198224293,828.9431882151789,677.2911657943005,755.1161667573856
1731305880.7949417,810.1900026579834,824.1549662757745,710.6446131219757,766.4029002213995
1731305880.7964182,814.1028845047713,818.4889087066364,706.4492008703069,776.5237588273114
1731305880.8003232,816.7326312710111,814.6060297115158,676.9446531844835,781.0548729645329
1731305880.8034492,819.6925154427215,814.1346464675378,647.5455968053896,780.4100045643415
1731305880.8042283,825.6961072440761,816.7608421579168,626.2371755361642,779.1348590136216
1731305880.8081331,835.2977535661707,820.6694900277481,597.8285645281934,781.6137158680316
1731305880.8120382,845.0917385146868,823.9605037710285,548.1529267298312,787.8918605846575
1731305880.8138535,849.391108079279,825.8766660927099,489.49339840342907,793.2720447566127
1731305880.815943,844.4403970796969,826.9034975064774,457.1178918466665,792.1224003375634
1731305880.8190532,831.8576675050364,827.8041556204971,478.4207361516491,782.7134591666437
1731305880.819848,818.3109494861981,828.5043236201237,545.6296397842596,768.9895628978309
1731305880.8224251,811.2594706644575,827.7690871248109,619.4235649223501,757.7390983492372
1731305880.8237529,813.7404018043019,823.937506124105,659.6883295651817,753.5001539529798
1731305880.827658,822.145972879763,816.206170789217,654.0504653812495,755.4598869124726
1731305880.831563,828.8140945825444,805.5785111508658,619.5548531611879,758.8999147635756
1731305880.8327658,827.5885274770042,794.7759330462134,580.9044388179497,759.8099626949113
1731305880.8346574,818.2098501669791,787.0252630950365,550.7032782752841,758.5725780028926
1731305880.8354678,806.3619718164285,784.3739836018972,531.2498909373728,759.5545530863469
1731305880.8393729,799.5798250619825,786.5725197454366,530.7208507314153,767.1272855112447
1731305880.8432777,802.2119049946903,791.2565386270815,568.4843712469942,781.6593101725989
1731305880.8471828,812.9659055179612,795.3096476479335,656.4456729909591,798.7744080140658
1731305880.8502614,826.3408498194151,796.5265912834035,774.361186042387,812.2302605989128
1731305880.8510878,836.4671662613466,794.6060494846831,871.2552245022079,817.9607253609432
1731305880.851678,840.5444573645829,791.0449890138777,901.7426989240228,816.3161379413019
1731305880.8549926,839.761559697103,788.1542537446519,866.9211009588031,811.232205282494
1731305880.8573332,837.4882678267463,787.7607066381968,818.003642733952,807.3138684724564
1731305880.8588977,836.338630511181,790.2157647352191,813.5009887705703,807.0557153070882
1731305880.8628025,836.3599407705881,794.2192808042595,866.6274551581178,810.0213993276814
1731305880.8658657,835.659734909581,797.6359590846945,932.1306522019727,814.1982416608081
1731305880.8667076,832.777985686579,798.8966573617839,946.8024125404729,818.109572600152
1731305880.8705895,828.5499957018087,798.0638832116938,887.9084080920213,821.8702218719907
1731305880.8706124,825.5738598323069,796.7222269700102,795.8034785141105,826.536948475284
1731305880.8745174,825.6358797375806,796.6732785110177,738.5302298652913,832.73009747963
1731305880.8784225,827.5832352140194,798.4175051278793,749.2594748071535,839.9908874318527
1731305880.8814695,827.979343430115,800.7162604708707,793.8763204329881,847.3069938864998
1731305880.8823273,824.3356146403495,801.7284798491061,800.5106624681308,853.9643203800636
1731305880.8862324,818.1012798973507,800.8467867234247,726.6045200592919,859.7637504754957
1731305880.8895018,814.4417525249975,799.5932144674046,603.0041942142233,864.5673896963305
1731305880.8901372,818.4492031986922,800.5858644897536,513.323956133688,867.8549386418676
1731305880.8922412,830.6280232505198,805.2451801650385,525.1591898714696,868.7721480135248
1731305880.8940425,845.5280164693224,812.1472947976631,634.0932797538505,866.5545741413729
1731305880.8970735,855.1629733145976,817.5630755870892,769.9314835437896,860.9757275702577
1731305880.8979473,854.8935120246485,817.9568502368857,857.6466709934132,852.6312486674586
1731305880.901852,847.0348004146996,812.5653012058096,876.6842530112121,842.9794197602541
1731305880.9057572,838.9960280612371,804.0822411092637,866.8964251971762,833.9969858764426
1731305880.908414,837.349944617751,796.9931506595788,881.1397153749182,827.4169428730976
1731305880.909662,842.8433609448216,794.8768278098204,932.7337549159283,823.9296068104693
1731305880.9126778,850.5059110463357,798.5638836430975,985.9865274218159,822.9951851925566
1731305880.9135673,854.4008953708051,806.1560902800629,993.8882093887366,823.5182845169052
1731305880.917472,852.5662341896274,814.5193286772478,943.6638686610161,824.7969149458187
1731305880.9213767,847.962062470616,821.0632234353467,867.6096068108154,826.7877342783443
1731305880.9252818,845.1618345196058,824.7692133508513,812.2296123356203,829.3898952963967
1731305880.9271493,846.1876485839476,826.1398875329987,797.3662227909816,831.5700760085423
1731305880.927326,849.1318187337004,826.4102456739234,803.8321329832587,831.5183858613843
1731305880.9282818,850.3523475847963,826.618105567758,799.0604575488874,828.0984720904395
1731305880.9291868,847.9685434049142,826.9997598821326,773.8531614259326,822.430507826947
1731305880.933092,843.5984796632149,826.915382559582,753.7807555557761,817.9444456812255
1731305880.9369967,840.985921705254,825.2907400431186,774.723717733019,818.3322477031788
1731305880.9409018,842.7146772752984,821.3533896923035,847.3740116019815,824.6804501281046
1731305880.9438858,847.669870667865,815.2325656367755,944.9029971690295,834.0128990260306
1731305880.9448066,851.3452569891999,807.9959342265123,1023.5526856970117,840.5930898091981
1731305880.9462378,848.9791873802633,801.0854139794525,1054.8695163594507,839.333440454581
1731305880.9487116,839.2946075379607,795.6185704628658,1041.6268070082147,829.128304245426
1731305880.9526165,825.9267759824598,792.1079218280287,1008.8982614433646,813.9180128645293
1731305880.9565215,815.1713399958758,790.6812375898887,983.3818616737461,800.695002605516
1731305880.95949,811.5511543647401,791.3629646394245,978.376452107614,795.5640101653015
1731305880.9604266,814.6219442863168,793.9783723615398,991.139238291735,800.2230911519138
1731305880.9620574,819.5926929394649,797.7599612557214,1008.473221801902,811.0364233980806
1731305880.9643314,821.2244019099353,801.1962882517499,1014.2897246247849,821.2860757518739
1731305880.96515,817.745504040126,802.5479814255468,996.5327571174023,825.1994631002974
1731305880.9682364,811.60812648125,800.8321557535143,952.8609424193689,821.213608222481
1731305880.9721413,806.7264187834556,796.5356954535793,892.863838210852,812.3992477518119
1731305880.975094,804.8689216991567,791.4072772199463,833.8780337826178,803.8345802070805
1731305880.9760463,804.4445957513666,787.376979645086,791.4696509215132,798.8747916123881
1731305880.9799511,802.5894393334352,785.3803708366754,771.1275048080527,797.1550298487274
1731305880.9838562,798.4153245751504,784.9866205015787,767.5205369420315,795.8660239396688
1731305880.984062,794.3092069445227,785.0964897912302,770.7726047969591,793.1164524357151
1731305880.9877613,794.0584247464076,785.0752725793146,773.3981772305174,790.2906304398173
1731305880.990698,799.4712777331879,785.3012455720916,772.9094409784449,791.1008139570234
1731305880.991666,808.4427505543459,786.6451642063494,770.2913035932462,798.0601462652014
1731305880.9955711,816.1219169028675,789.4085903293318,767.3311450023995,809.6413881844123
1731305880.9969654,818.2826831957657,792.7765193295887,765.0200854013225,820.9110252754798
1731305880.999476,814.3222634868491,795.3519363067394,763.3797266893181,827.2140066847079
1731305881.002974,807.6670803346865,796.3095488027687,761.9987926152878,827.5809534352292
1731305881.003381,803.300636212322,796.1259117774307,760.5359948802269,824.810812752474
1731305881.006302,804.1996779446175,796.2281854947496,758.8930068735982,822.3902303502747
1731305881.007286,809.2605914803934,797.8554321527727,757.1371825470399,821.363873738064
1731305881.011191,814.2547738900035,801.0927309632866,755.3648742447274,820.0887472742239
1731305881.015096,815.1454567421703,804.8812257990415,753.6245820663593,816.8000848379526
1731305881.0190008,811.306796972069,807.9928405471007,751.9138262105589,812.1702611240166
1731305881.021886,806.1809643682577,810.1587264929393,750.209657497576,809.2198355514824
1731305881.0219064,804.7544487333017,812.3799196864111,748.4945613121562,810.6729708371449
1731305881.0229058,809.613667982025,816.0507647681759,746.7641957218383,816.3241139765232
1731305881.0268106,818.5426208064498,821.4714017536816,745.0224865735058,822.8796498298626
1731305881.0307157,825.7028730449423,826.9429591536075,743.2743532626374,826.3678091995888
1731305881.0318737,825.8426576394778,829.3977603964884,741.5219615158358,824.9320480311616
1731305881.0346208,818.4871138300416,826.4256898052951,739.7648337909081,819.691893484175
1731305881.0375104,808.7088436849199,818.3459760084733,738.0015490324087,813.2887546558238
1731305881.0385256,803.5034303487881,808.672700494429,736.2310637458514,807.7494459145252
1731305881.040798,806.3311818499078,802.3581903188666,734.4530450897516,803.5260235152392
1731305881.0424306,814.1531219625307,802.8555340763979,732.6675714131842,800.0733273062832
1731305881.0463357,819.5864096573262,809.9877733230046,730.874748248154,796.8625009303006
1731305881.0502405,816.7407671680926,820.0611832531812,729.0745281277684,793.7383330567992
1731305881.0531144,806.1308158831978,828.0593078503833,727.2667308152377,790.6510358093052
1731305881.054145,794.572152825843,830.372447762604,725.4511372400033,787.5294611975326
1731305881.0580504,789.9565349675931,826.3615322244102,723.627556610636,784.622320051368
1731305881.05971,795.0114309399037,818.0783272333163,721.7958402468519,782.7426182584657
1731305881.0619557,805.0278452060286,808.7234806500957,719.9558640641228,782.7261284714116
1731305881.0658605,811.3649300000311,800.9820440511701,718.1075087597668,784.3023011176692
1731305881.0667815,807.9851765593933,796.0601642960703,716.2506516454093,785.4975657803963
1731305881.068719,795.9979144817165,793.5979703558457,714.385168795506,783.5184067503216
1731305881.069765,782.8332055828826,792.2303626162764,712.5109403429564,776.7405832795807
1731305881.07367,776.8053650659479,790.4960657819782,710.6278536897356,766.1873871173401
1731305881.0775752,781.2712834414217,787.7731891207452,708.7358036825666,755.1002890221627
1731305881.078622,792.7602751423927,784.8046642637933,706.834691651818,746.8945035636318
1731305881.08148,804.2241591348175,783.4026206700796,704.9244256052282,743.2932381649005
1731305881.0843227,810.4788434169645,785.3553898631804,703.0049223069327,744.1122487681663
1731305881.085385,811.3411058726047,791.2108568012819,701.0761094591144,748.356478983021
1731305881.08929,810.2311099846099,799.8484694258802,699.1379243357114,755.0448259166892
1731305881.093195,810.0722182290114,809.1872395044143,697.1903063579616,762.8800084339201
1731305881.0971,810.5132699840808,817.4279621474083,695.2331869511167,769.610113947079
1731305881.0975342,808.9363978537338,823.8133700946248,693.2664883346855,772.594738065261
1731305881.0999267,804.0216019736639,828.4366307732738,691.2901451385758,770.8463682572466
1731305881.1010048,798.2883732655349,831.5510984160994,689.3041478131261,766.9232494321948
1731305881.1016896,797.0243991496222,833.1733919266948,687.308573695976,766.4712595216802
1731305881.10491,804.2485787018693,833.2630254291672,685.3035442715627,774.7599297403601
1731305881.1088147,818.9790943895074,832.0740214482572,683.2890729356895,792.2045287962145
1731305881.1127198,834.9942654166214,830.1786195404723,681.2648794002563,812.451469382072
1731305881.1155307,844.6239512089562,828.148601182765,679.2303963319089,825.3901726248849
