timestamps,eeg_1,eeg_2,eeg_3,eeg_4
1731653283.6433904,756.1765195944089,804.2784794797379,808.1087358187775,701.0629229582088
1731653283.6530323,708.6304142144382,802.7097174013246,807.7975088825522,632.0279526290268
1731653283.6569357,666.9803890277235,801.6890249736706,808.0784144707427,575.1454693260139
1731653283.6590002,641.6220831460637,801.714862146334,809.6205563028303,545.0522130430545
1731653283.6608388,641.591505829393,803.0362324489995,812.9334695464519,550.8553825695442
1731653283.6647422,662.8477937170692,805.3862872451618,817.8927771967282,583.7426327763706
1731653283.6686456,685.9691333199012,807.9136796514402,823.4898278279874,617.2377979803016
1731653283.672549,690.3475166696088,809.4718266454919,828.2017069953135,626.0355339111574
1731653283.67461,672.6969768412514,809.136517265378,830.8558045912794,607.3130290453316
1731653283.6764522,650.2413682519979,806.6597417476677,831.3622167417324,582.3023132440411
1731653283.6803555,643.9413203716232,802.6539788457463,830.7158862534133,575.4070129772381
1731653283.6842587,658.7648751951089,798.4576533465425,830.2417536767439,592.2581996351196
1731653283.6881623,681.5130064169178,795.6989048514255,830.6692101982419,619.038877831236
1731653283.6902196,697.3925784508447,795.628447598994,831.7421486529316,641.5978585065216
1731653283.6920657,705.8838820207411,798.4486429883448,832.6065354076889,661.1813479473253
1731653283.6959689,717.8360716159566,803.0299985729959,832.5789906207353,688.464266864852
1731653283.6998725,737.7379030334971,807.3441924070628,831.6305503917444,723.3480807908626
1731653283.7037754,752.9240151216804,809.5437679142572,830.2225325442084,745.5983022649568
1731653283.7058294,744.5324184962628,809.0798705967976,828.7110846594509,730.6188978744602
1731653283.7076788,710.2359553286894,807.0313466001683,826.8974432414458,676.4944226750465
1731653283.7115822,673.4316191642757,805.2780284486483,824.1689557677246,613.3960405764844
1731653283.7137496,665.6274527616338,805.0648695036302,820.1635154879375,581.9130558937486
1731653283.7154856,696.7900028504667,806.0858068958693,815.3870854300965,598.2117530412806
1731653283.7193887,743.0824134168523,806.8460698307408,811.1568512687436,639.1506159423262
1731653283.7214391,766.2873514609453,805.9912820225159,808.7762194019797,663.0037306853391
1731653283.723292,748.3587616442244,803.471932658878,808.5704034785055,647.4688291203761
1731653283.7271955,708.7368280318736,800.5813121427163,809.6254731295165,609.5303976970101
1731653283.731099,687.5412826137213,798.9006522567928,810.4970432716528,588.7314991712918
1731653283.732625,709.7398606584721,799.1104861004928,810.3014691345595,610.0282941203624
1731653283.735002,762.9685237622521,800.6632858390362,809.2872269871889,660.9770228740229
1731653283.7370489,808.5488438443969,802.4590280296792,808.4766819427376,703.3546985901654
1731653283.7389054,814.7836866809491,803.759300187798,808.7608360547844,706.9253130058416
1731653283.7428088,782.4954752715203,804.490535584238,810.2073495752943,674.0984899296161
1731653283.746712,741.4457053756698,804.8364485706162,812.0589997005736,634.8291564018868
1731653283.7506154,723.0763790638875,804.747550617616,813.2994177441701,618.9832766141055
1731653283.7515006,734.9257687086633,803.9424294835271,813.2736756565212,632.0845972813348
1731653283.7526586,758.1974642671964,802.3185952748919,811.9301654186406,654.5456590589145
1731653283.7545187,767.8886977011846,800.2479539510148,809.6438077975496,662.173631974377
1731653283.758422,755.6621116980989,798.4433430761349,806.9178783210931,648.1092987708221
1731653283.7623253,735.5416995682099,797.5726543937701,804.2674973390473,627.5575664104107
1731653283.766229,729.3497652582543,797.9702016363233,802.2941644764724,623.029398557491
1731653283.7682683,746.2926665532348,799.5689376998905,801.682456533872,643.994833543798
1731653283.770132,774.6419921044452,801.9462439162322,802.9054500086214,678.1567197341147
1731653283.770376,791.8918583844398,804.4147979052046,805.789363772473,701.1082888075457
1731653283.7740357,784.1319531955683,806.2379267496343,809.3573757147601,696.259272142272
1731653283.7779386,758.3256081983509,807.0013570397945,812.2017773455799,668.9561690809912
1731653283.781842,737.3985170473318,806.9216220524764,813.1771589984673,643.2919453233472
1731653283.7838783,741.9730228941211,806.7391273598015,811.9561896713682,643.6836882350219
1731653283.7857454,773.3069411275958,807.1034196212997,809.1588520651171,675.5285287597144
1731653283.7880826,811.2779834715092,807.8713711490947,806.0725732076145,720.3442488797829
1731653283.7892516,829.5671640390283,808.0108017657566,804.1077829063769,749.5388572835648
1731653283.7896483,816.4324401308829,806.4284170370041,804.1504318748514,746.1468863430382
1731653283.793552,784.418846828994,803.1781624742457,806.0826077912591,717.3977869517817
1731653283.7974553,760.5927448476227,799.910646956126,808.8232917791515,688.2251751171572
1731653283.799488,764.6427761763681,798.8518416266312,810.9881125962061,681.1859933976293
1731653283.8013587,792.7717706134339,800.9338723600408,811.7538664895563,699.2417744146913
1731653283.805262,821.1157720562419,804.7456109321517,811.268778098322,725.1778839396444
1731653283.8081267,826.0978294509969,807.4907444904416,810.3156914946283,737.2847079153897
1731653283.8091652,804.4871680628036,807.3203037900082,809.5814098942748,727.4842059356762
1731653283.8130686,776.0441629059662,804.9692171231811,809.1661034684812,706.8063974248126
1731653283.8150978,766.6061143477982,803.1231763715197,808.65850711035,694.5426314644211
1731653283.816972,786.1312651112273,804.0059939948657,807.5868773292106,701.1432048241
1731653283.8208752,820.1358885683835,807.3262349672241,805.8224092649946,719.4053582256172
1731653283.823,841.3167218078992,810.4047271380902,803.6674827099255,730.8397152592555
1731653283.8247786,831.476254000544,810.3873193158638,801.6502804729902,721.4858805845122
1731653283.8270023,795.9879199796493,806.6810862541487,800.2097342453823,694.0906620967822
1731653283.828682,759.5387648358527,801.5888191892772,799.4512387577079,666.688376401104
1731653283.8307076,746.8591682021835,798.5958480081019,799.0847110948201,658.4816337185382
1731653283.832585,763.8556479898547,799.6687014090815,798.5823040146123,674.2955814707602
1731653283.8364885,794.1291823772352,803.7547798807894,797.4991206427912,700.5823007470103
1731653283.840392,813.4567041706391,807.7238094637868,795.7943740702992,716.8311426348856
1731653283.8442953,810.0572457560698,808.9679450636887,793.9469201437157,713.0756807499406
1731653283.845878,793.6456887016393,807.4684537282119,792.7496443400764,698.3853204482484
1731653283.8463173,785.9092305092495,805.6151072889915,792.8730014986941,692.7094473409827
1731653283.8481984,800.9874939586982,806.033648421811,794.4775504146088,709.0704814165317
1731653283.8521018,832.8400340206974,809.3526811297763,797.155564023762,741.6797583371606
1731653283.8560052,860.013623262443,813.7521491250101,800.2385391467905,770.2793478130563
1731653283.8579173,863.3273475279931,816.5060078855456,803.2055927480329,776.8295053324631
1731653283.8599086,841.4883821896217,816.1231566123026,805.8616516798604,760.2818081873131
1731653283.861927,812.0305061446945,813.405118618196,808.2000171593884,737.2758969809651
1731653283.8638115,797.3289135886569,810.7467295912506,810.156699902455,728.5910608159677
1731653283.8647532,807.2096122614247,810.3197746809402,811.5016578412053,742.5937165166441
1731653283.8677151,831.8259294876883,812.4839031453547,811.9127810369173,768.8220698543763
1731653283.8716185,850.0668454638418,815.540166830675,811.115371121864,786.4883441444642
1731653283.8755217,846.6123354330209,816.9805242344571,808.9965813078333,780.9739674935801
1731653283.8775368,824.1099114983152,815.3005640732215,805.6968498447475,755.3237941729975
1731653283.879425,800.8887281247581,811.0302759383803,801.6713250281822,727.8422307005767
1731653283.8833284,796.1259091103311,806.2754150858183,797.6422934076002,717.8314640149088
1731653283.8836288,814.3256535596516,803.2298793233817,794.3892859927009,730.6200434929538
1731653283.8872318,841.4305878689054,802.8232499670904,792.466645502891,753.3264267375044
1731653283.891135,855.628760976581,804.4011611657081,792.0327084958441,764.4976731790691
1731653283.8928344,844.4044706224953,806.4705206442668,792.8966075922837,750.4437197606995
1731653283.8931465,814.5352718744655,807.8219704590192,794.7177551711451,716.1671739487506
1731653283.8950384,787.1529140494491,808.2164007057246,797.1941933785736,682.509678208646
1731653283.8989418,781.5446682295312,808.2380946340924,800.1079540365796,671.0565417406597
1731653283.9025042,800.3353194674462,808.5241704591908,803.2072146349132,687.8217456672463
1731653283.9028451,827.9365106511341,809.000416647238,806.0397892305953,718.5600273865946
1731653283.9067483,843.6974193665119,808.7497291698653,807.9460875899981,740.0982421591225
1731653283.9087565,839.0206551070935,806.6972588976998,808.3531402545896,738.9702886836857
1731653283.9106517,824.0766786065928,802.6607853479384,807.2374838816858,721.899850306863
1731653283.9145553,818.3585714105084,797.9261645561568,805.3564044704149,709.1622822782712
1731653283.9184582,833.1460219511392,794.7426366761975,803.9220314182858,716.6069273454189
1731653283.9213798,860.9123339803537,794.9297213041642,803.8425551869313,741.9368760964934
1731653283.9223616,880.7121056852665,798.5490814904098,805.0669267004043,766.8767069831567
1731653283.924366,875.0967427114681,803.6520066869541,806.5322746876323,773.069568280787
1731653283.926265,844.7486014724642,807.36924841482,806.7816151779126,758.2551854577339
1731653283.9277515,809.1222685518699,807.6471548733174,804.8861713465002,739.4826700702218
1731653283.9301684,792.5280917850944,804.4783822478552,801.1399653864904,740.6422322159412
1731653283.9340715,806.2874925554145,799.8258389441936,797.0959905469252,773.7720945901959
1731653283.9379747,840.5028871628175,796.324660827253,794.8221376588967,828.4513850403455
1731653283.9399755,871.6371186564891,795.6551610723631,795.7100076933278,877.744884587595
1731653283.9402552,880.0044635075272,797.6544959931937,799.5493993014942,896.7546045561231
1731653283.9418783,863.6282181084377,800.6780453748803,804.5354609289673,879.9504001790757
1731653283.9457817,837.851656237725,802.8705971679586,808.2876713209575,843.9592924705872
1731653283.9496849,821.6067760988511,803.4544637042712,809.2144226147867,813.746515346745
1731653283.9535882,822.1287712248559,803.1838178881825,807.2902517841096,803.5713944940409
1731653283.9555857,830.8663747044953,803.6708126175677,803.7952599234883,808.3324177858094
1731653283.9574916,833.3035838912349,806.0531599947728,800.3666512658571,811.7023346347944
1731653283.9591308,823.2027178871942,809.9906745076178,798.1087792360742,802.7317916163478
1731653283.9613948,808.356270033719,813.7987287974514,797.2483504809725,785.7637230626716
1731653283.962669,803.0808950909638,815.6363655582595,797.3148766926905,775.4968214110517
1731653283.9652982,814.6410126066727,814.7578109661902,797.5649822594532,782.7609705449171
1731653283.9692016,835.8979127365998,811.7881721446415,797.4013259169905,804.3315232364017
1731653283.9711952,850.7379387177003,807.9123760578035,796.6271767036588,825.6473091695037
1731653283.973105,847.6428125430144,803.8730560274557,795.4397510911085,833.4661036792578
1731653283.977008,829.729543564359,799.7467595545929,794.193440536441,826.8961093889552
1731653283.978006,812.5223836586921,795.5719753546358,793.1392352422253,817.0198237501829
1731653283.9809115,811.0899666154031,792.0064109302403,792.3740395209637,815.6238555959147
1731653283.984815,827.2459124921032,790.2119755323488,792.0219664284625,823.3228073252213
1731653283.986805,847.5863277785116,791.0174933618216,792.4122960183835,828.0030241963581
1731653283.9887185,854.1350001367098,794.1669607416817,793.9932626965298,815.3547700761297
1731653283.9926214,838.9193888210623,798.375335341672,796.9709147507755,782.4364073712695
1731653283.9965248,810.671201182881,802.1362675750813,800.9503613821843,742.4056285450371
1731653283.9968815,788.4039855508304,804.5609801643959,804.9114726350792,716.0994792294332
1731653283.997586,787.1085018571237,805.5892499026912,807.6199082738742,717.1084891846846
1731653284.0004282,806.7014400549272,805.5716419817047,808.2466973916073,741.9975509825872
1731653284.0024147,832.4849324943349,804.7905277368405,806.8001158267591,772.9154787881286
1731653284.0043314,846.4774131447482,803.4112325585721,804.090347268575,790.3205727138287
1731653284.0082347,840.8397052150353,801.7626229191736,801.2700756511391,786.3145971885311
1731653284.012138,823.1304594428972,800.4323636416315,799.2799922627529,769.0032747268633
1731653284.015757,809.4623590520142,799.9291407971809,798.5423918674637,755.1121665734884
1731653284.0160415,811.1703788103547,800.2773056654476,798.9835521688309,756.8076910058807
1731653284.0180244,825.8230130971377,801.0384382176013,800.1991512481321,772.8327215791704
1731653284.019945,839.8255386218126,801.7202994031402,801.583412177806,790.4571285206827
1731653284.023848,840.2445393503178,802.1103272773308,802.4626645871291,796.2127229902109
1731653284.0277514,825.8740383430155,802.2770956394487,802.3631261338676,786.7082750234196
1731653284.0316548,808.3851894970816,802.3825167441867,801.328177358684,771.1581455174577
1731653284.0325034,802.7832818971552,802.5324432330485,799.9590437406786,763.9816928623526
1731653284.0336344,815.0944281867115,802.7441142080238,798.9819300616762,773.3860999425262
1731653284.0346324,837.1773222794229,802.9864368250039,798.6159072358289,794.6073388778333
1731653284.035558,852.7350563697687,803.2271437707917,798.3337702673635,812.938744126121
1731653284.0394614,849.8830798565788,803.4536807666244,797.3546817218033,814.6219407661309
1731653284.0433648,830.5164044575586,803.669829475453,795.5375525691247,797.7608369535775
1731653284.047268,808.9629513288936,803.8840363902794,793.8802695577939,774.7227434833273
1731653284.0492442,800.6630703125635,804.10147748665,794.0603221496611,763.2994426869978
1731653284.0511713,809.7850086626175,804.3226895391826,797.2345903729656,772.7786868260506
1731653284.053508,825.9612269259969,804.5458800192014,802.9860692154871,796.0025351335898
1731653284.0550747,833.0580084676685,804.7693751157157,809.2797243822755,814.4467221388018
1731653284.058978,822.8246275501368,804.9925975968299,813.5630006618352,812.7893775670709
1731653284.0628812,802.015605642969,805.2158017627602,814.2753749406762,791.1972584230062
1731653284.064854,786.9677583221498,805.4394397698808,811.7046765717544,765.1509537247248
1731653284.0667846,790.1234451802244,805.663765485958,807.6356157421008,753.003209506778
1731653284.0674205,809.6860381117057,805.8887880625597,804.1741711606545,761.6567852515544
1731653284.070688,830.9334527224324,806.1144049331784,802.6826027194197,782.0323557497429
1731653284.0723834,838.100412634242,806.3405287904762,803.4629898576087,797.5656554493069
1731653284.0745914,827.1030365261742,806.5671323248462,806.0686656711775,798.168504593742
1731653284.0784943,808.6355651848411,806.7942291691172,809.7038599979918,787.8521071357599
1731653284.0804636,798.979663153712,807.0218391295633,813.4086125198644,779.8896760841767
1731653284.082398,806.1014299703297,807.2499691536751,816.1687642235469,784.2047174772309
1731653284.086301,822.8052209440675,807.4786148510029,817.1653558738468,798.3873706239673
1731653284.0902045,832.9346712500451,807.7077716660567,816.0886149861325,810.3090675196034
1731653284.091259,825.4392975020924,807.9374421145283,813.2614234834821,809.5741646403332
1731653284.094108,804.2651459334595,808.1676306229998,809.4932556436338,796.876185151868
1731653284.0960734,785.6063264277439,808.3983272528963,805.8345528640845,782.6113680296337
1731653284.0980113,784.8520895077995,808.6294943235719,803.3671754720003,776.8316069135069
1731653284.1019146,804.1008808724293,808.8610789377306,802.9485609665406,780.9861682958704
1731653284.1023378,830.3438162355973,809.0930651382143,804.8209415912111,788.8980623311376
1731653284.1058178,845.5176152580278,809.3255406238865,808.287357962748,793.8706292914401
1731653284.1097212,840.2044406427649,809.558699928795,811.8451283082355,793.6882563606342
1731653284.1101344,820.2160074285283,809.7926956056615,813.9011391575101,790.141375940041
1731653284.1116831,801.2252487165969,810.0273526659774,813.6701772354418,785.9511841656664
1731653284.1136246,796.0809432166577,810.2619802516318,811.6242143571928,782.6450143693392
1731653284.117528,805.0628012243899,810.4956832654966,809.1736645057317,780.3171687373297
1731653284.121431,816.7743720260195,810.7283840341834,807.8230871726429,778.3981402918378
1731653284.1253345,818.6416050627126,810.9620106118863,808.3630544011182,776.3924077703676
1731653284.1272929,808.0965183056232,811.2003453167862,810.5400707741329,774.1468531586335
1731653284.1290095,795.0137228380985,811.4459763749443,813.2822097955973,771.7513809222372
1731653284.129238,793.3305750884356,811.6949409488863,815.2610255675853,769.3440869936641
1731653284.133141,808.8568434567791,811.9337835387735,815.4847956617218,766.9973138941592
1731653284.1370444,833.4880001134952,812.1465070129212,813.6879540069432,764.7097266325186
1731653284.137255,850.8016607737441,812.3344252369418,810.4005207794667,762.4489292695828
1731653284.1409478,848.7262894044602,812.5371435108739,806.6996358535588,760.1891834958184
1731653284.1429026,829.1661220957686,812.8255758378394,803.7496941058112,757.9234561563783
1731653284.1448512,806.7604592680913,813.239785103953,802.3112678995635,755.6569046773352
1731653284.147885,797.5313192164787,813.6879807464634,802.4226413675008,753.3964530440738
1731653284.1487544,806.2979274193023,813.8899994423409,803.4085004812785,751.1452001297673
1731653284.1526575,822.9345115777842,813.452027700513,804.2297370870899,748.9024021292303
1731653284.1565611,830.6390344448575,812.0463756867822,804.0022121296587,746.6658694718465
1731653284.1585124,819.6912061716691,809.5619355498568,802.4132411558512,744.4339110270787
1731653284.1604643,795.6042677416724,806.1450243339546,799.8500930976503,742.2058648931234
1731653284.1643677,775.054519688277,802.1931937104886,797.2469001021586,739.9816660859548
1731653284.1667607,772.8691283813832,798.3768595540784,795.7694698061833,737.7612352343662
1731653284.1682713,790.4624300703501,795.6062511002619,796.4249510718437,735.5441624098048
1731653284.1721723,814.762614920593,794.7577969441923,799.6353192261297,733.3297789021133
1731653284.1721745,828.2797281538128,796.1491254810985,804.8858809882008,731.1174931843376
1731653284.174122,822.3299039653291,799.113281773142,810.6850243014117,728.9071494533719
1731653284.1760776,803.1358235952263,802.1635496995691,815.0344585138347,726.6990638465709
1731653284.179981,786.2049183516585,803.8590634791366,816.3157734684352,724.4934207723413
1731653284.1838844,783.682790299934,803.8088322215478,814.1404184966179,722.2891263793796
1731653284.1856363,794.9847302415483,802.9439884562818,809.6155888459379,720.0830510868974
1731653284.1877878,808.2362307881772,802.686409100637,804.7931469463056,717.8712375186825
1731653284.1897318,811.0031988278237,803.6269190059235,801.59450667759,715.6528987041684
1731653284.1916907,801.0491822325941,804.890496273732,800.8598812802517,713.4350924093493
1731653284.1955943,788.0432435159961,804.8578519568873,802.092187266252,711.2321823640618
1731653284.1994977,784.9934653041167,802.6835340371233,803.9982582277769,709.0539631815014
1731653284.203401,796.8164529889908,799.2560940060552,805.3995582868528,706.8846775726508
1731653284.2045116,815.6190299330232,796.7115149435476,805.8764157227625,704.671347012762
1731653284.2053416,826.567786105475,796.9057195940762,805.7635584992908,702.3507353448067
1731653284.2070894,819.6800949402946,800.1072820576467,805.6053563984088,699.9270049928892
1731653284.2073042,798.1819040178436,804.8461173496393,805.533288411423,697.5544525402677
1731653284.2112076,776.5871419644166,808.834247561131,805.0392697410239,695.5118805868389
1731653284.215111,769.5623883044457,810.1783241227484,803.3297769372938,693.9623917010584
1731653284.2190142,780.2200779076189,808.1840870416287,800.0352020103586,692.564000414325
1731653284.2209513,797.5550332510101,803.5468520529658,795.7507121602962,690.3018479513007
1731653284.2229176,805.5996091341539,798.0578733377292,791.9327669316679,686.0879785551492
1731653284.2233872,796.925799868151,793.972573677942,790.1214484877717,680.299861045881
1731653284.2268207,779.0807189653557,793.1497314524578,791.0079377078516,676.3429262881618
1731653284.2307243,768.392969847505,796.2154514579279,794.0389513754124,680.2329623752375
1731653284.2346275,776.3574229366185,802.1884984354398,797.8361678363952,696.7682963680356
1731653284.2365613,799.9792984672926,808.8887539475328,801.04736311439,724.0477589747684
1731653284.2385309,823.8419710856906,813.9847725880252,802.9474577083953,751.3908541721368
1731653284.2420068,831.8635965731457,816.0854153767193,803.438826654224,764.4295058172547
1731653284.2422626,819.2067309107098,815.2472077456118,802.692351550893,754.845367182774
1731653284.2424345,795.262242985805,812.6792400979705,800.9169565421769,727.0579766070475
1731653284.2463377,775.9008030040592,809.9424503503728,798.4563910712395,695.8389414962718
1731653284.2502408,771.3607284500017,808.1851554032518,795.9709687228986,676.1608941705067
1731653284.2521708,779.2402950302172,807.7992692372721,794.3434673082689,673.1637947146577
1731653284.2541442,787.8723510252102,808.502262276688,794.2277823120015,680.1792600490455
1731653284.2580476,786.9773379897019,809.5975553400215,795.5347986472269,686.0170340458535
1731653284.261138,776.539781488163,810.2372862301477,797.2960496524751,684.9404372327111
1731653284.2619507,766.4238092299901,809.7211499894312,798.1400907956094,680.8164548651042
1731653284.265854,767.2087702774439,807.8588470150171,797.1645945687942,682.3865450917393
1731653284.2677803,780.276109456755,805.1708757045357,794.5950776274204,694.3396724615584
1731653284.2697575,795.7744038480786,802.605518845288,791.6652607362889,712.1273907747943
1731653284.273661,800.3157386211235,800.8178037989244,789.7352663484489,724.9261067931976
1731653284.276924,788.0346632486982,799.5934650400412,789.344853345789,724.2935043119495
1731653284.277564,765.8675393689801,798.0522286155899,790.0045512993157,711.5244470488187
1731653284.2800136,748.6586107992382,795.6016021327606,790.8676495980093,697.7364834817973
1731653284.2814674,747.9074206972965,792.811741639639,791.6072745954456,696.2467224035091
1731653284.2833903,763.0769100980928,791.2934222887986,792.6652862453607,712.7354733327779
1731653284.2853708,782.4114335872837,792.5036990201412,794.6971941736838,740.7083858689829
1731653284.2892742,792.619862589952,796.4483880601259,797.8252290597774,766.0758459767674
1731653284.2931774,789.4764205558448,801.4636058167785,801.4388654421124,777.5813750282448
1731653284.2970808,780.4951745377526,805.3396027581776,804.6722722345372,774.8366750271142
1731653284.2988887,777.4977454108675,806.8255573224928,807.014755737122,767.4344874793584
1731653284.2990005,785.6116756327447,806.2176100298054,808.4502409359021,766.0548869259034
1731653284.300984,798.3080434652563,804.6251580637877,809.0697460148828,773.2420048310917
1731653284.3048873,802.7594794252497,802.7472602302391,808.6525107959999,781.5743821809373
1731653284.3087907,790.8899011016838,800.3699878516134,806.7303291883422,780.427907121433
1731653284.3118412,766.7743637820995,797.0041661087926,803.1582112097432,765.3680004285569
1731653284.312694,744.2674566526006,792.9448090445001,798.6901843703397,742.3817983320646
1731653284.31461,736.7899486222593,789.6357345856823,794.9688995105081,723.6770758534344
1731653284.3165977,747.3839142789702,788.884183946921,793.7674904378626,718.5822110381234
1731653284.3177643,766.7796106090439,791.5296546139562,795.9351682581411,726.834460750564
1731653284.3205006,780.8845284660063,796.6714181166612,800.7974765211087,739.5352637016302
1731653284.324404,781.7384871236229,802.099062862616,806.4800267715344,746.8768593713822
1731653284.3283074,773.2311431504525,805.5931453034069,810.9630894317304,746.1993525188907
1731653284.3302195,767.0641792258801,806.1227126921284,813.1607839695696,743.6127854417239
1731653284.3322108,772.4258715735467,804.1700750200962,813.345878902246,747.8464009167925
1731653284.336114,788.0566274121709,801.1816468878436,812.7320049831553,761.6850636085542
1731653284.33664,803.3006234774704,798.7216767892523,812.5647626772846,778.4801765930405
1731653284.3400173,807.1239007542038,797.8508775553537,813.317580957316,786.8831707747268
1731653284.3439207,797.4885996041978,798.8450342184036,814.4719733320088,779.9575069185869
1731653284.3458295,783.3450785146927,801.1652564033801,814.9986472303455,761.172362484908
1731653284.3467584,777.6258454406518,803.7037819859037,814.2182340764228,742.3464424026944
1731653284.347824,786.8465571309086,805.3710093185362,812.4373121583534,735.0382998638553
1731653284.3517272,805.6323160714147,805.8082473210026,810.8524626867959,742.0064191492078
1731653284.3555157,820.7242461645482,805.7066660995375,810.7132526816711,755.3653319306745
1731653284.3556306,821.5704524147749,806.3661922012993,812.3235452503266,762.9798250317954
1731653284.359534,809.0894748774931,808.7313657415905,814.6669442961237,758.1820981317603
1731653284.3614392,795.2087311432281,812.6233462725274,816.0248963431873,745.0455092033304
1731653284.3634372,793.1022694628414,816.7483127388815,815.1832883598067,734.8109227994632
1731653284.3673406,805.9964334796448,819.4375403737198,812.3254447660534,736.3126340947124
1731653284.371244,824.0509023702663,819.5568673598916,808.9357593104212,748.4192607918393
1731653284.3743908,832.2405928985968,817.0178537920982,806.8023030699713,760.9469250589369
1731653284.375147,822.7850472270692,812.708366053385,806.8447058053798,763.2986634527285
1731653284.377049,801.6964067496522,808.0397328281352,808.5272367037142,753.4152266501821
1731653284.3790505,783.9597530371077,804.4255456465424,810.1629509718473,739.3346875229573
1731653284.3816755,781.4039158217589,802.8905245231927,809.9002358059109,732.0228824414468
1731653284.382954,793.3300705027209,803.8349488739352,806.8622675820615,735.6502295948798
1731653284.3868573,807.5485188700691,806.9081266110849,801.8173878445344,743.7368335672649
1731653284.3907604,810.8222721627761,811.0087828255504,796.9358584849881,744.6781399417074
1731653284.3926587,799.9969677867249,814.5225334193839,794.6622168199061,732.1856240426413
1731653284.3932662,784.5820965869417,815.8614161831184,796.3010981826717,711.7622277921341
1731653284.3946638,778.6385107121612,814.1475449542442,801.1876277367447,697.2862048488797
1731653284.3985672,788.7275694864527,809.667694019666,807.0270288099532,699.9414068818253
1731653284.4024706,808.0199926004912,803.773929071759,811.2470706471227,718.4734080199156
1731653284.4063735,821.5725638964734,798.2489732146024,812.4817739624724,739.1872143955005
1731653284.4082685,818.4679939374565,794.5187239525148,811.1712721145353,746.2498324117661
1731653284.4102771,800.8442207749296,793.1671600998577,808.9241176660643,734.1676391836446
1731653284.4121418,782.5045782854916,793.9577848420945,807.2497336360703,712.2854429660546
1731653284.4141805,778.3029362330756,796.2260323902265,806.6858542445962,697.6050972857179
1731653284.4165928,792.7085204679502,799.3186178755934,806.8608392766548,701.6572888273801
1731653284.418084,816.3564582330188,802.794210366367,807.1625430956518,721.8074415456855
1731653284.4219873,833.0962965063829,806.3119201144075,807.2779765004271,743.6797080224279
1731653284.4238782,832.033045479743,809.3965196711642,807.2159490974108,752.4801288948191
1731653284.4258904,815.3074938676483,811.3931209899232,807.0359264261507,744.0065819633296
1731653284.4297938,795.742205441985,811.7556098993693,806.7074877659333,726.6408132920059
1731653284.4310172,786.4879523335334,810.4494555214994,806.2039683430706,713.2168594472894
1731653284.433697,791.1206593679328,808.0578030044521,805.5880388041487,710.0193594252406
1731653284.4376004,802.0509926744288,805.425047782907,804.916013074906,712.2203598699216
1731653284.439488,808.0705012514059,803.1389731823019,804.1149208806328,709.1925614534942
1731653284.4415038,804.3247891874122,801.324322738881,803.078106251156,694.6244493296725
1731653284.4454072,796.3056048643815,799.8888586085687,801.9335413324769,672.5981285959047
1731653284.4493103,794.7791892730278,798.8952623248969,801.1515497049496,654.6797689938562
1731653284.4498928,806.1470783159789,798.637042088668,801.273073481802,650.7907752992943
1731653284.4515102,826.2871461294613,799.3456147408006,802.4509300132377,661.4915970991559
1731653284.4532137,842.9432820786933,800.854551682711,804.2384450659096,677.6989160189939
1731653284.4550977,844.9395508526178,802.5939385775839,805.859420940091,687.7095085752991
1731653284.4571173,831.1113027891879,803.9558526938671,806.749616751495,685.839152326549
1731653284.4610205,811.815397866282,804.6954763796622,806.9046627916705,676.0773081960959
1731653284.4649236,801.4202036833158,804.9906082700874,806.7456271226653,668.2764104615003
1731653284.468768,807.3740184557988,805.1305426348019,806.6617009072897,670.2289140932205
1731653284.468827,824.5673599663982,805.1778151725091,806.6797673468363,681.96820858122
1731653284.4707074,839.7029964495928,804.9311721918747,806.5407993708833,696.4882057302069
1731653284.4727304,842.1765991196078,804.1562834393486,806.0068554654888,705.78162565299
1731653284.4766338,832.4854011445041,802.7972216060122,805.0016842078307,707.0938490648782
1731653284.4805367,821.2754327747823,801.0112186082009,803.4737330392174,704.5705371451634
1731653284.4844403,820.0302285597417,799.1310737456744,801.2991234884163,705.3446920504009
1731653284.4863172,831.2656542125275,797.6655716055459,798.5281660551921,713.3266725597462
1731653284.4864275,846.2566531688377,797.226012445797,795.7822982557564,725.5467992174398
1731653284.4876437,852.0333810744686,798.2078292133493,794.2456769221269,733.989349536539
1731653284.4883437,841.969894577794,800.3524191288029,794.9933726555333,731.7960212709621
1731653284.4922469,821.4570511144879,802.6412436172798,798.1134562726768,719.1718149486464
1731653284.4961505,803.9571612766774,803.8450949410009,802.4329172339994,704.0093787517724
1731653284.5000536,800.4039739608801,803.4499257836193,806.2017014729712,696.090394498694
1731653284.501927,810.5304211070937,802.1954525317436,808.2298178347802,699.2541833432712
1731653284.503957,823.4181230707584,801.6693948000752,808.5496522260605,708.2904483257787
1731653284.5065193,826.9441012846532,803.1778892360414,808.0921123124411,713.6286205586171
1731653284.5078602,818.1630589334393,806.7425148362287,807.7136200460258,709.9113816977263
1731653284.5117636,805.7708641199617,810.9984910492185,807.4310233974649,700.7592523516568
1731653284.515667,802.5709568209697,814.0930822801015,806.5034692747482,695.329430273971
1731653284.5175366,814.3847858611647,814.9621594107978,804.2649472387708,699.736120690059
1731653284.5195704,834.7322853549523,814.0901504696423,800.9720158998471,711.0835469236627
1731653284.521345,849.6166387857883,813.1897141567118,797.9124112241931,719.5392580136842
1731653284.5234735,848.3969377032449,813.9717492263529,796.6404156405476,716.8144927071469
1731653284.5253944,831.9562408019477,816.8495022844256,797.9350555354673,703.8583262324123
1731653284.527377,811.7372007619008,820.5325778905132,801.2886428926768,691.1016731420774
1731653284.5312805,800.5651340726439,822.8548930402094,805.2722396422336,690.6681253403917
1731653284.5331466,802.7011766230045,822.2576835117127,808.436426607559,706.6992428616137
1731653284.5351834,811.1674501831789,818.8517487178353,810.0762637900784,731.8168522892222
1731653284.5390868,814.4648806297505,814.3284534966916,810.4062439878794,752.923475629
1731653284.5429902,807.0018942549257,810.8620502838087,810.1690713962936,761.7253570341966
1731653284.54427,794.3524436754501,809.8109249904079,810.0450006797811,761.1809286720519
1731653284.5468936,788.7500680445726,811.0275833140937,810.2592750177083,762.3738455382265
1731653284.5487564,798.4904478124488,813.0777971783666,810.5715188071432,774.4093734252401
1731653284.5507967,820.1256485136125,814.1116639122914,810.5517356100737,795.8678746529085
1731653284.5547,840.0948155426918,812.8542780593847,809.8885031373261,815.0914889728072
1731653284.556262,844.7089056354874,809.2354250100333,808.5347143208097,819.299965460746
1731653284.5586035,830.6058639255963,804.4186917539772,806.6945073352209,805.2780743689992
1731653284.562507,807.3724379622429,800.2576738997841,804.7782377095057,782.9589448614265
1731653284.5631454,790.2238543065553,798.4163798772846,803.3732776266669,768.7242389809468
1731653284.564366,788.4827932143648,799.5350637225828,803.1191577675021,773.3433510312287
1731653284.56641,798.9169279715518,802.8672120861896,804.3815037121644,793.846142662947
1731653284.5703137,809.1357109719718,806.6499155671625,806.8538710536176,815.7438749006099
1731653284.5742168,808.1861542007211,809.0625957122476,809.440492015308,823.9648071754615
1731653284.57812,795.6646983501333,809.2008890494508,810.6865553218378,813.9707523160107
1731653284.5799758,781.931387210672,807.4285530429374,809.6179717186639,794.4298624087514
1731653284.582021,779.426106434314,804.9187111792776,806.4621032139165,779.7044223765675
1731653284.5820234,792.413252364471,802.8103728141639,802.7018081071284,778.5409756622313
1731653284.5859268,813.5482473919752,801.6287302564325,800.3229377954748,788.0141210666206
1731653284.5898302,829.7355471346832,801.2704111609062,800.6716838061881,797.0431671024372
1731653284.5911791,832.0245315278102,801.3481127026688,803.6459672513938,795.8635833473536
1731653284.5937333,821.330177423925,801.5216025084419,807.760425626463,783.2862329071091
1731653284.5955856,805.9645430277247,801.6305127459458,811.0461961354004,766.1391884748294
1731653284.5976367,794.3320570300498,801.6631329968735,812.185366193123,752.6213392888146
1731653284.6008964,789.6130705954101,801.6675698637048,811.1522569117878,746.336126043664
1731653284.60154,789.8969782189236,801.6838773619369,809.0129028064499,745.615295983121
1731653284.6054437,791.6373059021653,801.7224167200001,807.1051470105803,746.7725853622678
1731653284.6093466,792.5331228875256,801.7739206280309,806.1754535196885,747.2232093900507
1731653284.611195,792.1697490480095,801.8263477968851,805.9990377620662,746.3624354808632
1731653284.61325,791.174218401403,801.8739465768416,805.662540180383,744.7794716272359
1731653284.6171534,790.2204495781247,801.9172486486705,804.2866814566996,743.1974407407334
1731653284.619772,789.578547818189,801.9591493521523,801.7195783326089,741.9418413116334
1731653284.6210566,789.1754146020304,802.0017489794973,798.7462921770174,740.9630478379418
1731653284.62496,788.8358987212386,802.045492831115,796.6405669416624,740.0811886654261
1731653284.6260965,788.4504273709164,802.0898360194072,796.3189506381729,739.1730457041523
1731653284.6268053,788.0061516035361,802.1341480534884,797.6989140319248,738.2170727368108
1731653284.628863,787.5399195945615,802.178155208465,799.79112258807,737.2492421950606
1731653284.6327667,787.08701825496,802.2219077917664,801.4623965494135,736.3081330870226
1731653284.63667,786.6601189212012,802.2655636439291,802.1794286950569,735.4096990316041
1731653284.6386473,786.2543592755052,802.3092279422498,802.1269405983588,734.5505571186816
1731653284.6405733,785.8604833618004,802.3529173426023,801.7935189272808,733.721479936107
1731653284.6424148,785.4732346728618,802.396600021609,801.5413706543482,732.9168425681623
1731653284.644477,785.0924645466955,802.4402433293733,801.4677569533566,732.1364279555669
1731653284.64838,784.7204168277694,802.4838348387511,801.5003829180948,731.3828194968567
1731653284.6522832,784.3590656058625,802.5273786137258,801.5408975185395,730.6585259949514
1731653284.6561866,784.0091392262224,802.5708830343059,801.5417342936738,729.9647878650266
1731653284.657523,783.6704789161872,802.6143528257178,801.5070436038038,729.301851789381
1731653284.6580243,783.3427469363698,802.6577885926464,801.4606608227132,728.6697047956434
1731653284.66009,783.0258423960071,802.7011906938505,801.4200001804422,728.0685469589525
1731653284.6610136,782.7199314812606,802.7445624395489,801.3888335527562,727.4988562049439
1731653284.6639931,782.4252930079105,802.7879088604797,801.3627069539067,726.9612371397584
1731653284.6678965,782.1421812238342,802.8312306235762,801.3364073274251,726.4562714683797
1731653284.6718,781.8707820505203,802.8745176790035,801.3076459091816,725.9844626592497
1731653284.6736343,781.6112370383125,802.9177517009749,801.2768140969067,725.5462557700271
1731653284.6757033,781.3636810888095,802.9609246536111,801.2452038827817,725.142076902525
1731653284.6763985,781.1282612733154,803.0040671740102,801.2136806123832,724.7723555212431
1731653284.6796064,780.9051342093164,803.0472583037646,801.1823799693252,724.4375242057085
1731653284.6835098,780.6944557728316,803.0905778002891,801.1510346882998,724.1380084440356
1731653284.6874132,780.49637732229,803.133994379703,801.1193669508541,723.874220460509
1731653284.689244,780.3110535201258,803.1772674702735,801.0872618852983,723.6465630153247
1731653284.6913166,780.1386543601344,803.2200232209369,801.0547369072235,723.4554386030165
1731653284.6952198,779.9793641008729,803.2621253823216,801.0218438798491,723.301251345447
1731653284.6952736,779.8333517428006,803.3041930343002,800.9886100582121,723.1843889694817
1731653284.695931,779.7007207964479,803.347707329678,800.9550415352367,723.1051870871886
1731653284.6991231,779.5814856582955,803.3940069081447,800.9211529452408,723.0639060397265
1731653284.7030263,779.4756444282485,803.4421581491249,800.8869720098222,723.0607708194096
1731653284.7048538,779.3833695229964,803.4873037555109,800.8524933396841,723.0960988551565
1731653284.7069297,779.3051944571052,803.522525011194,800.8176114343592,723.1704454557221
1731653284.7108333,779.2419197244405,803.5461720933364,800.7821207229589,723.2845782364153
1731653284.7141492,779.1940018091137,803.5712616024872,800.7458731021256,723.4390905025067
1731653284.7147365,779.1606277911994,803.6260274412565,800.7090664024447,723.6337364487129
1731653284.71864,779.139403578156,803.7331043084247,800.6724122208175,723.8670852961999
1731653284.7204635,779.1279227433472,803.8693076288355,800.6367771491225,724.1374198623627
1731653284.722543,779.1274297711974,803.9388844283355,800.6021213368049,724.44522368248
1731653284.7264464,779.1460304961748,803.8174400954277,800.5663469008904,724.7957480184082
1731653284.7303498,779.1961818354335,803.4978241036753,800.5256115810082,725.1980326936622
1731653284.730848,779.2825211016799,803.2654147759881,800.4775955514673,725.6570997105044
1731653284.7330246,779.3849125370459,803.7001002146162,800.426890037144,726.1616110159376
1731653284.7342532,779.4550124731253,805.3125083020275,800.3874902156078,726.6789155393237
1731653284.7360733,779.4492822457539,807.9327569597934,800.3749318889223,727.1744893488769
1731653284.7381563,779.3988172702825,810.4076122124171,800.3857795979809,727.6598731003156
1731653284.7420597,779.4633511087247,811.1548153060892,800.3775505788825,728.2372420574013
1731653284.745963,779.8700327635531,809.3878098689987,800.2789758528099,729.0714098403203
1731653284.7498662,780.6734199550169,806.00007935227,800.0563518802431,730.233885525202
1731653284.751683,781.4493325997433,803.1602253485121,799.81524646397,731.4765163887486
1731653284.7519002,781.2826766544987,802.7370138792868,799.8406463560549,732.17210149334
1731653284.7537696,779.4655263581378,804.7863417253832,800.4479473733556,731.7351465008531
1731653284.757673,776.8593862292365,807.4069282003869,801.6486926832267,730.5644887956433
1731653284.7615764,776.9040150553072,808.1712289536978,802.9151046103505,730.8804017912869
1731653284.7654796,784.5885825865145,806.0155826426217,803.402552120448,736.2550257097491
1731653284.7657654,802.7468498895263,802.0900409346287,802.552029577397,749.1531310896542
1731653284.7672927,828.0095835653717,798.927465753207,800.5107386850907,767.8140225485043
1731653284.769383,850.8002238900139,798.6111760459197,797.9998427262481,785.6510879869575
1731653284.7707756,861.2729651616014,801.3162765530451,795.8747305285483,795.2149705088917
1731653284.7732863,857.1837191650468,805.2274562492215,794.8187951444912,794.4896627641278
1731653284.7771895,846.5385238773756,807.8100273181393,795.2595529493638,789.9167705111208
1731653284.781093,841.6756407356005,807.5128173695236,797.303606432348,792.306658002275
1731653284.7829027,849.1770245689895,804.765873252053,800.6253134017765,808.0016395225688
1731653284.7849965,864.3231837620506,801.6516847526892,804.5176533982245,832.683540558435
1731653284.7888997,875.2583315088281,800.4923662410619,808.2442126199264,853.8250676305388
1731653284.789651,873.4921766758032,802.274136998178,811.44447285348,860.5197192315968
1731653284.7928028,861.5792196259735,805.9346552474566,814.1764788047911,852.6488447903384
1731653284.7967062,851.1699163288928,808.9956480783626,816.5454346538446,841.4081699751468
1731653284.7985125,853.0365767841924,809.1361745823295,818.3615121963244,840.3740895202172
1731653284.8006096,867.6291990236134,805.6528870148727,819.2601929590438,854.3758488582578
1731653284.8006823,884.2365139095677,799.845167442533,819.1799671556389,875.4689357525032
1731653284.804513,889.5622058953381,794.161090502417,818.6538575777747,889.5239956271095
1731653284.808416,878.7018654853791,790.8075638740389,818.5239407235206,888.1037323369617
1731653284.8085265,859.4803337752766,790.7658569209237,819.2458298664044,875.6564587812461
1731653284.8123195,846.4096097401101,793.6594363503068,820.3566642642155,865.6125134840961
1731653284.8141222,848.9178062166105,798.243914043833,820.6026981678834,868.1806542219814
1731653284.816223,863.3185199693471,803.0197419247204,818.7455272367383,880.0635331071995
1731653284.8201263,875.259303031923,806.6691401221406,814.5252225722959,885.4176143822709
1731653284.8240294,871.046139504702,808.3119212387608,809.046015311315,868.2891135991475
1731653284.827402,848.9092659676699,807.666850590297,804.1998840530615,826.8019900017215
1731653284.8279328,821.0576819867458,805.13997201885,801.4733124960178,777.1928138912428
1731653284.829732,804.6512002311567,801.7954186074218,801.0089284973809,743.6238796776174
1731653284.8318362,808.7260761671455,799.1353320537529,801.6242135620989,741.1783356415345
1731653284.8356,827.4022099778628,798.628306060944,801.7425470106629,765.0856257547165
1731653284.8357394,844.7545636691731,801.0591620875641,800.5135710623822,794.5286077526043
1731653284.8396428,847.5074077107346,806.0142928426227,798.3355462257971,808.1766623743421
1731653284.8435462,835.4898560920298,811.9137648017436,796.5055776197266,799.648126811363
1731653284.8453417,821.5179664180395,816.7133036371345,796.3279303842089,781.2653649108169
1731653284.8462777,820.7557006943117,818.8867006113453,798.2760320345958,773.481665293264
1731653284.8474495,838.0362612089393,818.0505707526912,801.6730383295823,788.2643539794764
1731653284.8513527,863.3658228017049,814.8870001608867,805.031069197532,819.2736305899401
1731653284.855256,879.4104645625276,810.585343235189,806.8575488667983,846.4763770025248
1731653284.8591597,875.1739365362429,806.3250652999722,806.4941663502503,851.681716404586
1731653284.8609514,854.9460967581119,803.1081522781357,804.5002116325094,832.8130878730586
1731653284.8630629,835.2054389123845,801.7887099196217,802.3192093306957,805.5394533576048
1731653284.8651528,831.7508733668762,802.9308111067065,801.4009548242998,790.9204455186991
1731653284.866966,847.2081100192107,806.3802431523109,802.3167162380282,798.9874380046343
1731653284.870517,868.8605828783077,810.9031990071974,804.4376200242087,821.3962173863827
1731653284.8708694,878.6389600885278,814.4268992539967,806.4034078669126,838.8075080227869
1731653284.8747728,867.4322320491948,815.0432212817715,807.0917925487921,836.6648109900457
1731653284.8765612,842.2883571204062,812.243721722729,806.4257656226932,816.3536714729333
1731653284.878676,820.6344092617131,807.4523020909674,805.4071022304479,792.8240528383344
1731653284.882579,816.1987327807151,803.291609508243,805.2943068759182,781.25822418949
1731653284.8840284,828.2501704145219,801.9886828999096,806.5313815792304,784.542743568205
1731653284.8864827,843.0217427833232,804.0664035521628,808.3080081464075,792.2096622966159
1731653284.890386,845.8461144346039,808.2413718171634,809.1584258346898,791.1435317951409
1731653284.892171,833.4794389399929,812.4338859910066,808.1206712530685,778.0173902157147
1731653284.8942893,816.21921596347,814.977466982753,805.4769464152921,762.3180517274669
1731653284.8981926,808.4580724825144,815.2244256147568,802.4685403939471,757.5806948482538
1731653284.902096,816.1519003693837,813.476822100921,800.284757404045,768.8545724659275
1731653284.9029038,831.8851962376951,810.6503125120431,799.2241865745582,787.3574602218348
1731653284.9054344,841.4078955903399,807.923574048609,798.7000969055264,796.8582176060122
1731653284.9059994,835.8869221328431,806.2966309120052,797.9721289706872,786.5894705500733
1731653284.9077806,819.5660266108223,806.0529564832407,796.8763720050706,760.347800319198
1731653284.9099026,806.4048494272075,806.5033420059046,795.9177007844581,734.4594876503202
1731653284.913806,808.3384130609616,806.4476906882171,795.7327282429108,725.8842258788558
1731653284.9177094,824.862289437984,805.1985350440198,796.4877641728553,739.4257986948378
1731653284.9216125,842.8368129054905,803.3083582981337,797.7464163356841,763.9039297591853
1731653284.9217792,847.023171391581,802.2195323527731,798.8410790380241,780.3069153168177
1731653284.9233904,832.7678372062396,803.0369573281442,799.3549121891122,775.6687677864852
1731653284.925516,810.271852797066,805.549295440676,799.332294255585,752.1035911764293
1731653284.9294193,796.8109782059247,808.4602173170878,799.1541151157368,724.4085892741239
1731653284.933323,803.1794841614026,810.6263262229553,799.2706792545927,708.5433824582102
1731653284.9372258,825.1885613174837,812.0943524086316,799.9965788267818,710.0739727726927
1731653284.939,846.7685864777194,813.8960688217701,801.4355905052431,721.2576233940187
1731653284.9403515,852.0347063265388,816.7458749747688,803.49103535383,728.455642675923
1731653284.9406548,837.0121114112229,819.8760068582072,805.9010808372038,723.5695674800289
1731653284.9411292,812.2846482041773,821.215143098103,808.2862262013759,710.2879673394928
1731653284.9450326,794.6882456926986,818.9469384985026,810.2331570030668,700.1944236451607
1731653284.948936,794.3260112683082,813.1857728379345,811.4143330098188,702.0097923545155
1731653284.9528391,806.9124597876946,806.2679103626027,811.6811825757326,713.1367405891552
1731653284.95461,817.6382729913715,801.2718273423071,811.0565882222869,721.2150946112866
1731653284.9567423,813.621587074046,799.9052133912053,809.6345070924748,715.0684983238758
1731653284.95953,794.7281810999505,801.4656085658706,807.4997635264282,695.8789531718039
1731653284.960646,773.6472421392566,803.6845035334461,804.7838160466466,678.4073205083098
1731653284.9645493,765.1423816464622,804.6932006828993,801.8351336366264,680.1755018755026
1731653284.9684525,773.6237383688989,804.4514328411111,799.3195593090792,706.9963973274108
1731653284.9702196,789.5191801468447,804.49143219081,798.0516108450813,746.8215592407049
1731653284.9723558,797.3286274328241,806.2851456203321,798.5578141022925,777.3208824063681
1731653284.9752688,788.4613359076641,809.6890020613854,800.6476642619836,781.5595463614231
1731653284.9762592,768.2098656941688,812.795178138271,803.3603690838904,759.7961315957824
1731653284.9784057,751.2352321320287,813.2807438749428,805.4272162697706,728.5892506998803
1731653284.9801624,749.3152766521608,810.1090631888862,805.9882762856638,708.1728650894191
1731653284.9840658,761.3751410448408,804.240090395394,805.0712519306736,707.8789977626043
1731653284.9858294,774.126042297237,797.9115924602467,803.5027805797321,720.7043218840594
1731653284.9879692,773.1271094893788,793.1894909508508,802.3456529384855,730.8626649812027
1731653284.9918723,755.2978457989741,790.9055730196749,802.2701726423982,727.7763063074049
1731653284.9957757,732.2280323120807,790.6038503414752,803.2405336794757,714.7988139724273
1731653284.9972813,721.0773417325647,791.2799057253002,804.6312384000412,705.5612219630572
1731653284.999679,730.460086657998,792.2193155040093,805.641567403305,711.4465396951756
1731653285.001439,753.1891016597832,793.3549956376639,805.7697347770535,731.1795210774354
1731653285.0035825,772.0108314432174,795.0217265618329,805.1004955713875,751.4794508445251
1731653285.0074856,773.5146451438892,797.4092973372026,804.2256192112656,758.1423613204532
1731653285.010186,758.7067682710102,800.1647667458478,803.806778718377,748.0788420538167
1731653285.011389,741.7596056114013,802.4370901137776,804.0692147682175,732.0609597428099
1731653285.0152924,738.2776732100652,803.3290556256378,804.6485378818431,725.7028809997622
1731653285.016157,752.7938251777109,802.4445554526868,804.9736029467922,736.0767702066676
1731653285.0170488,775.5206318655993,800.1777767300862,804.8771527628683,755.2763813679321
1731653285.0191958,790.7267354494303,797.596118295042,804.8565902879783,766.805767099008
1731653285.0230987,789.7381339938016,796.0313139316647,805.6958201594609,759.9308808982299
1731653285.0270023,777.876812083916,796.591998160537,807.7639495364928,739.8004051665567
1731653285.0309055,769.608702324271,799.7308307297625,810.6208112827366,723.9444889179963
1731653285.0326586,775.9160077311213,804.9401518730842,813.2755344129133,727.2556106100571
1731653285.034809,794.4743706484437,810.730661119008,814.8682854417419,748.0978656107076
1731653285.035032,810.9918911692138,815.0895526206294,815.2161100145915,767.968957942859
1731653285.0387125,810.7929276466028,816.3756777050297,814.8139303065079,765.749172704981
1731653285.0426157,791.186734468079,814.1976609941245,814.3277041508836,735.004662419729
1731653285.0451033,764.4493897603586,809.6698127684845,814.0084914062387,690.124237299588
1731653285.046519,748.8105327264408,804.7980945357899,813.5132373986017,656.2510935104663
1731653285.0482686,754.4254683217503,801.3501577526504,812.2783325050492,650.8978254122967
1731653285.0504222,775.3640404376343,799.9181433105861,810.1086118587663,671.3895610076172
1731653285.0539074,794.1151092432679,799.7542148812801,807.452018407329,697.5621033931448
1731653285.0543256,795.398146831304,799.4713824788125,805.1341034631165,707.498831595116
1731653285.058229,778.488538584122,798.1418210875865,803.8326326329963,694.1738391756156
1731653285.0621324,757.9285105879949,796.0132458906131,803.7598465685063,670.0396073218748
1731653285.0638783,751.5695805587166,794.2771547176349,804.7187506645084,655.9183373444629
1731653285.0660355,765.4713028398955,794.0347209906222,806.2947291426055,663.2171733368201
1731653285.069939,788.2514477496826,795.3040604324794,807.9149662828304,684.1579008665801
1731653285.072783,799.9104224785843,796.9400242937282,808.8411776181104,698.1661336744309
1731653285.0738423,788.1088525057665,797.5745689783324,808.3714073105166,689.0398890609071
1731653285.0777457,758.6073773214164,796.779122576521,806.291492125091,658.571954374721
1731653285.079488,731.3081971004463,795.4333412677064,803.206667559136,625.4534669444472
1731653285.0800204,724.9739778675163,794.9685926617691,800.3320163161335,610.5037525158637
1731653285.0816488,742.7433419689522,796.1320990718934,798.7627939349826,620.2297700241619
1731653285.0855522,769.9546062720667,798.3337028718089,798.7527020003082,641.8364558511399
1731653285.0894556,786.0715938036058,800.1399455175837,799.5849716020836,653.6375723908188
1731653285.0916584,781.1742445045842,800.498242898518,800.155546966186,642.6045718651317
1731653285.0933588,763.554768520561,799.64311180512,799.8092998903178,614.9584136785863
1731653285.0950978,752.0743617204236,798.9029900013078,798.7723752036226,591.076882142594
1731653285.097262,759.6953741947586,799.5757475097034,797.8648461364503,588.7436788678812
1731653285.1011655,782.2456851556119,801.8519136477012,797.7692069873078,608.618733015265
1731653285.1050687,802.0662387710271,804.7108530747057,798.4808528911077,634.1377819396943
1731653285.108972,803.3430218662085,806.8374975632621,799.3903380655045,645.8201779951657
1731653285.110534,785.9121481130403,807.7087595610672,799.90389218483,637.6533227859475
1731653285.1107075,765.8086039266746,807.8977839867468,800.0582065648754,621.6271472433641
1731653285.1128757,762.1211936359061,808.3929128870241,800.588109240653,616.8279646844381
1731653285.1149378,780.9900147134044,809.5980091884486,802.3475444378676,632.5691770015566
1731653285.1167789,809.8256776308461,810.9032555886698,805.5228325224225,659.8323554612416
1731653285.1206822,826.6893274589344,811.1760960637042,809.2911599944395,678.235806657326
1731653285.1245854,817.6885874337199,809.7534716728617,812.257636230397,672.8642591074317
1731653285.1263173,788.515641289249,807.139085987554,813.363497787095,647.0345564077184
1731653285.1284888,760.460830704118,804.8414728788651,812.541364608248,620.2220944031277
1731653285.1294093,753.6322731217773,804.4069442234079,810.6072037996,612.5657028235167
1731653285.1323922,770.8749542433292,806.2926084314689,808.5434136337741,628.6067945100725
1731653285.1362953,795.7383392093947,809.4073332369187,806.8147696805352,653.7070872020287
1731653285.1401987,806.3374334067837,811.7377565231923,805.2348057576431,666.1315749020482
1731653285.141927,793.6081440374346,811.6794418356507,803.3547566634335,654.8503882476228
1731653285.144102,768.7908767825618,809.1134251759399,800.941170605431,628.5527815252786
1731653285.1480055,754.130192177755,805.4421455651684,798.1691277895408,608.7738193479557
1731653285.148285,764.6599657471882,802.6149439703734,795.5050652691706,612.9029110322834
1731653285.1498551,795.8376813660815,801.9127238337145,793.4870883086601,640.602324434945
1731653285.1519086,826.6810065622244,803.3173178315035,792.5644483805703,674.1107671351617
1731653285.155812,835.8039200210958,805.7406488497268,792.9995040906457,692.0102026002083
1731653285.1575367,817.9156859997167,807.7895129164735,794.7852076907101,685.6921717549566
1731653285.1597154,787.9784319659966,808.5181399877869,797.5998339466553,665.6059283762834
1731653285.1636188,769.5832708749982,807.7781214490221,800.8635345245754,652.2444017141299
1731653285.1671605,776.4906662042415,806.092530726016,803.9013997161144,659.0792035438526
1731653285.167522,802.079096759458,804.259934769812,806.1284992384254,681.5164894594577
1731653285.171425,825.3825990740454,803.0013437860421,807.1622795577683,701.1922122938739
1731653285.1731465,828.7899458054889,802.8320390810923,806.8505342309381,702.0150385038279
1731653285.1753287,812.6425220651337,804.0762906057114,805.2877540986185,684.2898556883931
1731653285.179232,794.5573501288374,806.8167358117155,802.8749090751153,664.8840206367948
1731653285.1831353,794.2247059150154,810.7262888193134,800.3559544533923,663.2828150186575
1731653285.1847725,816.5295592566753,814.9665980879964,798.6725311096908,685.1556445133025
1731653285.1860356,846.9801836263355,818.3500170665852,798.5657881082793,716.9440869683617
1731653285.187039,863.1284255706604,819.7511445765579,800.1043264459647,735.969281948505
1731653285.1887562,852.6922582706206,818.576962325707,802.5089383900983,728.1942071104079
1731653285.190942,823.7032394719591,815.0898524563902,804.5366984635782,699.5569847601664
1731653285.1948452,798.2959149544067,810.4245626987237,805.2747812617656,671.4579069414024
1731653285.1987486,794.9638140259985,806.1961055185382,804.7912284450666,663.47255138131
1731653285.202652,813.791959772936,803.7688266548159,804.091381152983,677.233417642042
1731653285.204366,837.0048408905659,803.5503819081902,804.324848401261,695.2399070358498
1731653285.2049112,844.3812170999677,804.80857091639,805.8107662885915,696.1221410213634
1731653285.2065554,830.4359193937004,806.2123500964228,807.6610991046615,673.5475328526754
1731653285.2104585,808.8239917127469,806.728462777499,808.3542341994328,642.3632869434476
1731653285.214362,800.4521557538745,806.1928075425686,806.8543981676303,626.4214202042718
1731653285.2182653,815.5943714034727,805.1686209318201,803.4115123092298,638.4312807798591
1731653285.2196896,845.0548661279923,804.3380958829819,799.4257977536043,669.053828372234
1731653285.2199757,867.4838956606222,804.01206015674,796.5223120329815,694.4343811203144
1731653285.2221684,866.5316135510456,804.0855125876683,795.5813627218384,695.7996883140098
1731653285.2237866,843.7761201862602,804.2929799132638,796.4027189004963,674.9210542846773
1731653285.2260718,817.0779184395127,804.446070529643,798.0836725606445,652.8221953379975
1731653285.2299752,805.8166103133809,804.500794382556,799.6602097618406,652.7045569654061
1731653285.2338786,815.0650821533441,804.5006201318732,800.5294228906403,680.8601073509165
1731653285.2355857,831.7924274584536,804.4987660883353,800.5330221349482,721.2833546355664
1731653285.2377818,836.4520492153242,804.5191664332734,799.8925084571384,748.8315282545537
1731653285.2416852,820.3611505541172,804.55814044456,799.1606235396339,750.3862659498641
1731653285.2426622,794.0209545830527,804.6024130571515,799.1234256565629,736.2901315671613
1731653285.2455883,778.9092640833458,804.6428710309913,800.4936306785992,731.9948424634043
1731653285.249492,789.3188384390489,804.6778802460906,803.4263982993468,756.3855154655546
1731653285.2511952,819.4735451372488,804.7100399208985,807.1701978790928,804.6323489483353
1731653285.2533953,846.9699073934505,804.7421428135019,810.2206273505697,849.9215359766608
1731653285.2546067,850.1452237986286,804.7753179495667,811.0470487933909,863.0947258200049
1731653285.2572985,825.4710681698836,804.8092717774012,809.002295464289,834.9000979787377
1731653285.261202,790.817850733623,804.8432805270543,804.7852008643455,783.6462156590787
1731653285.2615376,771.5903609002055,804.8768854266459,800.0689948801303,742.5986902322396
1731653285.265105,780.5153224131728,804.9100259578253,796.508220388281,737.0770582321128
1731653285.2668047,807.31837857476,804.9428485038686,794.8110925670825,768.6807342895734
1731653285.2690084,826.9416107376718,804.9754950560804,794.4991939390757,817.6390080567372
1731653285.2729118,819.9685451776731,805.0080149493742,794.4410520401439,859.3230423037339
1731653285.2768152,788.705309276411,805.0403837987215,793.7179633849398,880.3475144602153
1731653285.2804132,755.7168854717507,805.072556115027,792.2508056961839,882.6476525845195
1731653285.2807183,746.0003110090269,805.1045004000246,790.8594819960747,876.259247935507
1731653285.282415,767.2814773185391,805.1362077514008,790.7675700135842,870.017026784427
1731653285.2846217,804.1081236676237,805.1676872289117,792.8279079194892,867.3354655429373
1731653285.288525,830.008203977206,805.198958122832,796.905698342527,867.3664373645119
1731653285.289524,827.7356793362351,805.2300369640993,801.8421755189628,868.0251076319494
1731653285.2924285,801.7648462942492,805.2609146999418,806.0987122390452,868.0193488679528
1731653285.2963316,773.7231870330334,805.2915348996527,808.6524717861118,867.2124392681889
1731653285.298025,764.8684308299958,805.3218056699783,809.4644737208513,866.0523750269407
1731653285.2992885,779.6596720582762,805.3516763698581,809.2246434537333,864.9597063346
1731653285.300235,803.4093461466084,805.381256703028,808.7238894605466,864.0810633459629
1731653285.3041384,815.6735282874109,805.4108622269509,808.4084801501895,863.3542001320651
1731653285.3080416,808.1466599593389,805.4408219308041,808.3362500648726,862.6664023542725
1731653285.311945,791.8688257280797,805.4710111147153,808.3744734618821,861.9540810653988
1731653285.3136344,787.3831284788048,805.5004237807343,808.3955287663928,861.2148676233
1731653285.3158484,806.1304654900673,805.5274585806321,808.3550622988078,860.4745444598483
1731653285.318164,839.1941286704747,805.5514493956044,808.2726630578384,859.7552268540671
1731653285.3197515,863.4351030896627,805.5748667128453,808.1833123833444,859.0639662040292
1731653285.323655,860.2582199113392,805.6038793743401,808.1068037556894,858.3972567437911
1731653285.3244412,831.4338602332318,805.6442844681047,808.044057775609,857.7495648457448
1731653285.3275585,798.618863628342,805.692575934544,807.9873205480936,857.1182520692054
1731653285.329244,786.5301905933553,805.7286812904453,807.9299639230679,856.5038541805907
1731653285.3314617,803.2357370529448,805.7231211559472,807.8699932715793,855.9081695772929
1731653285.3353653,833.7307135658878,805.6672647563526,807.8086595345695,855.3326041844947
1731653285.3370397,852.3876691488804,805.6131785641332,807.7478344233616,854.7777141458795
1731653285.3392682,844.2619698203908,805.6773792356822,807.6884941126985,854.2436404138425
1731653285.3431716,817.4835569831516,805.9536555358361,807.6306268380749,853.7307017428946
1731653285.344854,796.1079974711961,806.3364595183835,807.5738102518782,853.2395598643905
1731653285.347075,799.3576917979225,806.3787970386597,807.5177158969943,852.7707541967984
1731653285.350978,824.9610055723352,805.3933681384522,807.4622671310569,852.3239047920233
1731653285.3548815,850.7734257386596,802.8848140062256,807.4075494079607,851.8974111573968
1731653285.3559148,853.1278686251445,799.0792627637204,807.3536701645891,851.4896331512164
1731653285.358785,826.3852188669493,795.1068503438509,807.3006845834199,851.1016683022389
1731653285.3593583,787.7350795118977,792.5711288382921,807.248596046092,850.7397442171414
1731653285.3604636,763.8105839653746,792.6763763961324,807.1973883980912,850.4132460368472
1731653285.3626883,770.1061301056499,795.4239543898743,807.1470517176997,850.125489457748
1731653285.3665917,799.3559052503292,799.4142990628186,807.097589183275,849.8610525486159
1731653285.3704948,827.7582921282258,802.486311221737,807.0490115173807,849.5835217667279
1731653285.3743982,834.053958292523,802.9211718104686,807.0013295552869,849.2607377310563
1731653285.3747904,816.3791849986753,800.5088650728256,806.9545506438714,848.9173150274003
1731653285.3760734,793.3822003437942,796.7523954545214,806.90867893065,848.6742698471359
1731653285.3783016,788.5335643513483,793.9920285164608,806.8637171384208,848.701061075541
1731653285.3822048,810.2542276440566,793.983244369202,806.8196678642237,849.0336178348363
1731653285.3861082,844.1913394669521,796.8898287305706,806.7765338573024,849.345236234865
1731653285.3900115,864.2552877843949,801.3675648316931,806.7343176800987,848.9412483953897
1731653285.391683,853.6500697864657,805.598729203646,806.6930213119017,847.2832155603041
1731653285.3936658,818.8418445584771,808.4537459008538,806.652645971977,844.9866315649034
1731653285.3939147,785.0939224948931,809.9572744497189,806.6131921444692,844.4808934081844
1731653285.3942757,777.0352451622571,810.8621980430737,806.5746596718358,848.9579191513577
1731653285.397818,799.6495408277179,811.8161476956984,806.5370478171543,858.9715771226633
1731653285.4017217,834.7537193264861,812.8181809576334,806.5003552723477,868.834798587254
1731653285.4056249,855.8097963283428,813.3344263802136,806.4645801366738,867.9151756545742
1731653285.4072928,849.2203759152192,812.8902552066528,806.4297198949357,849.4673755370229
1731653285.409528,824.7668720243944,811.594979245655,806.3957714086545,820.2115682070507
1731653285.4125414,806.4957756392107,810.1314832171734,806.3627309181966,798.6244958624742
1731653285.4134314,811.5975221294116,809.2033982667047,806.3305940485584,799.7488130845355
1731653285.4173348,835.1486434831875,808.9209200598314,806.2993558137995,819.983655799339
1731653285.4212382,853.8673600789257,808.6921053946048,806.2690106192257,837.5995253109643
1731653285.4229026,845.9298799540311,807.7495951218265,806.2395522627116,830.2426971467066
1731653285.425141,810.1792803424592,805.8611606695406,806.2109739366032,794.5357066393113
1731653285.4290447,768.5482103877637,803.6024152914764,806.183268230726,750.5191880355097
1731653285.429193,749.5744325018945,801.9748883976705,806.1564271363737,726.6245322205955
1731653285.4314167,766.3582649727863,801.7251116775303,806.130442051163,737.2372489062045
1731653285.432948,806.5551645035894,802.9237494208219,806.1053037849409,771.0206383329704
1731653285.4368513,842.1881806126909,805.0726476452022,806.0810025668719,799.574748602681
1731653285.4385123,851.3535915402522,807.5547051867321,806.05752805304,799.7631721970718
1731653285.440755,834.513882739731,810.0222674129776,806.0348693328874,771.8262620251561
1731653285.444658,812.4201457139922,812.4497620921945,806.0130149329359,738.3991189346688
1731653285.4485614,807.6709177433223,814.8805302943773,805.9919528189048,725.1144539514603
1731653285.450292,825.4627631563047,817.1191552241579,805.9716704019878,739.0548851230876
1731653285.4524646,849.6706334107496,818.6222242529844,805.9521545574692,763.2998702583404
1731653285.454122,857.2925805046334,818.6697372239131,805.93339165757,772.0359819500493
1731653285.456368,838.7464234693682,816.7054323524513,805.9153676029947,753.1419970245068
1731653285.4602714,806.7677724329233,812.6430455428823,805.898067819679,719.0510308009241
1731653285.46411,786.4236440087567,806.9862004988818,805.8814771941333,696.8373244292399
1731653285.4641747,794.5150776702312,800.7477923115811,805.8655799754798,705.7820765853559
1731653285.468078,825.3669429213506,795.2552530385369,805.8503597587077,740.7876550951956
1731653285.4691677,854.8295782896411,791.8929945436736,805.8357996982508,775.2083662104587
1731653285.4697318,859.5904551739239,791.7299491300745,805.8218829646819,781.180343442897
1731653285.4719813,836.3315412811919,795.0141404642994,805.8085931215826,751.4880347405775
1731653285.475885,804.9045550577563,800.7605872631503,805.7959137879939,705.3142493930727
1731653285.4797878,792.2840402354107,806.8563877471354,805.7838271492849,672.7303811515303
1731653285.4836912,809.9637726682388,810.9052519232752,805.7723119740995,670.2006373818008
1731653285.4853415,843.5081932217714,811.4568751475899,805.761343386142,687.3556405954378
1731653285.4875946,863.3980334319824,808.8135430862808,805.7508970722985,696.281084850615
1731653285.4880433,848.7130613189886,804.7770472078802,805.7409577172875,675.6606039570747
1731653285.491498,804.5030664914062,801.4535156513114,805.7315250333062,629.6361536459642
1731653285.4954011,758.8675283085092,799.9696235646821,805.7226054529727,585.862787645317
1731653285.4990275,742.0855074252104,800.0258297151793,805.7141825678929,574.4436213143058
1731653285.4993043,764.0777282296995,800.5243570851434,805.706181116627,604.5492587320408
1731653285.5009513,807.3697971285177,800.6424265751052,805.698468341396,656.843701402539
1731653285.503208,840.5992218959724,800.4313757832432,805.6909403386654,697.3361729084776
1731653285.506919,842.038129593918,800.5353252107643,805.6836806507637,702.0326007519951
1731653285.5071113,815.1385090226082,801.4253526621754,805.677056413007,673.7351293787673
1731653285.5110145,784.2825014454863,802.9025104613523,805.671529481869,638.3022954861889
1731653285.514918,774.3641812064376,804.2761003576605,805.6670790485889,623.4768361050174
1731653285.516561,790.761894241536,804.9639425077653,805.6625597360324,637.2094821585466
1731653285.5188212,815.9881607607695,804.9146023317517,805.6558427659525,662.9519887761446
1731653285.5227244,825.4504079957677,804.5129074465261,805.6455738151697,675.4148701419657
1731653285.525794,808.7338305239583,804.1775770269601,805.6341369000569,663.0846958274387
1731653285.5266278,778.3900226508423,804.0814893344088,805.629115883585,638.220290811084
1731653285.5305312,759.1065603161879,804.1644434051213,805.6391370327673,626.0537763526419
1731653285.5321708,766.7237999890931,804.293344881837,805.6626854473858,642.7927907859157
1731653285.5339446,794.7645384703882,804.383575252591,805.67684130467,681.2711582545074
1731653285.5344346,819.5673070535871,804.4231362907645,805.6422307919149,716.2738148128312
1731653285.5383377,819.6866160225289,804.438389269626,805.5385875146753,724.9895384280796
1731653285.542241,793.5690256955256,804.4556002859449,805.4200919155301,705.5776145175234
1731653285.5446696,760.9065563244816,804.4845490645887,805.4370691345704,678.427999470819
1731653285.5461445,746.4339802568429,804.5218103964567,805.7503091597287,668.9489784322346
1731653285.5477808,759.5306443180403,804.5604239153843,806.3276045006052,686.1188841667434
1731653285.550048,786.6624418246454,804.5962621683151,806.7687121882458,714.836085076614
1731653285.553951,803.0333965755618,804.6289987141184,806.4080118588076,728.7072669488987
1731653285.5578544,793.6041576205348,804.660149698968,804.7718479693839,712.5889084414545
1731653285.5617578,765.7595046816303,804.6910811335789,802.0749214721178,675.8065153737697
1731653285.5633905,743.131729342995,804.7222466694353,799.2653801234235,644.9393432922208
1731653285.563545,745.9596163580568,804.7534306449901,797.4739553561465,642.3550020701898
1731653285.565661,774.2718119847689,804.7842711674442,797.2853079401061,668.2915323059942
1731653285.568862,807.5017797594069,804.8145760771232,798.4359890211432,700.8754750540539
1731653285.5695643,820.7588205002687,804.844351690683,800.1541163819734,713.7176835656114
1731653285.5734675,804.713886087498,804.8736901849119,801.785519699938,696.8207473903617
1731653285.5773711,773.0783978079348,804.9026684901714,803.1488941050188,664.0873298506165
1731653285.5790002,751.415101415216,804.9313187462873,804.382199909412,641.4690948019017
1731653285.5812745,756.2147872198833,804.9596499984553,805.5279012653458,645.4799865751077
1731653285.5824203,781.5228636963462,804.9876741448538,806.2888730795106,669.8672086229046
1731653285.5851777,804.4499782870927,805.0154049058958,806.1625772125504,691.6652831127774
1731653285.589081,805.0846716724113,805.0428320705037,804.816234620084,691.6311031874545
1731653285.5929844,783.9520279951472,805.0699047189025,802.4096646917806,671.7036499472918
1731653285.59461,762.0291251396173,805.0965674060855,799.6496753025203,654.366079807551
1731653285.5968876,763.0438805822058,805.1228606637666,797.531801315116,663.98360346376
1731653285.600791,792.7898971551539,805.1490166738729,796.8825893722768,705.4779260388301
1731653285.601296,832.7927582757593,805.1754006027843,797.922908483571,758.1451966565813
1731653285.6037793,853.9288221496206,805.2021785026847,800.0933829033413,790.1803421068436
1731653285.6046944,839.3805635901226,805.2288338560586,802.2760507210049,782.787635215174
1731653285.6085975,798.5982589822836,805.2540362563734,803.3367090230006,744.9316375814223
1731653285.6102197,760.7546913627416,805.2765205601647,802.7126849118274,706.805162753403
1731653285.612501,752.3864962701373,805.2970385210589,800.7157606678707,696.652517109684
1731653285.6164043,776.8855885096845,805.3199679955512,798.3690932142789,719.0004167279174
1731653285.6201713,812.4844287311846,805.3517857417388,796.8722342222987,751.7356556971772
1731653285.6203077,830.5108974069753,805.3944625840645,797.0069534616662,764.5930936576567
1731653285.6242108,818.9309085748702,805.436644349022,798.8039910661707,744.1607791952271
1731653285.6258297,791.7602913507282,805.4524940405188,801.5948114524249,705.0232217072154
1731653285.6281142,776.7976972477829,805.4200179837156,804.3420160174248,678.0186031896918
1731653285.6320176,792.2073881346295,805.3580097759453,806.0512136036563,685.3403191262266
1731653285.635921,831.381577211392,805.3523834270607,806.1276010949979,722.6797951053068
1731653285.6386964,868.1142590908975,805.5188611782348,804.6108019719331,762.445970528206
1731653285.639047,877.3243529057451,805.8697411928961,802.2011351395752,775.0269989030162
1731653285.6398242,854.4429358755884,806.144760629037,799.968926823093,751.1236357396093
1731653285.6414392,818.2600927106515,805.7845422724271,798.7820242292161,707.8814548629535
1731653285.6437275,795.3749768690456,804.2135905356648,798.7663629253748,674.451525609583
1731653285.6476307,798.8923062671681,801.3279243297491,799.2343424082152,668.7231204325285
1731653285.651534,818.600652080005,797.7682669615931,799.2239976154486,683.9830849140142
1731653285.6554377,830.6681395230477,794.6548482688878,798.2625989492695,696.2597094666191
1731653285.6570487,818.7650369834126,792.9389526307485,796.7241494190156,685.9686237476645
1731653285.6579225,788.7377369338633,792.8424018610759,795.4935609930794,655.3647810429541
1731653285.6593409,764.2181714047384,793.7516667525671,795.2684406102821,626.8749461850015
1731653285.6632442,766.7271448964487,794.6182923791417,796.1124103093543,623.8071633052565
1731653285.6671474,797.0697212945937,794.6081645660563,797.5773932278335,650.0112460771991
1731653285.6710508,833.7391241256578,793.5781271122802,799.1771916891557,685.8362884735138
1731653285.6726587,849.7169311438319,792.071002794097,800.73575466329,703.7873896375406
1731653285.6736135,833.8307832311209,790.8695849119277,802.3303579720313,690.7648771355704
1731653285.6749542,799.3375474341323,790.4695698392756,803.9547266813939,658.5061270219938
1731653285.676798,772.9762100571145,790.8549166686814,805.269554384258,633.719594698591
1731653285.6788576,773.4041172816993,791.6751473382442,805.7165851203536,635.9648960825836
1731653285.6827607,796.3624518684937,792.5893099171008,804.949319476601,661.3682175689527
1731653285.686664,818.6655778563753,793.4553372256086,803.2321283454851,685.8256188108294
1731653285.6882684,818.0046498353639,794.2739583950386,801.422543983178,685.5398101577183
1731653285.6905675,792.3331862197339,795.0872711350838,800.4525707108487,658.021369933194
1731653285.6944706,762.4185403049406,796.0386188780851,800.6612994530662,625.6613571491903
1731653285.6956732,754.9404422716972,797.490852527118,801.5198160891642,618.2837236893175
1731653285.698374,779.9947685384501,799.8698680835635,802.0086267137034,648.81689510131
1731653285.7022774,821.8069091676026,803.1417611878409,801.3729610402883,702.1328780393573
1731653285.7038782,850.5387505915847,806.3783316825036,799.6763690935394,746.2871932978575
1731653285.7061808,845.6773464030533,808.0484912635856,797.7574899673499,757.2084201689888
1731653285.708531,812.1706281311672,807.0878862663328,796.6602095407878,737.2135472999922
1731653285.710084,776.4967792267072,803.9216278778036,796.9562879195129,712.7003520724016
1731653285.7139874,765.892769989891,800.4179947757386,798.4159451524415,712.753284311892
1731653285.7145486,787.1837834086709,798.6166561453801,800.2376882131869,745.477575028288
1731653285.7178907,821.8828079255574,799.2417059507138,801.6402732029434,790.9681569093327
1731653285.719488,841.4041288449052,801.2882057533905,802.3269407926034,816.9342129063386
1731653285.721794,830.2651502710075,803.0174842141467,802.4899018227806,804.8140715581746
1731653285.7256973,798.6011036991516,803.4277373310807,802.4891546000026,765.2833186458321
1731653285.729601,773.7590093874346,802.9161722038747,802.5653088311374,730.2662007335507
1731653285.7334242,777.7594077593361,802.6903376225073,802.7681896945707,727.7557116236993
1731653285.733504,809.0927952180406,803.6146598981767,803.0380255685913,759.9671873122737
1731653285.7350976,843.7548049800621,805.531704154691,803.3064405055029,802.4584601187616
1731653285.7374072,854.5586248276417,807.5130658531776,803.5444647681039,824.4308790524946
1731653285.7413106,832.916442157034,808.677578367856,803.7582969129128,813.3267072267911
1731653285.743448,795.572981655375,808.8707458223182,803.9654262235267,783.9790293753498
1731653285.745214,771.1451142005754,808.7348875558245,804.1772882808616,765.5797427239372
1731653285.7491174,777.4573266410293,809.1835262118334,804.3955839413173,777.5896405492222
1731653285.7507074,807.7768810207348,810.6908853051026,804.6167770093626,814.1865959629293
1731653285.7522995,836.8149364170939,812.9299695282623,804.8372988803894,849.567471251571
1731653285.7530203,841.5695389913462,815.0434246482826,805.0558056217722,859.4389340669715
1731653285.756924,820.0918919337441,816.3052466465198,805.2727580508824,840.9282592455269
1731653285.7608273,792.741336780039,816.581244525906,805.4891137078383,814.5198433001949
1731653285.7647307,784.7833891294348,816.2450120906037,805.7054545103117,806.5836782190545
1731653285.7663171,804.8556537732532,815.7702613460433,805.9218467035104,827.3091547412383
1731653285.7686338,837.478796032388,815.4251388867478,806.1381027603833,862.5387680478506
1731653285.7711751,855.9149505473806,815.2372975135023,806.3540519087127,885.947379437717
1731653285.7725372,844.4284946112444,815.1187548935146,806.5696451257612,880.8534717135501
1731653285.7764406,811.2545094492864,814.988433513836,806.7849241377303,853.3799502134631
1731653285.7783654,781.6553578153355,814.8194179674504,806.9999532244691,826.4742876183798
1731653285.7803438,777.0941919788366,814.6250674905187,807.2147794086535,820.2175648894658
1731653285.7819269,797.8237822313995,814.4277653471366,807.4294286119657,834.7899344353732
1731653285.7842472,823.1317993283945,814.2398098288478,807.6439134884805,850.099957774617
1731653285.7881503,828.9109413659025,814.0614893835105,807.8582323693043,842.6197979227895
1731653285.7900505,807.9914932706059,813.8877548910608,808.072362543054,805.9031226669779
1731653285.792054,776.2970468775089,813.7144208333023,808.286271573409,757.710958570382
1731653285.795957,759.4962000566321,813.5402901309228,808.4999655897515,727.0531020283837
1731653285.7975368,771.1427349097638,813.3661994353808,808.713553397709,731.0657180127362
1731653285.7998605,800.7014836438505,813.1933373143327,808.9272492654957,760.77300305312
1731653285.803764,821.7593186954776,813.022300779461,809.1412250100408,788.0133127700258
1731653285.8076673,813.7360229728814,812.8530588170452,809.3553254089117,788.2317676256424
1731653285.808926,779.0421178710795,812.6853288071763,809.5688801684248,760.4105366730947
1731653285.8115704,741.523514933039,812.5188953774418,809.7810150015563,727.7221046678819
1731653285.8131466,727.5531935355903,812.3537050061598,809.9916722266709,718.4227787094231
1731653285.8132827,745.1172761533348,812.1898042206846,810.2027983600501,742.5689691420957
1731653285.8154738,777.6155590031146,812.0272481299387,810.418193402259,783.4224880516012
1731653285.8193772,797.2960692541412,811.8660534861699,810.6404649208349,810.6310182186086
1731653285.8232803,787.6392077192518,811.706202908688,810.865672649523,804.7417044493873
1731653285.8271835,756.6856264925975,811.547673205793,811.0803806009029,773.1487179781161
1731653285.8278017,730.3486146535744,811.3904589833163,811.2685817002525,744.210025649916
1731653285.8287563,731.0465525695874,811.234573353008,811.4314817491255,744.1664125700527
1731653285.831087,759.26543744699,811.0800207865325,811.6083084415294,775.8465796929472
1731653285.8349905,793.3300331785979,810.9267563076374,811.8688467016791,816.5997412714693
1731653285.8388937,807.4508330145914,810.7746702629988,812.2497887781838,836.7738883515756
1731653285.842797,792.9470816768828,810.6236481545325,812.649028277747,823.2329656904208
1731653285.844366,765.2176752426715,810.4737136786516,812.763878453932,788.9225347137119
1731653285.8466768,751.0764365908552,810.3251566779786,812.1847008766374,761.5111598857821
1731653285.8467004,766.9771650841757,810.1784413232753,810.646721503763,760.9499931858
1731653285.8481998,805.548320818526,810.0337378760149,808.2691289643769,783.8780100280168
1731653285.8506038,840.9716025804347,809.890259949604,805.5792812872824,806.7659031378281
1731653285.854507,848.9620179802323,809.7461125563243,803.2664999244498,805.0137509860999
1731653285.8584104,825.6871781150461,809.5995490892757,801.7762345615666,772.956674443207
1731653285.8599758,790.5913770180298,809.451678805981,800.982649069981,728.8898775878714
1731653285.8623135,770.7131375494635,809.3086131770453,800.2334913262939,700.7911702064516
1731653285.8655524,779.1020433224695,809.179186909179,798.8712153796222,703.9299637082215
1731653285.866217,804.9921242604228,809.0656969340507,796.8991102285355,728.5734852590666
1731653285.8701203,823.7687410244545,808.9518620116864,795.1900119921548,748.1544788594275
1731653285.8740237,818.2254268811457,808.8018246692225,794.923336514217,741.4526336918194
1731653285.8755856,793.1939201241735,808.5863116198558,796.61605859597,710.548833266562
1731653285.8779273,771.4238919795229,808.3340030662557,799.5463731141937,679.6793315260228
1731653285.8818302,774.454777975562,808.1670390374419,802.1069039076605,675.8593540919722
1731653285.8831172,804.5204860603018,808.2485057421198,802.8760121355386,706.9734317567371
1731653285.8844278,842.2924940651721,808.6030204877861,801.6087991551703,754.882798563161
1731653285.8857336,862.216954983656,808.9076320496138,799.404802770431,789.00714542824
1731653285.889637,853.1110691521305,808.5006801359705,797.9406911787142,789.6678891210436
1731653285.8911953,827.3710297940509,806.7681408761634,798.3551916075972,762.6967121966956
1731653285.8935404,810.9317078265809,803.6746811293991,800.5988654339753,733.5519300965409
1731653285.8974435,821.6386587857328,799.9608002515341,803.6453145572906,725.7465676820857
1731653285.9013467,853.762979648641,796.8100181040314,806.2595878690846,741.6960673560591
1731653285.9033034,882.0243954076697,795.2421988691659,807.6479954483124,762.3851955837482
1731653285.9052503,882.3444631527716,795.5970096447314,807.5832946125159,766.0066464516917
1731653285.906805,852.1137546983861,797.3206766614596,806.1841181542163,748.8808093470003
1731653285.9091537,812.8261263974599,799.1643231216547,803.7864442662539,729.8557765997424
1731653285.9130569,792.7499716597586,799.8046301345754,801.0332343211462,734.1134922705826
1731653285.9169602,804.0938633445018,798.6431858472928,798.8653481573376,770.5112513474817
1731653285.9180343,833.5451201020403,796.2746424903632,798.1196070008834,822.0605547853863
1731653285.9208636,853.7069033147991,794.195031703145,798.9429495885225,857.6816578761618
1731653285.9221787,845.7402428927662,793.8427245669436,800.6032825573949,855.6217598848812
1731653285.9224148,814.6374102706886,795.6341438581246,802.0092254787997,819.8052544271223
1731653285.9247668,784.7988748979556,798.7317292501958,802.5630331153089,776.4177475237922
1731653285.9286702,779.6246001162648,801.7104562756597,802.5926745721752,753.6003935513854
1731653285.9325736,801.9202890257707,803.5386910591726,802.9718137191892,760.2027709777924
1731653285.9364767,831.5203249918662,804.0795954655553,804.2909537772532,780.3473932617468
1731653285.9380243,842.4434616954139,803.8548710917676,806.3298133224326,788.1476090065198
1731653285.94038,825.3104251283992,803.4774259674181,808.242920356347,770.5128329011297
1731653285.941054,795.8375927118236,803.275811673501,809.2018534312483,738.9206630285628
1731653285.9442835,781.773064952454,803.2715612407059,808.9076470295968,719.9057991178598
1731653285.9481869,799.0543903510513,803.3474373669077,807.6338889584821,731.9663673223455
1731653285.95209,837.3444545612729,803.4019569184882,805.9376071723161,768.4272536447836
1731653285.9529517,867.3729749856751,803.4045026329696,804.394123384485,801.1740058658236
1731653285.9536345,864.3696767767301,803.3742567692143,803.5303507287146,802.815521262874
1731653285.9559934,828.5511880295936,803.3398755546476,803.819665837385,769.3260577745241
1731653285.9598968,785.866798052805,803.3161866284986,805.5227681340056,724.4441926247067
1731653285.9599297,767.987107559359,803.3027974952471,808.3927674805519,701.7190284021316
1731653285.9638002,787.2612356411752,803.2930023703155,811.5343461919425,718.3157644793658
1731653285.967703,826.7805457714431,803.281553819062,813.6809015216135,761.7455259120821
1731653285.969244,853.8967899747151,803.2670916478519,813.803840963877,800.4640930919581
1731653285.9716067,846.5731915385634,803.2507580999348,811.636365427752,809.6988813914452
1731653285.97551,811.2125152192996,803.2340392845398,807.7405258079839,791.0765030253402
1731653285.9788053,777.3483455450719,803.2176228937547,803.1396761048234,769.7064994539047
1731653285.9794135,773.5368286144193,803.2014065375582,798.8668503875568,771.3511400798678
1731653285.983317,804.1564655348631,803.1849953366967,795.719734849768,799.0631269487176
1731653285.9848535,845.8249007938408,803.1680986197508,794.2011166828976,828.9527667003256
1731653285.98722,865.9469968855882,803.1506351113857,794.457761999981,828.6393968622658
1731653285.9878688,848.201132200785,803.1326472533576,796.1707882551206,783.352837013685
1731653285.9911234,804.784918323707,803.1141879605894,798.563666827593,708.8271386979293
1731653285.9950266,766.3019726965862,803.0952677000176,800.6830771136806,641.0727126351381
1731653285.997681,757.9123313109017,803.0758610377235,801.8607844258888,611.3452662529044
1731653285.99893,780.7818212366029,803.0559322696189,802.0399769745763,625.6554038805546
1731653286.0004635,813.1155688979203,803.0354476819332,801.6978684468856,663.8372648031813
1731653286.0028334,829.1649649315115,803.0143695595916,801.419057648638,697.487700499221
1731653286.0067368,820.2450866773366,802.9926499625977,801.4847886826914,711.606993566881
1731653286.01064,800.5593001972883,802.9702468206618,801.8031898646275,712.8856523759443
1731653286.0145433,793.5434555949823,802.9471652752388,802.1399875009747,719.422059263991
1731653286.0160732,810.7314185592642,802.9234890957906,802.3530916610952,742.1040357167446
1731653286.016556,841.108291191613,802.8993378580782,802.4460404946074,773.9849469122014
1731653286.0184467,859.8041862408138,802.8747129384791,802.4914797540805,796.0516462393123
1731653286.02235,848.8184668363655,802.8493104977299,802.5492031528412,793.2788804087116
1731653286.022786,812.6479072696753,802.8225312818176,802.6370402424872,766.5455941147592
1731653286.0262532,775.8620165862595,802.7939347259298,802.7439415419087,730.7784772486629
1731653286.0301566,764.2353701328417,802.7640663833675,802.8534450081747,702.6502991121255
1731653286.031683,784.4303092277,802.73495058999,802.957078563152,689.6755466952359
1731653286.03406,818.7144292216748,802.7090877236716,803.0551069339757,688.8382200609038
1731653286.0354316,839.286573087796,802.6864296516095,803.1513865420617,692.675292801362
1731653286.0379634,830.766111855862,802.6610471111206,803.2489074116708,695.5556036475648
1731653286.0418663,802.3791955779019,802.6219215811565,803.3484174833667,695.8171051118929
1731653286.04577,779.6196079740174,802.5621710963218,803.4492319275629,694.4327662912118
1731653286.0472927,782.3017045185419,802.4944534136819,803.5504761151147,692.8645898804663
1731653286.0496733,807.5433190360952,802.4582480151482,803.6517383221842,691.8596738258452
1731653286.0535765,832.1042330331985,802.497345927209,803.7530607473246,691.3872359132015
1731653286.054307,832.0524639517361,802.5997894525975,803.8546515829653,691.1001314986837
1731653286.05748,803.1584869191865,802.6348048822431,803.9566571859461,690.7317271060634
1731653286.0577033,765.0126429562177,802.3653302805212,804.059102957106,690.2164522147413
1731653286.0613832,745.4760710585882,801.5902441517368,804.161944445582,689.6160754622816
1731653286.0629027,758.1505027937076,800.3383539117053,804.2651341230419,689.0084825291884
1731653286.0652866,791.2053068538232,798.9308333552563,804.3686517982514,688.4298127010109
1731653286.0691898,816.8161646519994,797.8379793395746,804.4724973043195,687.8756801251997
1731653286.0730932,813.7907017860965,797.4625932976157,804.5766689320297,687.3270274421498
1731653286.0731823,784.9742866913426,797.9995875997985,804.6811515270899,686.7704123149728
1731653286.0769966,754.988248342633,799.3911617034046,804.7859265763798,686.2032221424802
1731653286.0785124,749.9613581212749,801.3530640308223,804.8909995281278,685.6291461316597
1731653286.0809,775.8886767133646,803.4693379181184,804.996419633379,685.0522847836385
1731653286.084803,813.4082894821104,805.3097055211482,805.1022554947007,684.4743605683731
1731653286.0887065,833.1760394968834,806.4940241363313,805.2085080560533,683.895025832845
1731653286.092058,819.2185036934628,806.7266000596616,805.3150076735374,683.313335053496
1731653286.09261,781.5292712420735,805.9099522917237,805.4214241772825,682.7287955143057
1731653286.0926206,748.1834531889394,804.316567046867,805.5275241544811,682.1415170133266
1731653286.0941222,743.4866894817957,802.5773158580939,805.6336283878103,681.5517671757182
1731653286.096513,769.3126096535312,801.3082847912206,805.7408696217794,680.9594835416284
1731653286.1004164,804.1034057583538,800.6025421466084,805.8506112094213,680.3642132957858
1731653286.1043198,820.3027928552667,799.9048210999958,805.9627589002263,679.7656917326325
1731653286.1082232,806.4969596530365,798.5290033739197,806.0739518028965,679.1647863226965
1731653286.109732,776.50195926806,796.4496390033238,806.1781021082948,678.5638846066299
1731653286.1109333,757.8487528190636,794.6485745988813,806.2716148444292,677.9655166075171
1731653286.1121264,768.8716885232759,794.6167970812475,806.3619085616781,677.3689613548167
1731653286.1160295,803.131100729633,797.3095425211752,806.4712312644764,676.7671282218531
1731653286.1199331,834.0120238227893,802.299138863785,806.6239895328939,676.1485983661928
1731653286.1238365,835.82174815241,807.7326363076527,806.814158999682,675.5086795130821
1731653286.1253417,804.339286812359,811.1736785172714,806.9737867247478,674.8653461528539
1731653286.1275375,760.4614904905457,810.8977040550257,806.9900006017396,674.2633723640822
1731653286.1277397,734.2998118634963,806.9551617806342,806.810695639444,673.7449911158044
1731653286.129809,742.4045928204894,801.3615913818719,806.6045867710664,673.2853319869987
1731653286.1316433,775.8567340959426,797.1457449691103,806.8202852409323,672.7397667749519
1731653286.1355464,808.3163347811269,796.6534705012014,807.9405852194263,671.8954930731098
1731653286.1394496,817.4590762222399,800.1139369954656,809.9341033018547,670.6906173326918
1731653286.1409514,802.5021200282259,805.4603664786082,811.8597044393936,669.5043727338253
1731653286.143353,783.5009667939466,809.5865020961542,812.2583470039579,669.1907072533245
1731653286.1472564,783.0936574662434,810.1993154909569,810.308789123139,670.4652511838102
1731653286.1486845,806.2496925721371,807.0506920828774,806.7584728498169,672.676797864362
1731653286.1511598,835.4420640867015,801.8643616767196,803.6357152788889,672.9257617508088
1731653286.155063,845.529489632574,797.1965490941154,802.8612516888494,667.2499670454491
1731653286.1565611,825.7445872088022,795.0553323587013,804.881722152646,654.8304990309879
1731653286.1589663,790.0649600097641,796.0545004698557,808.3810174339676,642.9071526957621
1731653286.162455,766.9632285664338,799.4016194502952,811.2157426625921,646.3105519609105
1731653286.1628697,776.6811016320692,803.5194845664604,811.8296686666525,677.4171030272211
1731653286.166773,814.4987650503377,806.8572101400159,810.1579111097046,732.634183127616
1731653286.16756,853.7386124702606,808.5006428790665,807.4812685111849,789.6152942025794
1731653286.1706762,866.4180823314673,808.3980363670776,805.4444724880011,821.9880616709232
1731653286.1721709,845.1615141899268,807.2091034405837,804.9877693105185,820.6498367559936
1731653286.1745796,808.6590618452497,805.8977091581249,805.9071565225846,802.1343839094986
1731653286.178483,786.0597276029924,805.2496369595249,807.2178054785257,794.9986072838681
1731653286.1823862,792.9616476520648,805.5299074415337,807.9116721096079,814.9430177832962
1731653286.1862895,818.8063594788659,806.4516300367533,807.5387661343699,850.1869658696794
1731653286.1864352,836.1212651861947,807.4595904942507,806.3282226650194,870.4358021391016
1731653286.1877806,823.8827607169135,808.1113916097295,804.9278689285308,852.6146230338591
1731653286.1901927,785.6694473706428,808.2644977659163,803.9852365602211,802.0118859414958
1731653286.1940963,747.7648580565857,807.966425431749,803.784249499135,750.947699054958
1731653286.1973722,738.7705336266152,807.2475364522664,804.1353930944376,735.3418534902263
1731653286.1979997,767.0628265467669,806.1138591080244,804.5966369195643,767.4453970925907
1731653286.2019029,814.0011990581007,804.7862990489594,804.828108442291,826.236967095948
1731653286.2033904,848.2517389645986,803.8709252916385,804.7680467487934,873.1906749541022
1731653286.2053106,849.8770933044982,804.0926274863272,804.5472403499679,881.2210656544323
1731653286.2058065,825.05653411807,805.6292064466827,804.3141355251014,854.2089098791306
1731653286.2097096,799.7055821781845,807.595970627022,804.1374092864775,821.8876880541782
1731653286.2136128,797.2937017994593,808.3010679107861,804.0102877075747,814.4969400090001
1731653286.2175162,819.2114242067404,806.3266756874181,803.8983605565725,837.9714374810076
1731653286.219,844.0530318124117,801.7171903224828,803.7770158648434,869.9434955372831
1731653286.2214196,846.329638293233,796.2848051562116,803.641282730344,879.4371141518451
1731653286.2241862,818.7262547907958,792.6268451501977,803.4977489869891,853.3636689384455
1731653286.2253227,779.1548639677934,792.4919365295543,803.3538518053667,807.6511531007375
1731653286.229226,756.7863525598493,795.7391123781932,803.2127396264905,774.2170366094134
1731653286.2322896,768.6912434477706,800.6858834028941,803.073742143857,775.1546523392881
1731653286.2331295,806.1847446359507,805.4632422968589,802.9349581038483,805.5378048958814
1731653286.2346098,841.8225503849521,809.1730074435677,802.7951368353329,838.5207428278974
1731653286.237033,851.2287430167536,811.9657042341308,802.6540806773056,847.9103622676427
1731653286.240936,832.0241187261921,814.2569056948608,802.5121600959025,829.2784475561598
1731653286.2430615,804.547834273872,816.0335970295735,802.369750121207,802.2383455334301
1731653286.2448394,794.0237063290507,816.9022215176391,802.2269849260996,792.4083983407891
1731653286.2487428,809.2265989233166,816.6588771478652,802.0838028194065,808.7329961619972
1731653286.2502196,835.5802852290202,815.6747759943449,801.9400889736154,835.7080037695225
1731653286.2526462,848.2435947018897,814.6866992171011,801.7957721555684,847.0981335721445
1731653286.2565494,833.6756525340332,814.2358222198801,801.650841083678,829.0752469701151
1731653286.2604527,801.2596515267976,814.3236504341219,801.5053129904234,792.7229483790529
1731653286.2619371,775.5338900796008,814.5690405946682,801.3591960019182,765.3297735314571
1731653286.264356,776.0493086495452,814.6168216726954,801.2124695260533,767.9862987078417
1731653286.265829,801.596499677295,814.3760244142265,801.0650916151399,797.9686211903373
1731653286.267207,831.2260225542857,813.9628292126962,800.9170330108171,829.9038122070925
1731653286.2682593,840.8023529238523,813.5268568403781,800.7683220271492,834.6710577763831
1731653286.272163,821.8887812795201,813.1441420812945,800.6190589079157,801.4912481247849
1731653286.276066,788.2104054766293,812.8133823703754,800.4693467025406,746.3414619575186
1731653286.2799697,764.6401139061466,812.5014363324017,800.3191310941846,700.143861566574
1731653286.2808125,767.4139763801998,812.1823799716864,800.1680597978685,685.7469811679847
1731653286.2814393,791.4727629539757,811.8496560645016,800.0155895659375,701.7001895452828
1731653286.2838726,815.2728830958167,811.5091534467894,799.8615124682306,725.5612766706706
1731653286.287776,819.127627530545,811.1684418769296,799.70669258002,733.6511474459544
1731653286.2916794,801.8316815544144,810.83108998764,799.5532218100868,720.7483634186876
1731653286.2955828,781.6469294547612,810.4967213467793,799.4029982542348,703.5272029261713
1731653286.2970488,780.7447205149623,810.1635028338304,799.2547012905162,705.2543203024986
1731653286.299486,805.9633255064481,809.8301240226222,799.1014339403488,734.716488870302
1731653286.299688,841.806248375666,809.4963211745345,798.9333451420558,776.8719286853632
1731653286.302124,861.7253562090573,809.1624483205865,798.748026956961,803.1309693462817
1731653286.3033893,849.0618600835414,808.8289066576261,798.5638892818704,793.4837083450017
1731653286.3072927,811.021392683039,808.4958693068062,798.4210290036785,753.0252546935245
1731653286.311196,773.9973382091162,808.163304761936,798.3517714689037,709.2005735432399
1731653286.3126588,763.1445888305553,807.831114248401,798.3235707216497,690.9830753207289
1731653286.3150992,782.2838608679428,807.4992331213713,798.2008946382545,706.1262239822986
1731653286.3185637,810.8893368993715,807.1676547336705,797.8075712686505,735.2092428936093
1731653286.3190026,821.3878906021607,806.8364063700612,797.1349513589495,748.0711935864808
1731653286.322906,802.8402630956726,806.5055172044997,796.5950871661,729.4346561604208
1731653286.3268092,771.0160483596734,806.1749976321242,797.0363612409968,692.1442039655977
1731653286.3282683,755.8338106549647,805.8448322476207,799.2609403708541,666.4863853974261
1731653286.3307126,776.216414950658,805.5149874376291,803.2189157261918,674.392714089742
1731653286.334616,823.2411365422823,805.1854383563707,807.6027495224353,710.3028582674315
1731653286.3370411,865.7497002515818,804.8562106607137,810.456795446812,744.829748630388
1731653286.3374388,874.1925640296874,804.5274046067661,810.4907778326603,748.2827215097284
1731653286.338519,843.7365993130625,804.1991462708858,808.0229725362127,714.8403719619438
1731653286.3424225,798.2005925312877,803.8714389723767,804.766537558611,667.7419948227757
1731653286.3438785,771.4888856525936,803.5439962007058,802.6712079543624,641.1365927265023
1731653286.346326,781.1038157907175,803.2162730425413,802.7374663437788,653.0038933306726
1731653286.3502293,814.9417046261658,802.8879136541102,804.5992708561347,690.998555240198
1731653286.3541324,842.0777945054868,802.5595167024125,806.9978514553553,722.8206831578649
1731653286.3563144,838.5622508949683,802.2330283031928,808.6659560136703,722.6086595646107
1731653286.3580358,806.7541915460453,801.9106972245638,809.0004822745768,691.518158368337
1731653286.359488,772.3465653141274,801.5922037851342,808.1805914885733,655.624953097217
1731653286.3619392,762.22771468365,801.2717130220929,806.8029867549412,643.4363784542229
1731653286.3658426,782.1879288857415,800.9390343063413,805.382461992651,662.1587391610599
1731653286.3697455,812.8346772345035,800.5886456543722,804.072525724309,692.268869371162
1731653286.3719585,826.2775781780023,800.2338865940014,802.7425414062715,704.209233780815
1731653286.3736491,809.161701538929,799.9125118511736,801.282608886051,682.9270392522484
1731653286.3750978,773.2763578084501,799.6639740491607,799.8751981229242,640.2387290999586
1731653286.3751898,745.6895294040285,799.4736545783887,799.0292649487155,605.3565402337001
1731653286.3775525,746.7658689115723,799.2203391887592,799.3448620523216,601.4299750236319
1731653286.381456,773.7831469915633,798.7047351101878,801.144461896232,626.985407311477
1731653286.385359,803.3329859741718,797.8162751214925,804.1816029176429,657.3197472516276
1731653286.3892624,810.6795316543963,796.7520858060071,807.5981126551578,664.9156962781223
1731653286.3907075,790.3119727528164,796.016436782431,810.1906754064688,642.2282784917548
1731653286.3931658,760.6152783051743,796.022198158763,810.91310977591,607.9250281917109
1731653286.3940654,748.6221839651644,796.6075978348616,809.4043417569925,591.3664936998135
1731653286.397069,767.485873977078,797.0690912958295,806.2457369402097,608.366488830119
1731653286.4009724,805.3618509431565,796.8241327229271,802.7237529103999,648.3970863890188
1731653286.4048758,834.7453967095435,796.0784927071967,800.1550503501163,683.5284785690519
1731653286.4063172,834.4322832936653,795.7966491946871,799.1775975087858,691.3371895004498
1731653286.4068758,806.2817013145714,796.9115275328842,799.5149559895405,672.9689919903069
1731653286.4087791,773.5546049422329,799.4032685465464,800.3710220353745,652.0062270639137
1731653286.4126823,762.4123804333842,802.0595255471237,801.0647472770598,655.3581150596232
1731653286.4129407,781.2936888111782,803.2561006094148,801.368323366266,691.4826992940331
1731653286.4165857,814.4342648106899,802.2659906283228,801.4100720144467,743.2438357751944
1731653286.4204893,834.7414325115021,800.0536213004727,801.4028915038073,781.3015546026729
1731653286.421927,825.896912184476,798.7857152528373,801.4668118766432,787.6768411040835
1731653286.4243925,795.8537530980024,800.2886867723428,801.6081909721034,770.5939370668797
1731653286.4282956,770.4751870277588,804.5970813009768,801.780965950107,758.2312407266805
1731653286.4318163,772.2594685330577,809.7443702161162,801.9454641865506,776.0471259211425
1731653286.432199,801.6506582137773,812.9996622098545,802.0896008383094,825.9972660083603
1731653286.4361024,836.4879745935269,812.6438815311617,802.2207237510728,884.547432175911
1731653286.4375367,850.0795731465464,809.0103972470496,802.349956753028,920.9825688223158
1731653286.4400055,832.9496721896359,804.1264271212739,802.4831076522382,921.1185643993526
1731653286.441793,800.4468517574877,800.3299933104913,802.6200808973862,897.5694800879578
1731653286.4439087,780.1880420596374,798.895160911603,802.7583133785305,878.8637870917611
1731653286.4478123,789.7322746356022,799.5606591529149,802.8957928838622,886.5046479314883
1731653286.4506917,822.6170060235196,801.1325336665689,803.0320112440347,918.3092795528879
1731653286.4517157,853.9918317172319,802.5900776528306,803.1674342779871,951.1671668889298
1731653286.4531465,861.1916012751573,803.8522889232287,803.3026654483419,960.8526271515802
1731653286.4556189,842.3525635047333,805.6786139882765,803.4380003467478,942.6779940429766
1731653286.4595222,817.563780564742,808.8269469994013,803.5734272991731,915.7235665164378
1731653286.4634256,811.3758370048648,813.1301607413191,803.7088191095264,906.6657444103289
1731653286.467329,831.2440028202217,817.2164155193848,803.8440872578221,926.4643123400297
1731653286.4687562,860.2708582682469,819.1447067619526,803.9792243514859,959.7474313121775
1731653286.4695673,870.7986220955888,817.5804626616043,804.1142731463569,976.4905620441092
1731653286.4712322,847.822820915735,812.7493796149028,804.2492837409625,956.899767112774
1731653286.4751356,802.7506009814263,806.5225116187335,804.3842905120277,909.0737083190958
1731653286.4767103,765.7794756299458,801.5090127746445,804.5193074553679,864.5216045437021
1731653286.479039,762.6619352692813,799.6578802595196,804.6543303973576,854.428523585783
1731653286.482942,794.5036509455659,801.226524242092,804.7893438149366,885.2586215683845
1731653286.484366,836.9754903125538,804.7803426379414,804.9243402458394,933.1800864383565
1731653286.4868455,859.6346181462683,808.1929483677762,805.0593537555679,961.9603809706981
1731653286.488443,849.6652436382368,809.9166512791775,805.194482831915,950.1826586545673
1731653286.490749,820.7444677219905,809.671999838359,805.3298541366541,906.1404446729518
1731653286.4946525,800.0628808749608,808.2394880696869,805.465498014788,858.940290891615
1731653286.4985554,804.7125231477611,806.7027399137588,805.6011975210994,833.9875012629705
1731653286.4999757,827.4458424456753,805.7573950420079,805.7364949917828,833.6803745011921
1731653286.5024588,843.6459001201865,805.4881286763505,805.8710562595087,838.9440608614188
1731653286.5063622,833.2015229436379,805.5932940633231,806.0053381284736,828.8245076459962
1731653286.507318,798.4938949413751,805.7416111152603,806.1409912861543,800.0549255165707
1731653286.5102656,763.3521808402687,805.7742637270085,806.2800617647177,769.5148882971874
1731653286.5116274,753.9665516151275,805.6987120275553,806.4225574506398,758.1512196052196
1731653286.5141687,777.5298746457572,805.586918723888,806.563747102707,771.0348547845001
1731653286.5155854,816.0009424980228,805.4928550907678,806.6947598830882,791.2252579478499
1731653286.518072,840.105810980495,805.4287898360911,806.8099812570911,793.116122295779
1731653286.5219755,832.4587386792773,805.3813187744131,806.9194760599112,764.2387405521073
1731653286.525879,801.24409844642,805.3343493601294,807.0549451445503,716.9483453593285
1731653286.5261936,773.3321514735775,805.2806770801944,807.2516617705571,679.5149200685536
1731653286.529782,772.3660559513986,805.2214133436264,807.499808513385,673.4635567897348
1731653286.5311952,799.6972909150784,805.1605453321075,807.6923668954744,695.9136731288523
1731653286.5336854,833.6361835755542,805.1008014138923,807.6315173184946,721.708625819986
1731653286.5375888,847.2781508742316,805.0426607505443,807.133492022937,723.5986129518725
1731653286.541492,830.0508740879443,804.9853330253661,806.1687048911741,693.919701602676
1731653286.545069,795.6502706159355,804.9279726961868,804.9180259882534,650.5298644953964
1731653286.5453954,770.6310543483044,804.8702352607224,803.7367540196666,622.9877591635676
1731653286.5465448,773.3739641030777,804.8122031590766,803.0985656835292,630.3701142846222
1731653286.546805,800.0765761315845,804.7540872625974,803.4565560143838,667.599325842859
1731653286.5492988,828.2896213225683,804.6960187873184,804.9155306295089,709.8274507775791
1731653286.5532022,834.8592382614795,804.6380102311899,806.9239183649654,730.9136389160238
1731653286.5571053,814.1951502154387,804.5800127826371,808.436882803328,722.0381643655935
1731653286.5610087,782.490796179854,804.5219779053183,808.6547501186029,696.6464473278813
1731653286.562415,764.3911487697966,804.4638809473079,807.7778211178343,678.2805235926216
1731653286.5639446,772.7126527232996,804.4057145611218,807.0309321234589,681.2039164522527
1731653286.564912,797.8449180782544,804.3474779211099,807.7947013089433,699.5728181154834
1731653286.5688152,815.846108577325,804.2891775443688,810.4791266970208,713.8738195874554
1731653286.5727186,808.7563313749907,804.2308342378653,814.0364919868857,708.824946999447
1731653286.576622,780.2366819869918,804.1724759084719,816.5383726721811,687.2548604718914
1731653286.5780246,753.3385609678359,804.1141016690352,816.453009975505,668.0569975458861
1731653286.5805254,752.0171869070927,804.0556341615993,813.7322643757041,669.9632535216207
1731653286.581462,781.4099302062729,803.9969187381937,809.900580083336,694.785653220278
1731653286.58282,822.8977775282241,803.9378356326898,807.0093342587513,724.1790643310758
1731653286.5844283,848.1158060827346,803.8785120555488,806.1736220609735,733.0581877304323
1731653286.588332,840.9682665498837,803.8194573333791,806.8067765248453,709.421484555235
1731653286.592235,810.0648190187808,803.761321620383,807.1830073713317,664.7718408538676
1731653286.5936344,781.2648277097024,803.704129321482,805.8771749203993,626.1404294205324
1731653286.5961387,776.1163819476939,803.6464049738631,802.884472446491,615.2989831994253
1731653286.600042,794.0671563265076,803.5853199341796,799.5353662226174,631.6880400600161
1731653286.6016953,813.6425547513396,803.5190010285763,797.4020414276782,653.269535282653
1731653286.6039453,811.7457873356435,803.4505133998233,797.1964541928106,654.9769188148504
1731653286.6078486,784.4884772089515,803.3899497340282,798.4943813452428,629.6671146660815
1731653286.609244,751.5167428438731,803.3490804750031,800.3012011461342,594.2458794410543
1731653286.6117518,740.0313991316247,803.3264852525177,801.841849146562,575.9913319740349
1731653286.6156552,762.0454072634217,803.2921879416234,802.965281236833,590.4685653168177
1731653286.6163793,803.9275492233184,803.1935806853296,803.9928791144721,629.0566699569727
1731653286.6195586,836.7664476666678,803.002597527326,805.2546813088941,665.899672837061
1731653286.620571,838.9449464688787,802.7913014577923,806.6979730105757,678.28527625265
1731653286.623462,812.6683539872977,802.7668360978479,807.8371029397357,663.8837605179407
1731653286.6248538,781.3353319180978,803.1754098684918,808.0611838209561,641.0451977768622
1731653286.627365,770.0993470724239,804.0804288237761,807.0657666111169,632.1331319071562
1731653286.6312685,785.5124980752664,805.1947749046171,805.0869805877418,643.8974090507331
1731653286.635172,810.9520787896098,805.9818788740049,802.7868724864148,661.7082642782916
1731653286.6390753,821.564013987212,806.0103491290689,800.9346884137883,663.0100527688674
1731653286.6394465,806.0890054909607,805.2792093393381,800.1504196346501,638.6343469187515
1731653286.6404636,777.0481968711802,804.2322751310963,800.803911230878,603.1843549623698
1731653286.6429784,760.621385939629,803.4368298238959,802.9487823832608,584.6672740001876
1731653286.6468818,774.7034389735423,803.1551399837442,806.218177398975,601.4510717130645
1731653286.6507852,813.4010110670372,803.1170890861442,809.8279514829894,645.874827315402
1731653286.6512964,850.7150657651039,802.7053963795643,812.8497445234793,688.6835227923112
1731653286.6546884,860.4686120533678,801.5164046103521,814.6303617943346,701.2806082803327
1731653286.656073,836.6361322093537,799.9187226318473,815.0026819698401,677.9682151046916
1731653286.658322,798.0287755272192,799.0506846368074,814.1010513682066,640.059044217374
1731653286.6585915,773.5295264162739,800.012326713057,812.0159526388602,618.2808506355547
1731653286.6624951,779.336728767002,802.7662892225696,808.7232617396775,627.665355030205
1731653286.6663983,806.333844412996,805.7844986481136,804.4507416917398,655.6901973972372
1731653286.6703017,828.103397565093,807.0315345902209,800.142214029821,673.889176006855
1731653286.6716833,823.4359176625192,805.6356036975382,797.4396298253357,663.4885003498734
1731653286.6742053,794.789193683651,802.7591055370187,797.9110500242897,633.2751877219878
1731653286.6771972,766.9858029169616,800.7624431817475,801.9198894492117,613.9097806540451
1731653286.6781085,766.8053564685076,801.3343699660763,807.9989351383331,632.6515699577164
1731653286.6820118,800.2618048590322,804.2565296668504,813.3768945463427,689.200904962858
1731653286.685915,846.4439168539894,807.822663802058,815.4732127589031,752.8519864102365
1731653286.6862135,873.1826708045452,810.3264188263206,813.3878374005145,783.9753191218093
1731653286.6872928,862.0477176867237,811.1748143639578,808.3594551381775,763.3649658455764
1731653286.6898184,822.7513106818857,810.8556709267174,802.9164369416213,706.7801864788903
1731653286.6937218,785.5400116002515,810.1909458099171,799.3733775144696,653.467291814178
1731653286.6960728,777.5705035384517,809.7102081297155,798.6997181647704,637.3265463924931
1731653286.6976247,801.9764774698292,809.5130795974231,800.3865300002112,662.6043881336839
1731653286.7015283,836.3249448491432,809.4607833954658,803.1612427998656,702.5736742559804
1731653286.7029026,851.6112037312532,809.4015942271916,805.8703039005162,721.8849288724816
1731653286.7054317,836.0759143379958,809.2739340256378,807.9130366192297,704.6426709261782
1731653286.709335,804.091974179968,809.0937409125607,809.1097189864385,665.8237701143344
1731653286.7132382,783.0424934969184,808.900404905694,809.3568996315751,637.4939421338702
1731653286.7149482,789.7996898868272,808.7188111444196,808.5033298772682,642.056640017039
1731653286.7171416,816.899923960165,808.5520671354399,806.5748296623412,674.9287309700414
1731653286.7185123,839.7081274553692,808.3919772743943,804.0848835894571,710.2686073517791
1731653286.721045,837.915169393808,808.2306054001726,802.0292945049331,723.7852144502942
1731653286.7211308,813.0385637344306,808.0650818759623,801.4099506095715,712.9888627056744
1731653286.7249484,787.4170515561415,807.8965039002891,802.5694417295565,698.2892712779109
1731653286.7288516,785.6589814251172,807.7269842461383,804.8507429156527,704.6896566244324
1731653286.7327547,813.8210366578016,807.5577482268881,806.8884255251841,739.7214628992409
1731653286.7338235,853.405425142809,807.3888702303186,807.3649871225491,786.0189243046434
1731653286.734122,875.3173443256306,807.2198794981123,805.7391986206846,814.7099946438512
1731653286.7366583,862.8150097717051,807.050360999298,802.5040155193657,808.70119787365
1731653286.7405615,825.085851595747,806.8801789631289,798.855125693327,776.801864507362
1731653286.7444649,790.4341362143,806.7093989961686,796.0081441526384,747.0523212206206
1731653286.7483685,784.3948058516348,806.5381296460507,794.6025408587063,744.5803613055399
1731653286.7497318,810.1341847869932,806.3664279386433,794.549414940216,771.8692549028196
1731653286.7522717,846.4297454957209,806.194289902775,795.3328496343295,807.1544091076724
1731653286.7526991,864.3781335261967,806.021681603965,796.4282438407238,821.9163820835197
1731653286.7560482,849.5532765039542,805.8485681330383,797.4980534074043,803.4916069049932
1731653286.7561748,812.6911562230144,805.6749279981294,798.3531563947457,765.2864982189267
1731653286.7600782,781.0539523154285,805.5007606388176,798.8964179020729,736.848253536169
1731653286.7639816,777.2301137584026,805.326091776942,799.1387806473732,741.3110183251673
1731653286.7653415,801.693438337423,805.1509652595761,799.1919380171073,777.3694120170017
1731653286.767885,832.8169652405631,804.9754041336417,799.1902366498626,819.8208567474536
1731653286.7715745,844.554245466139,804.7993480101984,799.2151518587993,838.6947822257083
1731653286.771788,827.6995597031547,804.6226241238038,799.2814601850534,822.3602789805254
1731653286.7756915,797.3020079646097,804.4450408374171,799.3682905788328,786.4053245672012
1731653286.779595,779.9316975811089,804.2666326370417,799.4532233131353,761.0249109609971
1731653286.7809513,791.2634448132179,804.087902625508,799.5274198691947,766.8483405261233
1731653286.783498,822.644951328243,803.9097065642565,799.593479713251,798.609023173784
1731653286.7874014,847.8173406511137,803.7324709242447,799.6573203663613,829.7673352395417
1731653286.79045,844.1850016197673,803.5549977744431,799.722597419429,834.1750063499189
1731653286.7909653,811.1748797278397,803.3740457019311,799.789714303583,807.1492407595399
1731653286.7913048,770.8214159620604,803.186325612779,799.8574273061752,769.0174464723759
1731653286.7952082,750.1910356674076,802.9932139374994,799.9245644349471,748.4762707316765
1731653286.796561,759.8871331658922,802.8049372334975,799.9907196117744,759.4133041539943
1731653286.7991114,786.1265232886882,802.6374461635785,800.0560728137207,790.1648738743646
1731653286.8030148,802.958429734042,802.4968324541455,800.1209469494133,814.041011404386
1731653286.806918,794.5013215279395,802.3574391061034,800.1855284695735,812.198119753867
1731653286.8093257,768.3830673472366,802.1571864342291,800.2498329304226,789.3198170736848
1731653286.8108215,748.8086343335293,801.8399539581728,800.313797362558,768.6312134201155
1731653286.812171,755.1737715760839,801.4464693405408,800.3773694293585,770.7669234340071
1731653286.8147247,784.721712176184,801.18789564312,800.4405394946956,795.1627335581829
1731653286.818628,814.2287196677302,801.3782515800864,800.5033281089775,820.2758246184682
1731653286.8225317,819.2283256227214,802.1591719002633,800.5657621424684,822.2762784546074
1731653286.825883,794.3856526874216,803.1842751700595,800.6278609433054,795.8643619690748
1731653286.8264346,758.0341623437662,803.6397112634318,800.6896354552833,759.4098638278033
1731653286.8277807,737.4458834962182,802.7826711270284,800.7510934747324,740.2532957152425
1731653286.8282013,747.1570966146087,800.6192223155412,800.8122442830102,752.5570044743624
1731653286.830338,777.8492285188364,798.0586427839135,800.8731001086071,785.9267605889576
1731653286.8342414,804.4693220769809,796.3096368033886,800.9336752407386,814.0309227824496
1731653286.8381448,806.8476934109623,796.0204160776494,800.9939845605951,816.158369118046
1731653286.842048,786.0387517584597,796.93171543098,801.0540426610306,794.010226360311
1731653286.8433905,762.9628577749897,798.3179602334031,801.1138639057925,769.7553865345503
1731653286.8459513,760.4037333325971,799.7269525823123,801.1734632839386,766.908487474931
1731653286.8470764,783.3726844927604,801.2736724471835,801.2328575448082,790.1366683479945
1731653286.8498547,814.4065989552139,803.2594611013797,801.2920656203743,821.11683005717
1731653286.853758,827.912194568969,805.6120278272926,801.3511071321916,833.9816325193103
1731653286.8576612,811.6748293031346,807.7891494949447,801.4099987631928,817.3287580679505
1731653286.8590002,777.6200690124289,809.2269012184051,801.4687508896574,784.293944575973
1731653286.8607998,752.7862060640165,809.8045285500426,801.5273695969465,762.2086272165518
1731653286.8615646,757.712326411865,809.8255578916848,801.5858681998642,770.2695143072867
1731653286.865468,789.737402589023,809.6002793950004,801.6442840897851,803.4918535664826
1731653286.8659518,824.828065070458,809.1514462917062,801.7026834744532,836.197791615137
1731653286.8693712,836.66271209766,808.3699695879661,801.7611310506111,842.5683423528017
1731653286.8732746,817.667961301224,807.3961081422652,801.8196221569756,817.8647817336923
1731653286.87461,784.9173090298555,806.746375397012,801.8780262328561,782.9791068242324
1731653286.877178,766.0129379284466,807.0000291081569,801.9361387372189,768.117644792042
1731653286.881081,776.4687086417406,808.3247326832666,801.9939098951329,788.3713272958798
1731653286.8848274,807.1037971191315,810.2629075808971,802.0517522795243,830.8569482966595
1731653286.8849845,831.692055014251,811.9461375962254,802.1105846469121,864.0753137000428
1731653286.888888,828.5292062261783,812.5652582060202,802.1711984118667,862.319008718975
1731653286.8902197,798.3749658889135,811.7834518232686,802.2329691655183,825.8675767992615
1731653286.8927913,764.326992052969,809.875055282729,802.2929175340305,781.0677302507474
1731653286.8957171,753.7461250706108,807.5678445748237,802.3469482730421,760.3200089416264
1731653286.896695,776.6040648438171,805.7038857767662,802.3943567189455,777.671493975606
1731653286.9005978,817.4217989059625,804.8537314635669,802.4433886442794,818.8964874642619
1731653286.9037027,847.256987644127,805.0047318833846,802.5111772151973,853.4112899754421
1731653286.9045012,846.328133115987,805.4896760325037,802.6107164058866,858.2760700401188
1731653286.9058294,819.249918453141,805.3244868579864,802.7266930923821,835.2326428907933
1731653286.9084046,790.5713679475949,803.8780474245772,802.8007839927144,807.531950228337
1731653286.9123075,784.2160171229214,801.3977249218937,802.7611243714992,799.6851876884568
1731653286.9162111,803.7313075762025,798.8641405661804,802.6140980580425,817.0472407153017
1731653286.9201145,829.6908252426211,797.2377497575739,802.5550462318207,842.0007312191881
1731653286.9214392,836.3315069106578,796.8039477953953,802.9846984314723,849.604635532992
1731653286.9225783,813.5232264180839,797.1758426546817,804.3345642173346,829.5164784714311
1731653286.924018,775.8589367145207,797.7734910418276,806.7584261467975,795.9113436749384
1731653286.9279213,751.3234117203748,798.2356028576352,809.9154496883868,776.846229506655
1731653286.9306345,758.6672092223413,798.500879408277,813.0460562358838,791.1840733503034
1731653286.9318244,791.8945385840143,798.6688577110439,815.3099245209037,831.7488393684214
1731653286.9357278,824.7789060027808,798.843935047593,816.1443195833435,869.221450628359
1731653286.937049,832.1332308425771,799.0666984534862,815.4133057129,874.8346890625419
1731653286.9396312,810.5048617555566,799.3247370169846,813.3266010578945,843.8981424026852
1731653286.9414537,780.9070806916187,799.5905529605606,810.3049712726531,800.3384212980371
1731653286.9435344,770.9365343465462,799.8473319378616,806.9585213414255,777.5918788236556
1731653286.9474378,791.1741494041538,800.0933601654071,804.1244062620452,791.2552152464314
1731653286.9513412,825.9582176396659,800.3344928488648,802.7294990825716,826.4196374074616
1731653286.952659,846.5167963038583,800.5761892662091,803.3651515796012,850.4124447500278
1731653286.9552443,835.333618651379,800.8203372247382,805.820333574081,840.0851080474464
1731653286.9591477,801.1427322958193,801.0661200169513,809.0156830109971,800.7042406826374
1731653286.9603293,772.1240486831085,801.3120792493173,811.5224711864968,761.1328177195305
1731653286.9630513,773.1761402296503,801.5574027501302,812.3393121354503,750.0108213796195
1731653286.9655516,805.916271851981,801.802074400694,811.3489105023481,772.7757432620277
1731653286.9669545,847.3328742422647,802.0464406281326,809.1505318842894,807.8142329783357
1731653286.9682684,867.8652183725926,802.2907966163823,806.4914121401459,824.2096012858646
1731653286.9708576,854.3986949198523,802.5352400186769,803.7999776341495,806.4471522416092
