timestamps,eeg_1,eeg_2,eeg_3,eeg_4
1731654810.796016,811.9738923701492,803.5514127734624,802.753739219596,811.5956764813023
1731654810.8100529,811.6655418830638,803.771948714408,802.8957751423094,811.5687814284173
1731654810.825667,815.8427172231648,803.8920508941786,803.0420598251692,814.4308280582741
1731654810.830968,825.0351549125038,803.8058403120372,803.2216887269896,820.3459605019615
1731654810.8367946,833.5583303344769,803.5292272686968,803.4724490820798,825.4056185155412
1731654810.8412805,830.9288743315315,803.393564545481,803.7892318369901,822.9505712164157
1731654810.8553662,807.8061574388231,804.0512437457797,804.0876026886948,807.7726761310629
1731654810.8556666,764.0501115956029,806.101294957448,804.2294051818551,781.1458509400355
1731654810.8568945,713.1721794905036,809.4823263034294,804.097262228504,752.8030498326594
1731654810.8592677,677.8581145910481,813.113120922394,803.6499527270776,736.9098060259594
1731654810.863169,676.8785304444528,815.224713531102,802.9071095231859,743.2289993644563
1731654810.8659203,711.2399883219763,814.3376501961129,801.8912885415134,769.2424842949952
1731654810.8670702,760.4563525586791,810.2498220258465,800.6126881447544,799.8133183944914
1731654810.8709714,794.175669944361,804.2683264620613,799.1421976012474,816.2354798725097
1731654810.872508,792.7817183265392,798.4664945075361,797.7092582725439,809.1262737618654
1731654810.874539,761.9205185782939,794.5369431069387,796.6970605381447,785.5185306615194
1731654810.8748727,728.5691709658278,793.0939441654658,796.4722326151549,763.8965227653929
1731654810.8787742,720.1117653675612,793.7836995772071,797.1341249279901,760.1176581716359
1731654810.8826754,742.4198513235656,795.8298996554648,798.364787681813,775.0412504283943
1731654810.886577,775.147343473378,798.4279527289196,799.5155674529427,794.1280014280094
1731654810.888122,788.8602587229873,800.8243411401558,799.918379609518,799.7772934898626
1731654810.890478,770.0915867348939,802.3811806475397,799.2691469769,786.3730149822146
1731654810.8934107,733.2585278141263,802.8659225974326,797.8732613082891,765.4240642050936
1731654810.8943794,709.2334389061591,802.7459690803016,796.584155983148,756.3559283885675
1731654810.8982809,719.9009269151243,803.0316476066254,796.4021088139722,770.4696435632815
1731654810.9008727,759.6684645470214,804.5625713337449,797.9011176006345,801.227385903923
1731654810.902182,799.2193650202913,807.240323303184,800.8128795466529,828.8689261822009
1731654810.903736,808.7268220252763,809.9095305029238,804.0732933958886,835.7973799368114
1731654810.906083,781.8558565672937,811.1082027232576,806.379670905123,820.4362840251205
1731654810.9099848,740.9205321166698,810.1616966508795,806.955644968609,798.2693607780031
1731654810.9122827,718.67631754885,807.76498287797,806.0272678009308,788.9750355976945
1731654810.913886,731.5463673380154,805.5817973866185,804.6553256994117,800.0612830984497
1731654810.9177873,766.553708043819,805.1557453166985,803.998343274931,820.6798576021398
1731654810.9193497,792.9850033154413,806.9447695741978,804.5130557529124,831.073363693585
1731654810.9216888,788.9223966296659,810.1583343561539,805.6806582259295,819.8791258346837
1731654810.92559,760.1506195167697,813.4301285808305,806.4566973665862,794.6079307007724
1731654810.9294913,735.5444990357172,815.730417817915,806.0730548505956,776.2269822901802
1731654810.931155,742.9725932855931,816.8064356228092,804.5654484162902,782.1424148013302
1731654810.9333928,785.7694985386431,816.8999308974065,802.6730039145453,811.5048031757173
1731654810.9349637,838.8739304326818,816.1251104338967,801.2763395217044,844.7543181103878
1731654810.935825,867.5594187168942,814.1708066573933,800.8443136563438,857.8421978605691
1731654810.937294,853.8364420488107,810.6869607637148,801.2557306704755,840.0734119547285
1731654810.9411952,809.7816384189952,806.0653277799086,802.0245188611519,801.7762736344877
1731654810.9450967,767.393244178164,801.8615658911278,802.6801302129545,765.9405405607619
1731654810.948998,753.2144557632491,800.2625191721319,803.0152328594341,750.5902481443368
1731654810.950027,768.3047866673702,802.7390863516223,803.0853654708304,756.0638762826645
1731654810.9505773,789.7436353724372,808.7905610479688,803.053319386002,767.2136885597133
1731654810.9528992,791.8440217980933,815.8182059585816,803.0430588886838,767.9656138959862
1731654810.9568007,768.7683718567566,820.4484222178622,803.0908698875015,755.4421071734546
1731654810.960702,739.4461142519692,820.5339069113677,803.1747838166491,741.8112500318475
1731654810.9646032,731.0818160267423,816.450453696722,803.2622058896328,743.0037998398818
1731654810.9661913,755.5677204840395,810.73829074783,803.3365656016708,764.4802348768593
1731654810.968505,798.5139193753396,806.3467378514949,803.3986095662314,795.9900973780636
1731654810.9688993,829.6898644602569,804.7779108563886,803.4560883600768,819.171802410859
1731654810.9707773,826.3635560338103,805.4419754235139,803.5149317053776,821.4656154189041
1731654810.972406,791.1724218884159,806.5399579857595,803.5765880962856,805.3682322767661
1731654810.9763072,750.5482776912365,806.6256849718267,803.6396798167228,786.0943067314942
1731654810.9802086,734.5561489321451,805.5985820388898,803.7024798326111,779.6138166244627
1731654810.9818048,753.4946676886684,804.4839915274404,803.7641946464247,790.3390389016399
1731654810.98411,789.8233338987102,804.375231859785,803.8249324381651,808.1316054606157
1731654810.9877713,812.4942919374726,805.4868004439857,803.8851260366458,817.1190885678637
1731654810.9880111,802.6318304535118,807.018178569515,803.945082169945,809.238237140851
1731654810.9919126,769.4734043307799,807.7890860705918,804.0048667704785,791.2373516079383
1731654810.9958138,742.8992656925684,807.0423612294014,804.0644065189236,779.0433834372408
1731654810.9974186,748.4115341438934,804.8174999426583,804.1236198181635,784.0301594175814
1731654810.999715,785.4830318241917,801.7469908763911,804.1824781517283,802.7938048584145
1731654811.0036166,827.4622217767901,798.5717415804139,804.2409985297334,819.2784508831945
1731654811.0057297,843.0317157697443,795.7707784630187,804.2992108070795,817.765695747774
1731654811.0066433,821.3815242467077,793.480781219449,804.3571357064271,796.1310545024427
1731654811.0075178,780.5797921031265,791.6265838841155,804.4147837302745,768.3952834249552
1731654811.0114193,752.5833055810572,790.1053211401006,804.4721659902765,754.1266387252813
1731654811.0130324,757.216457573232,788.9234667507075,804.5293016716373,762.8892047205178
1731654811.0153203,786.3524508880909,788.2319540299333,804.586210904749,786.2985794828678
1731654811.0192218,811.3806292342241,788.2216659641599,804.6428939312252,804.5325832098306
1731654811.023123,807.9230927467713,788.920579532728,804.6993148639937,802.3882862590157
1731654811.0255153,777.0755533996982,790.0571051471895,804.7554204780148,781.7032795429445
1731654811.0270245,744.9532219750055,791.1538752334667,804.811211109766,759.5961544934148
1731654811.0286465,740.6091245446144,791.8186545985308,804.8668277332774,753.8501351718614
1731654811.0309258,770.9762686288681,791.9902013556331,804.9225493757815,767.7950487497862
1731654811.034827,814.1466668428322,791.9239584034667,804.978585969383,787.5421283000035
1731654811.0387285,836.7158374166963,791.9575530032035,805.034696933899,793.8829931243355
1731654811.0406818,820.7104056196076,792.3060039737869,805.0899590807903,778.7387270390492
1731654811.0426297,777.9922376341469,793.0741878412089,805.1432193224337,752.354653252342
1731654811.0442605,740.7851838772162,794.4134483597417,805.1944823663174,735.3239643245334
1731654811.0443876,736.3891926084865,796.5763346737748,805.2464562460274,742.0627291793188
1731654811.046531,766.3668000587955,799.7226576431527,805.3042181482192,769.2330549016356
1731654811.0504324,806.4547420740513,803.6005120208787,805.3709923721163,798.5258755337406
1731654811.0543337,826.8427368468397,807.4032395255417,805.4410191570939,811.5524968597422
1731654811.0582347,816.201404851539,810.0157193181723,805.4960173952777,804.6093439092821
1731654811.059874,789.8237524595788,810.5667794486538,805.5151370177133,791.0113452000336
1731654811.0621364,775.3885027280018,808.9313271693665,805.5017855393191,789.0231496991654
1731654811.0632596,788.634755706158,805.8169099889387,805.5105852011385,805.6883644561649
1731654811.0660377,819.6941505318864,802.3683688926225,805.6350461944702,830.4384707667759
1731654811.069939,841.5936821140523,799.5872808442042,805.9205322855238,843.9935576731807
1731654811.0738404,833.5457280410224,797.9586075827752,806.2261492305596,834.972325045427
1731654811.075488,799.2733231152736,797.4423896927898,806.1569169337902,810.0831095722564
1731654811.0756342,764.9596255555406,797.70226184909,805.2222048057333,789.222418884525
1731654811.0777416,758.40766323671,798.3722558375731,803.2211918214498,789.4617931694993
1731654811.0816429,786.4503429326658,799.2530709824631,800.5775810965089,811.1261282192457
1731654811.0821316,829.1005544033901,800.3710140530965,798.2674352388727,837.4435241612761
1731654811.0855443,855.3641991795146,801.8352433790958,797.2887880729752,848.1176935029949
1731654811.0894456,847.9863057916032,803.5715820550058,798.0275958426746,835.7563100960568
1731654811.0911016,816.9544151140594,805.21562398683,799.9717906257999,811.7084113600326
1731654811.0933468,790.653933101337,806.3423384711934,801.9598277133505,796.5268394360415
1731654811.0972483,791.982478333274,806.7996790995333,802.7954151889738,802.9068749170167
1731654811.1010036,819.2373859165023,806.7784584171912,801.8763383176471,825.129043267954
1731654811.1011496,847.6074000312568,806.5968122139158,799.5241035533619,843.6561187385037
1731654811.1050508,849.9565788282819,806.4711306832205,796.8663365368786,841.1157491128384
1731654811.1067154,819.7253130495238,806.4526179384144,795.317994579128,816.6942065777416
1731654811.1089523,777.2424495603316,806.4939551871561,795.8809696473852,787.3695592275722
1731654811.1105864,754.3512240357215,806.5364972352481,798.5905974965927,775.0286780589076
1731654811.1128535,769.6013738577428,806.5538480381074,802.4182794154016,789.6492217535398
1731654811.1167548,813.6124826996402,806.5501215063317,805.7459043032378,821.646272681875
1731654811.119876,856.1817995300164,806.5400268336914,807.2074403211611,849.2038030271283
1731654811.1206565,869.6998570384294,806.5336548382401,806.4284243607464,854.8119590321235
1731654811.1223292,850.4847163732669,806.5328136268549,804.2083058657358,838.2062569732013
1731654811.1245575,820.9211118149254,806.5346254154794,802.0319456008457,815.7252500708694
1731654811.1284587,810.3967741994035,806.535999346771,801.2287392404851,806.672539440563
1731654811.1323602,830.4073904402118,806.5356868218267,802.2883002622898,817.5493521276233
1731654811.1362617,864.466632354311,806.5340137146817,804.6800663288464,836.847611493269
1731654811.137943,881.5346905976079,806.5317814404888,807.1973030406854,844.6841023867917
1731654811.138748,862.1350347564021,806.529497496343,808.5971923082191,829.5086036954161
1731654811.1401627,815.6059325931952,806.5272285203619,808.21870437033,798.2801676380578
1731654811.1440642,774.0283647886198,806.5248128312674,806.2927887522443,771.7124227034196
1731654811.1455388,767.3554386801624,806.5220945779266,803.7977345943546,768.241024837028
1731654811.1479654,799.665608301405,806.5190204561538,801.9378233332008,789.554775365467
1731654811.151867,845.8223896467524,806.515616366625,801.5302404257733,819.4021453115869
1731654811.1535568,871.4614749491412,806.5119269723324,802.6351691308915,836.6764561664737
1731654811.1557682,860.1869938175328,806.5079782041834,804.6195014738436,832.0906508652963
1731654811.15762,825.7806243283952,806.5037753490178,806.5932842458956,814.7673820720108
1731654811.1596694,799.4891566416547,806.4993192815406,807.937055944869,803.4673892791967
1731654811.1635706,803.2014335330961,806.4946181121745,808.5809365540974,810.0691267113589
1731654811.167472,831.1773882451363,806.4896815303882,808.8761373675075,829.4120353554202
1731654811.1691709,855.6698157307267,806.4845013602918,809.2181599572738,844.0941002391183
1731654811.1713734,851.3592317288936,806.479038562361,809.7628920153346,839.9457055677483
1731654811.1752746,817.5974980712076,806.4732445333971,810.4280380814557,818.8014578961834
1731654811.176492,779.6581266207331,806.4671271490845,811.0522770540074,797.6468423425459
1731654811.179176,768.1548185398826,806.46082142267,811.4666979300825,794.8536232226261
1731654811.180491,793.8606263920033,806.4545671426547,811.442584790294,814.9531271556616
1731654811.183077,838.5562780816523,806.4485032482729,810.7153213729383,844.4634966396661
1731654811.184785,869.2681996457932,806.4423357181201,809.2047782559152,862.2449359156012
1731654811.1869786,864.4064493621051,806.4351944642157,807.2372302453394,856.1555079659493
1731654811.19088,830.7192206426305,806.426137964188,805.4460798126768,832.6085900655539
1731654811.1947813,797.2512849835516,806.4154310642153,804.3204727679794,811.1520919184419
1731654811.195364,791.1884552861015,806.4057638729427,803.7928715780902,808.3146287440766
1731654811.1986823,815.5315692955121,806.4015616484687,803.3035709695054,823.9812242072594
1731654811.2003984,847.123813494589,806.4048565445348,802.3347137428824,841.709097610833
1731654811.202584,856.4842183945692,806.4091616054394,800.9176256351936,842.8231707879539
1731654811.2064853,832.680668186287,806.3976020856558,799.615183811394,822.5211278120778
1731654811.2103865,792.6143953893927,806.3536674709159,798.983876433007,794.5189824460974
1731654811.2142365,767.4170639526432,806.2856940121956,799.0196101322134,780.3816404020109
1731654811.214288,777.4066111713303,806.2476960452232,799.1050271146275,792.2971033296434
1731654811.2154431,815.7624478821391,806.3214029993542,798.5230363962299,823.1595042826184
1731654811.2160122,853.6124900235361,806.534099618183,797.1164473457555,851.7191888352047
1731654811.2181892,862.371729433215,806.7463816673742,795.5570583763808,858.6690607111645
1731654811.2220905,835.950447887566,806.6268374288591,794.9933155250744,841.178118494425
1731654811.225992,795.468396254386,805.8328410690108,796.3134434990342,814.6421424111551
1731654811.2298932,772.4896955802777,804.3484465886268,799.5392474884328,800.2998513973436
1731654811.231626,783.7989579427716,802.7011072856726,803.7553897779546,808.4918163493796
1731654811.2331083,817.9790455157503,801.7703723455961,807.583706477725,830.9356127262258
1731654811.2337945,844.9385270499178,802.2268004574338,809.8593494267849,848.1648630982659
1731654811.237696,840.8311760523736,804.0205804078269,810.1111835747238,845.8490828707144
1731654811.2415972,807.9168115672325,806.366536715089,808.6585712554792,826.4247473074723
1731654811.2454984,772.9007095588618,808.2679040426153,806.3786461270696,806.5512753291557
1731654811.2472398,765.0454281612522,809.160941297122,804.3067801806301,802.8621684822642
1731654811.2494,791.9924226692158,809.1845038306523,803.2287949765041,818.0799893605174
1731654811.2503955,832.990497320334,808.9247107671714,803.4010341855261,838.8739370298543
1731654811.2519803,855.0814576677299,808.8984846204562,804.5089320569656,846.9273676857384
1731654811.2533011,839.4624959015014,809.1743530711208,805.8887222566746,834.0023632470309
1731654811.2572024,797.0215948217977,809.3539242602149,806.8920292022333,808.7351827390787
1731654811.261104,760.2121085674402,808.8662091512784,807.1804216236766,789.5927060868484
1731654811.2628536,757.1507888499477,807.3638323413587,806.7977462305766,789.6541930738312
1731654811.265005,788.7268324607018,805.0061152903043,806.0382168561777,805.8175082570014
1731654811.2689064,827.8907487402029,802.499134034848,805.2526670784641,821.6745730375033
1731654811.2708523,842.2208754431235,800.8594662694381,804.7167519891059,821.8647960072121
1731654811.2728078,821.0329838921493,800.9632490341808,804.5802856476529,805.7045231296216
1731654811.2767093,784.109319170319,803.0532266091186,804.8515795679546,788.210850903694
1731654811.2784674,764.7285239899559,806.4664652017065,805.3922160669432,787.3615240786685
1731654811.2806103,781.5748421488884,809.8106098419074,805.9475525574298,808.3245169871252
1731654811.2845118,823.2174668392142,811.5940877052806,806.2409275442,838.0795059157581
1731654811.2853477,857.7047394441396,811.0013936656509,806.1025972956975,855.0991617449981
1731654811.288413,858.6439585661832,808.334455638313,805.5449716567229,846.2227779607149
1731654811.2897246,825.9954882129563,804.8061836281227,804.7119961343965,817.0663121563166
1731654811.2923143,784.9380249676041,801.8099495524898,803.7404166954623,787.7074668111137
1731654811.2940812,764.4650761870306,800.1681247940332,802.6763731597875,777.221424297916
1731654811.2962158,773.7391282914,799.8491838243816,801.5550466908088,789.4043172469002
1731654811.300117,795.7023654825811,800.2347183793877,800.5739298188782,810.8961478444554
1731654811.3040185,802.974808259588,800.5957297831517,800.1540947086139,822.8532573407823
1731654811.3079195,782.4175557177027,800.3990975046731,800.7526213888102,816.3872485669056
1731654811.3085966,747.4098145859115,799.3895295434046,802.509095934229,799.1342035853054
1731654811.3096952,727.2375947170959,797.6531469350961,804.9796909290843,787.9027027210549
1731654811.311821,742.3524019110642,795.744629800046,807.2018717084442,793.9230579275516
1731654811.3157222,786.2161678032274,794.6506645505734,808.1465165311159,813.1006902934665
1731654811.3196237,829.0365865850471,795.3502550914304,807.340848999829,829.2568472396641
1731654811.3203,840.6631824736698,798.1370354561438,805.2501893079436,827.5863429370929
1731654811.323525,814.2631891203583,802.2374111751022,803.0884155878348,807.266110935999
1731654811.325309,771.7538208516904,806.1111985243984,802.1167641332057,782.803062246871
1731654811.3274262,746.5576917588436,808.2627002329821,802.9075077648107,772.7000018444525
1731654811.3274686,757.2818036207194,807.9907732621211,805.1063477929985,784.3108070925219
1731654811.3313277,793.2191665993909,805.6291778276329,807.8289193369667,807.2209701298202
1731654811.3352287,823.3731153056979,802.2621337971217,810.3068323097433,821.0514143020176
1731654811.3391302,821.9673284493442,799.1921238283119,812.2277421279362,811.9372530972795
1731654811.3409228,789.8790595433529,797.4224368552599,813.5498658041377,784.4318070738339
1731654811.3430316,754.3789062704926,797.2981254746,814.0901507769212,758.8009523457918
1731654811.346341,747.1184288961074,798.4246098793168,813.3833955972559,755.4123554608304
1731654811.346933,778.1953957688632,799.9564890573523,811.0068489413668,778.5606571334956
1731654811.350834,827.4148099612946,801.1293901664882,807.0862919820394,812.6930729675918
1731654811.3547356,859.8240913046016,801.6552133667186,802.5237296063002,834.0950556277863
1731654811.3552525,852.9737991976481,801.7055337771938,798.7422527231246,828.8296107715252
1731654811.3565366,814.1815969326381,801.6083764168609,797.1184259667482,802.9447253049389
1731654811.3586369,774.3771175988098,801.5828514008296,798.4135056091714,777.2318985118957
1731654811.362538,763.745241618998,801.6737100268492,802.4113397019614,770.9425195946072
1731654811.365213,788.5371378092468,801.8258420806494,807.864212727004,787.343225548265
1731654811.3664396,827.2714609725042,801.976639434992,812.8403462406756,812.3321523499151
1731654811.3703408,849.102913562658,802.0997135114587,815.4890429099238,826.8374772311602
1731654811.3721504,839.3180625982808,802.2008380140144,814.9558189247482,822.5815941182104
1731654811.374242,810.9585795686502,802.2960385337253,811.8945006730376,808.097391704073
1731654811.3781435,792.8852936833871,802.3957463902437,808.1246573498901,800.1722672193503
1731654811.3820448,804.3661086142924,802.5014756998535,805.552794375799,808.3719580593237
1731654811.3840847,837.815368521179,802.6099645319723,805.0690783020464,826.1789774970894
1731654811.385946,864.4873886541471,802.7179384037544,806.1779794198552,836.4276036842957
1731654811.3877642,858.5153498670109,802.8241653911119,807.5471996736225,826.3640581959459
1731654811.3898475,819.2792155941838,802.9290631658907,807.9860334611553,799.4997064324554
1731654811.390205,773.4246233565367,803.0334994088167,807.1522094311944,774.1091314503395
1731654811.3937488,754.4848672850367,803.1379951636956,805.5975585192075,769.220135345131
1731654811.39765,776.351228626962,803.2425992684526,804.2375340508263,789.2488027472886
1731654811.4015515,822.0946903296431,803.3471296840547,803.6402422473399,819.8104545550428
1731654811.402957,857.4553067484868,803.4514214673665,803.5963788906652,838.456905955124
1731654811.403378,858.2347562355889,803.5554221729776,803.2716379426348,832.024472992574
1731654811.4054527,829.2057600670911,803.6591617774319,801.8777369718993,806.7098512857101
1731654811.409354,798.9313515784536,803.7626880476731,799.3869416954354,782.6981108184904
1731654811.4132557,794.9133623713565,803.8660292047454,796.7024490667728,777.7240562525172
1731654811.4171567,820.1058633181657,803.9691935875181,795.0909280712755,793.0534083512492
1731654811.4189918,850.6690561618443,804.07218495273,795.3080701399479,813.3100727825987
1731654811.421058,856.6515122430992,804.1750095268884,797.1227553748205,819.9761651376423
1731654811.421829,827.8342262955099,804.2776660826164,799.5938428929338,807.0914701102804
1731654811.4249594,782.9665702488603,804.3801305985749,801.8122452408036,786.1518059641214
1731654811.4251568,754.8965262118107,804.4823610749976,803.4714299452675,776.370723249215
1731654811.428861,764.0292383292162,804.5843422085488,804.8285941647779,788.443340218821
1731654811.432762,801.8130557153509,804.6861533319253,806.1475810043696,815.115341818542
1731654811.4346058,837.6402625624808,804.7879880830164,807.146989332,836.3687172463599
1731654811.4366634,843.6052406698178,804.890032194516,806.9903086543555,835.2819595394143
1731654811.4405646,817.0247480435143,804.9921896177768,804.9139872369477,811.832025662952
1731654811.4407012,782.2545556275866,805.0938549576005,801.0092580289025,783.2744305898357
1731654811.444466,770.1995513008061,805.1941249598075,796.4564461399652,770.5436947332213
1731654811.4483674,792.3915126862321,805.2927239818097,792.9192001322153,781.6705896242972
1731654811.4502196,831.1197467009032,805.391244950268,791.531206422194,805.7742426949955
1731654811.4522686,853.7961251770986,805.4933201099097,792.281447738713,822.4408257999578
1731654811.4561698,839.6898220214817,805.6020535124551,794.2534558848957,818.5938138834663
1731654811.4595733,797.1511384687976,805.7148148954071,796.4285340364327,798.9569011652288
1731654811.460071,757.4434356724774,805.8194617594319,798.3315585152718,781.7233739172486
1731654811.4601092,750.2472909655492,805.8993726573293,800.0522441970664,783.2319854533702
1731654811.4639726,780.3394814288428,805.9516524295453,801.8056268517136,804.2617177659172
1731654811.4658334,823.8076175243004,806.0094844405903,803.5713969810324,829.0765342682238
1731654811.4678738,846.7783212261693,806.1415357053389,805.1536574988012,838.0023917599066
1731654811.4717753,831.9712909244068,806.3985259308788,806.4931407621475,823.3901361108562
1731654811.4756763,792.0529251500695,806.7135790620764,807.783033312169,795.9984957782515
1731654811.4784453,759.0335219173611,806.8369386072546,809.1692355850583,776.5150212014796
1731654811.4795778,758.1801429506377,806.4364051122384,810.3158063199436,779.0577308838468
1731654811.4814472,787.6326243373583,805.4092391268205,810.3614286064447,800.100121262029
1731654811.4834793,820.3274301942992,804.194116239632,808.4891698007302,821.7589000553949
1731654811.4873805,826.4965083848309,803.6916284512242,804.7264092053853,826.537166189559
1731654811.4912815,798.1865260181455,804.6567988229251,800.2646187002176,811.3559295424303
1731654811.4950614,755.8662653782792,806.9850880075475,796.9020804312795,789.5908749009716
1731654811.4951832,732.0393111808578,809.5463731046185,795.9380684363906,779.7980538779483
1731654811.497061,745.3180846591955,810.8193962568865,797.3476955082998,790.4980822004236
1731654811.4973173,785.7533615212963,809.9148911200492,799.8793086690549,813.3246729071203
1731654811.4990845,823.0206631441098,807.2250022462702,801.9799948332899,830.0282395844639
1731654811.5029857,830.8540551090656,804.180996462104,802.7965774923264,827.7026060924078
1731654811.5068872,808.0087007178004,802.2732440763627,802.4973798462885,809.7691105218836
1731654811.5107884,778.5051688249754,802.0724516608963,801.8128053604629,793.3201269283661
1731654811.5126748,770.7196340506948,802.9872646818121,801.3535402766275,794.5421923960936
1731654811.5146897,792.7523842687957,803.8675646634944,801.2882528656776,814.2805801356594
1731654811.516189,825.0817806002349,803.8659599989164,801.4628241165219,836.283189074577
1731654811.5185912,837.0480386206403,802.8538004783006,801.6671551085933,840.2210471466009
1731654811.5224924,813.3775850888467,801.2281018009866,801.7939623138136,818.9295704445626
1731654811.5263937,768.3249834988097,799.5348570587827,801.8457596087417,785.4270804391449
1731654811.5282886,735.3720763909895,798.3446397650757,801.8702201363697,763.5604586351309
1731654811.5300138,740.7076365328289,798.3129948762235,801.9044904791871,769.5467831320418
1731654811.5302951,781.9366990002239,800.0148472452802,801.9579352238381,799.0921740950046
1731654811.5341964,829.2175746640137,803.4261393551424,802.0221127225287,830.3758794978236
1731654811.5350616,848.1634663226533,807.5137021143015,802.0861999155924,840.7215721005459
1731654811.5380976,826.5175848400737,810.5384240796479,802.1451140901626,823.9864084693489
1731654811.541999,783.3282922447788,811.0960595824967,802.199418505583,794.9381820274522
1731654811.5439024,753.0801699088732,809.1590560915446,802.2517547262614,777.0453496096364
1731654811.5459003,757.5508783056208,806.2335932461488,802.3040109916313,783.4723587058346
1731654811.5498016,788.4593133096754,804.4107114600102,802.3565761625865,806.7458239465421
1731654811.5537033,815.1315516725845,804.9857865998237,802.4089562281087,825.4452711521952
1731654811.5539336,810.57154920385,807.660369675269,802.4605912486035,822.1564819660514
1731654811.5576043,774.2342131487292,810.8581218715176,802.5112479937115,797.8125636392381
1731654811.5595162,733.0104399742869,812.8306090167795,802.5609848667789,770.9539302168442
1731654811.5615056,720.0115727663424,812.7141629153825,802.6099549006195,762.947654313793
1731654811.564966,748.3548101135676,810.8721175290311,802.6582622433801,781.204826930456
1731654811.565407,800.6148899060512,808.4591299548297,802.7059313041628,813.4873969816497
1731654811.5693083,842.0598734598967,806.6433974677819,802.7529435973048,837.4208690306008
1731654811.5728056,847.253411228107,806.0080810937186,802.7992806594516,837.5816269146401
1731654811.5732095,819.1444135233871,806.4065000370244,802.8449427564815,816.8234006263528
1731654811.5751302,785.5299548948929,807.2290017119535,802.8899454910432,793.0913992955834
1731654811.577111,775.7748727040469,807.8394547932025,802.9343090261995,784.4777475178682
1731654811.5810122,796.8446775519411,807.9074213536509,802.9780508637567,794.7646319130846
1731654811.5849135,828.4719851886356,807.4748934387758,803.0211846576398,811.2880629778143
1731654811.5888147,841.3074043777176,806.7805976960948,803.0637223572878,816.6016539495896
1731654811.590744,822.4710890512961,806.0069540656068,803.105676437475,803.7777762839205
1731654811.5916777,786.8111185290068,805.134883683958,803.1470607663363,782.3388334725971
1731654811.5927162,764.552070799783,804.0035374713008,803.1878903401742,770.0751248114257
1731654811.5966177,775.8955969951055,802.5356101067864,803.2281806915656,777.9179749006215
1731654811.5999184,813.6943109196736,800.9532953126285,803.2679475213262,800.4967316134299
1731654811.6005187,848.4154344823162,799.7549075442183,803.3072066500159,820.035297200477
1731654811.6044202,851.4814505993794,799.3629352907112,803.3459741287626,820.4220872798838
1731654811.6063578,818.2917340030764,799.6706519502968,803.384266340173,800.2388533305217
1731654811.6083214,772.3020566072578,799.926057849371,803.4221000250283,774.2958604796472
1731654811.61055,746.5132869304446,799.1935863712886,803.4594922594185,762.1873537565732
1731654811.612223,757.0292262015043,797.1100150513789,803.4964604296197,772.7871033840493
1731654811.6161242,790.2430970385321,794.3022856512837,803.5330222232732,797.211144346913
1731654811.6200254,814.4518152757856,792.0643805749551,803.5691956152223,816.1991254453102
1731654811.6219716,806.5111789024777,791.5221427361259,803.6049988129187,815.9993703097464
1731654811.6239266,771.3963027769997,792.9467780608562,803.6404501621446,799.5941023747911
1731654811.627828,738.3753553646111,795.7114323964452,803.6755680881529,783.9369608356998
1731654811.629422,737.0716165905486,798.8168909964904,803.710371197837,785.6312988511806
1731654811.6317294,773.2060334326222,801.4850992623445,803.7448785961793,807.0072586048756
1731654811.6348703,823.6444141504497,803.3747011067866,803.7791102243156,833.9543558877652
1731654811.6356306,854.43324546866,804.3873072696687,803.8130867375363,847.1223867300156
1731654811.6375854,847.2030319071015,804.4059873185072,803.8468284718574,837.4071940137466
1731654811.639532,812.9446663443433,803.3241215129931,803.88035377519,813.3014855245808
1731654811.643433,782.3396038584896,801.3829395512803,803.913678269702,794.1401363795142
1731654811.6473346,780.621299714455,799.443061525214,803.9468173364755,794.6009005013204
1731654811.648294,807.5523131279087,798.7554230788727,803.9797924682426,813.136203479235
1731654811.651236,838.9465985803971,800.2071282240004,804.0126373693719,833.9960948731675
1731654811.6531992,848.144691594687,803.5801268239594,804.0453945831744,841.115507782034
1731654811.6551373,829.0108002228174,807.507600970645,804.0780949664683,831.9117385611297
1731654811.6590383,800.9438796871981,810.2906413772017,804.1107270783923,819.0852270481131
1731654811.66294,792.0144672079251,810.9707941286435,804.1432275867289,819.0135603139354
1731654811.6668413,814.8864293054409,809.7970428983889,804.1755345016013,836.9559574558357
1731654811.667166,855.7106595670775,807.7689175373864,804.2077091770195,861.7877096587063
1731654811.668813,884.7875461163202,805.7572399068923,804.2400409339507,874.6082789094947
1731654811.6698227,880.0087061351786,804.0044371354,804.2729591463851,864.0361555214844
1731654811.6707425,844.3738421544298,802.3451892799521,804.3066251703111,835.8313224367462
1731654811.674644,803.9053250476077,800.7745089216455,804.3403726207084,809.1479471395656
1731654811.6785452,787.5381284328915,799.7127907805847,804.3726085074524,802.165456655125
1731654811.6824465,804.648403878469,799.6801502331949,804.4019303792853,818.2041972617465
1731654811.6844268,838.0708581595909,800.6995180015413,804.4294488659253,843.3056662098234
1731654811.6860385,858.4035797325489,802.0355014740907,804.4605393081468,857.3525361275273
1731654811.686348,848.157687187547,802.6094826597244,804.5027217698662,849.9149549835391
1731654811.6902492,816.0114196636279,801.8484183021111,804.5576245526436,828.0851699003172
1731654811.6941504,789.3969424600679,800.3023590664633,804.6108935159474,810.0798441986063
1731654811.698052,791.5631645250216,799.4583905227977,804.6320776419041,810.0394448129974
1731654811.7000406,822.1144937619082,800.7567494838926,804.5981576053936,826.5167894074843
1731654811.7019532,856.9955005797249,804.4568847651077,804.5386973904625,843.8448219305152
1731654811.704775,867.7589480775893,809.1976775509215,804.5681890092075,844.9553572898469
1731654811.7049105,844.3752237001204,812.6608024686715,804.8493436317627,825.1763245627154
1731654811.7058544,803.2820603309742,812.9709604906452,805.4650848710772,796.0724798120264
1731654811.709756,774.2967872499393,809.897979414215,806.2729389861627,776.4182133380216
1731654811.7136571,776.841756482507,804.9910504979626,806.891432887521,777.5495110892508
1731654811.7156546,804.6522313097623,800.5147162534786,806.915293623526,794.8705895565957
1731654811.7175584,831.6044107484448,798.0023267778025,806.2680593775453,812.4362220354196
1731654811.72146,834.0651645182639,797.5554289454566,805.412561772794,816.7525318099547
1731654811.7237823,811.0997839346679,798.2734947616667,805.1417802191808,808.0382224800376
1731654811.725361,785.261895858058,799.1722196144048,805.958318750204,799.2374370172602
1731654811.7292624,783.0216167858324,799.7582979940594,807.4679470232653,803.7022205289775
1731654811.7312684,811.3821988695896,800.0290927051553,808.3754775626148,822.4344330612552
1731654811.7331638,850.6870754094971,800.1852189594567,807.2879611090242,842.1994855974071
1731654811.7370653,869.9629436897965,800.3862848940397,803.8159860954124,846.3278712481616
1731654811.7397273,852.1539338489823,800.6735659571601,799.0815749858797,829.0305991580394
1731654811.7409663,808.3866119874148,801.0113697053634,795.1443241377904,801.0459613063339
1731654811.7426543,769.5349414368377,801.3531228248588,793.7384883806649,781.6955417895219
1731654811.7448678,761.8957369262953,801.6766455396364,795.2688871955379,783.6475864173785
1731654811.7468822,786.6050939547403,801.9840941354266,798.7582008346218,802.7105199615394
1731654811.748769,819.4311944087315,802.2867375168552,802.6513530859048,821.0871142437136
1731654811.7526703,831.1459102073484,802.5927221326162,805.7676966376124,821.7360835678638
1731654811.7565718,811.7759407260776,802.9037645814784,807.7183024939443,802.2968513868984
1731654811.760473,778.564338951818,803.2177476009135,808.6640465657273,777.0797848849095
1731654811.7615266,760.9057879695252,803.5322313459479,808.8470113972962,765.3230947393934
1731654811.762496,774.9362756002929,803.8461642263194,808.3943931670219,775.3534205917085
1731654811.7643745,809.2570171209952,804.1597509231742,807.465371409994,797.6932902681403
1731654811.7682755,833.8675051615296,804.473610510052,806.3943484340654,812.6767933877552
1731654811.772177,824.9304625277181,804.7881548373537,805.5635214030164,806.2687130461659
1731654811.7746797,784.9112427588977,805.1034494253847,805.1544265436768,781.3537277631013
1731654811.7760782,741.514661216623,805.419369081373,805.079394103317,755.6102627028678
1731654811.7781098,726.1284128969876,805.7357850581221,805.13062698434,747.7332575069303
1731654811.7799797,749.0095014559811,806.0526517935239,805.1528147429201,762.8128274607398
1731654811.7803986,791.0909227662289,806.3699969648605,805.1018946637198,788.3196179433082
1731654811.7838807,819.1048113582569,806.6878705610523,805.0064414083146,803.9765548950671
1731654811.7877822,812.0940993009724,807.0062960286087,804.9075196717745,797.8950058776626
1731654811.7916837,778.0130195804531,807.325243230009,804.8256234010671,776.0970890487637
1731654811.7937236,746.8187818879012,807.6446379124451,804.7595123614985,757.4940146286383
1731654811.795585,745.5442316031111,807.9644224731151,804.6993550449519,758.1535487879618
1731654811.7992706,775.8051416463852,808.2846547455641,804.6377661565901,777.7586608868327
1731654811.7994862,812.330947877108,808.6055658294839,804.5730287704254,799.6257697382783
1731654811.8033876,823.7453397966792,808.9274469786876,804.5069394843216,804.4562143644449
1731654811.807289,798.4911252380291,809.2503038914432,804.4416873170817,786.517257106618
1731654811.8093374,754.6928434683176,809.5734693402418,804.3782668372824,758.8807341523543
1731654811.8096318,725.9599596916136,809.8956792354281,804.3165419666655,743.3348309146897
1731654811.81119,734.5984150493241,810.2161154072809,804.255979402692,753.0831079725335
1731654811.8150916,773.7872371909187,810.5361820492308,804.196211985131,782.1897091655823
1731654811.818143,813.1537420777762,810.860407327941,804.1371776275232,810.3361213354857
1731654811.8189929,823.4521816548856,811.1939991526525,804.0789893130286,819.1449030652744
1731654811.822894,800.4124601996322,811.5361690704219,804.0217697280224,806.8661159427114
1731654811.8249512,768.0509587542804,811.8733128134196,803.9655714338509,789.3535458935112
1731654811.8267956,758.3515101549804,812.1817626057314,803.91038115216,786.4122878129577
1731654811.8306968,783.9977746295127,812.4487828325604,803.8561588015544,804.7925946354641
1731654811.834598,827.0079571949886,812.7054125170471,803.8028753534144,832.0335590562183
1731654811.837015,852.9944361683378,813.0388938264966,803.7505390507106,846.3484130746563
1731654811.8384995,839.3466724583088,813.5388223324497,803.6992044447553,834.391510880814
1731654811.840565,794.1271517724391,814.1651731734628,803.6489471278147,802.34532923177
1731654811.8424008,750.2878344393908,814.6196303585635,803.599789887923,771.4452583350729
1731654811.8445842,739.9686838073085,814.3907667540652,803.5516106789531,761.7487296665543
1731654811.846302,769.5198742907679,813.0737765053849,803.5041343511041,777.1967461755464
1731654811.8502035,815.0645900596398,810.754623185153,803.4571304381286,803.6369926726459
1731654811.8541048,841.9096156731705,808.0102646926402,803.4108054596004,820.9050256762214
1731654811.8558867,832.0758721773045,805.3990606136163,803.3660799618133,818.841337738434
1731654811.856179,797.7775120341571,802.967551172162,803.3241955264748,804.2236427793165
1731654811.858006,770.1278667470709,800.3854727849147,803.285333844182,793.3468797266743
1731654811.8619075,772.6235934107801,797.615909619204,803.2469441154773,797.0185238884736
1731654811.8658087,801.4788923089409,795.372444889464,803.2038230106705,810.9797580950775
1731654811.86971,829.1065292468427,794.771598788933,803.152156022323,819.8988756329456
1731654811.8717928,827.6584167778134,796.3866494541209,803.0969012097453,811.3221000091988
1731654811.8736117,792.8719078429158,799.5438767206863,803.0562180816548,787.4843013459397
1731654811.874759,748.4519967680138,802.5558675846938,803.0525914640722,764.8051298107047
1731654811.8775127,727.4350121885985,803.7870267264123,803.0859278657246,761.2323416899565
1731654811.8795364,745.6911289294023,802.7271005628638,803.1038934375192,781.5707684998202
1731654811.881414,788.9720481912796,800.2515649018096,803.0091803236963,812.6948033913696
1731654811.8853154,824.1344806194766,797.9361651842111,802.7428217161778,832.940516812963
1731654811.8874066,825.8431223824,797.0230505401614,802.4254652247889,828.8023918577624
1731654811.889217,797.212789929199,797.7919494556156,802.4347124656097,805.8391775363283
1731654811.893118,767.1328103845284,799.6389740178589,803.2415666265459,784.6855689201932
1731654811.893631,765.9064951333021,801.6044501918645,804.9865795799452,784.7990410937589
1731654811.8970194,799.2294196557904,802.8972081508756,807.1518682655094,808.7942097724416
1731654811.9009206,842.5245618557377,803.1627047418482,808.8152603828016,840.1364335857314
1731654811.9030204,860.799762402661,802.5137208533347,809.4077500303864,856.1998398154209
1731654811.904822,837.6486537836131,801.431922985671,809.2104652400928,846.1542104596122
1731654811.9087234,789.3426342146074,800.5904785711082,809.0310265264206,819.3434086868107
1731654811.912503,752.5275156482586,800.6100034949724,809.3876315565935,797.7017773449586
1731654811.9126246,755.7114987906436,801.805640829974,810.0008827983229,798.5203937940995
1731654811.9144888,797.3692218501891,804.0358004250547,810.0420933148107,821.2038227863966
1731654811.9165258,847.565278584029,806.7384656811404,808.9099436686303,848.1751354260332
1731654811.9186342,871.2770862245827,809.1438693680909,806.8859756793224,858.9424036544785
1731654811.920427,854.9732471965492,810.5587219862184,805.1006527252251,846.1439967233804
1731654811.9243286,815.8502596249891,810.5972732890174,804.7526641220259,820.854571649451
1731654811.9282298,786.8664477855991,809.2922522491752,806.1303891954085,802.9546148158864
1731654811.9313753,789.8959457522715,807.088647349187,808.2233101933728,804.5562572353282
1731654811.9321313,818.8206737287876,804.7360250177896,809.3241594147162,820.3680940366684
1731654811.934248,846.0983054006148,803.0646695902396,808.2541465246263,833.0683312267014
1731654811.9360323,846.7790774737467,802.654899238964,805.3101626450324,828.8555896032886
1731654811.9399338,819.5385979012632,803.5345715110602,802.1960264896946,809.6065900801625
1731654811.9438353,787.3143582127099,805.140375176335,800.9472322718835,791.2461702216908
1731654811.9477365,777.6882205185814,806.6547526227769,802.5944674815954,790.0408254227548
1731654811.949441,799.8885867572071,807.5042642474183,806.4674709151025,808.7103325212898
1731654811.9498618,837.3088256601169,807.6238706690756,810.5502925214643,833.9391526979634
1731654811.9502473,861.1190273866755,807.3193350813007,812.5999588264901,847.0775599809358
1731654811.9516375,853.5626112420625,806.9408045384978,811.3363502144762,839.1480981746633
1731654811.9555392,822.1434920228493,806.6698482446727,807.0710560955922,818.0354409366583
1731654811.9594405,793.2648735556165,806.5122373356778,801.5091253456616,802.0262695457307
1731654811.9633417,790.3070821924186,806.3978539254955,796.885161929554,804.803007276609
1731654811.9654756,814.0421761173117,806.2688316135541,794.89598359564,824.134253867439
1731654811.9672432,841.9007669604493,806.1090634890072,795.9568768584346,843.7785675154157
1731654811.9691193,847.1535422351656,805.9305581784333,799.1258858104869,847.2050986456193
1731654811.9711444,822.0882417308809,805.7499317135342,802.7008667475556,831.6398461628982
1731654811.9750457,785.4805587587732,805.5753996600417,805.1497775768386,810.5242588451229
1731654811.9789472,767.7295254149583,805.406426993165,805.8567446834498,802.3003814188116
1731654811.9810894,785.8753369889725,805.2390428121805,805.2788277684415,815.0339796453981
1731654811.9828484,829.2126832407927,805.0702709347457,804.4761792457891,839.7608884383441
1731654811.9843934,867.3266117544846,804.8994126766214,804.3692564775329,857.9198399362923
1731654811.9867496,873.9225236358316,804.7271752313981,805.2157682701996,856.4877652888607
1731654811.987991,847.1408598856734,804.554418603139,806.5967174695213,838.2824525228657
1731654811.9906511,810.1089493023643,804.3815214972954,807.8208431766842,819.0807861675636
1731654811.9945524,791.499928370436,804.2084096229229,808.3862333632459,814.0682499351719
1731654811.9967034,802.0665415689468,804.0348514700157,808.1714909112469,824.9279256396931
1731654811.9984536,826.5081317748037,803.8606847218012,807.3192362203348,838.4617074772436
1731654812.002355,837.4784247592646,803.6858712711713,806.0510744070874,838.1049067628658
1731654812.0062563,819.9721320873737,803.5104428785716,804.650355181411,818.750655688878
1731654812.0068636,785.3335609743688,803.3344315905275,803.5823145724047,792.253098761954
1731654812.0101576,762.7108979554431,803.157836047583,803.4952057756088,778.6512424811484
1731654812.0123172,774.8252291439701,802.9806274302057,804.9305951906423,790.0936597191053
1731654812.0140593,818.1757626560973,802.8027770667442,807.8925997097191,820.5248586805017
1731654812.0179603,864.1711336675072,802.624284378275,811.6401560638454,849.491480576944
1731654812.0193455,880.5598095053078,802.4451836132619,814.9323002943796,857.1169241097091
1731654812.0218616,856.1938370899119,802.2655107175159,816.5938491358355,838.614194438821
1731654812.0257356,809.5458809565573,802.0852331327668,816.0286772704598,807.278496395094
1731654812.025763,774.2154568056977,801.9041931719632,813.3994651983392,783.924386918084
1731654812.027931,772.7760662379446,801.7221602812692,809.47355068129,781.1368894600541
1731654812.0296645,799.6647797058149,801.5390575848907,805.3016420978574,794.5838124439102
1731654812.0335655,826.8344082971324,801.3552642668541,801.8579486295301,807.9808927747607
1731654812.037467,827.610542587137,801.1716558967564,799.7145135336568,807.3888799642002
1731654812.0413682,799.1986666268326,800.9889774609741,798.8757002786274,793.0231544541402
1731654812.0435448,765.2424152047652,800.8065756932505,798.8987354562057,778.91280821812
1731654812.0446076,756.3103209482589,800.6214834842873,799.230539040114,780.8522957966976
1731654812.0452695,784.4138920005495,800.4296542406715,799.5055907411964,802.6913887934012
1731654812.049171,832.4267750050099,800.2304039618502,799.6234996672617,832.2215392502676
1731654812.0530722,866.9488012443893,800.0318597295553,799.6460345526496,850.0315627178
1731654812.0542977,864.1723158148349,799.8508322559654,799.6613378145977,844.3203460820383
1731654812.0569737,828.0515084961519,799.6999102960423,799.7122665801755,819.994113026557
1731654812.0591586,786.5059945836216,799.563615230527,799.7949227675523,794.9188875560607
1731654812.0608747,769.0601700600125,799.3838542994002,799.887571976498,786.2809075316598
1731654812.0634797,784.0468050389422,799.0884204747447,799.9743276932774,797.7859502031135
1731654812.0647762,813.6328424375994,798.6790315456857,800.0517130488281,817.8091457202022
1731654812.0686774,830.32955592668,798.3324294130133,800.1237389625672,829.8578764628735
1731654812.072579,820.9379218847663,798.3926555865694,800.1951139027364,826.5816741508712
1731654812.0747724,797.6319103461093,799.1452411349252,800.2678908095038,815.45981089601
1731654812.0764802,786.7526640062166,800.4558295377345,800.3416856925783,811.3158087257087
1731654812.0803814,805.0060621526774,801.6117129470598,800.4152945784692,822.2794413992375
1731654812.082352,843.6554627697674,801.6774521621929,800.4879011068818,841.6468294390072
1731654812.0842829,874.4728675625983,800.2200393707798,800.5593536172096,852.956376473349
1731654812.088184,872.7003832268733,797.7988296500941,800.6298691497193,844.0645009972548
1731654812.08925,837.967991386272,795.7159983444103,800.6996760789466,818.2134742270567
1731654812.0903862,795.7392227735496,795.1602356058312,800.7688536734952,792.5510026352744
1731654812.0920854,777.7060254062586,796.4246419870746,800.8373565566504,784.950533483492
1731654812.0959868,796.7180143278604,798.8017828016126,800.9051033657894,799.6773346691665
1731654812.099888,836.5734230710314,801.1519765654926,800.9720376163142,823.6368274228439
1731654812.101224,865.2555883087398,802.6051758471565,801.038138598266,836.5653129578345
1731654812.103789,861.0532827869313,802.8736473668148,801.1034040003659,827.1568227487838
1731654812.106,830.1042549414777,802.1167784519787,801.1678312533489,802.0556250983756
1731654812.1076908,800.7791156145242,800.6814568326005,801.2314099880944,780.3476098263623
1731654812.111592,799.6984561978305,798.9914466217291,801.2941239756515,778.1577792749367
1731654812.1154933,829.6360207537368,797.5543984365191,801.3559559072778,796.1088555761944
1731654812.1193948,867.617874647053,796.9032694976316,801.4168903925654,819.6682364707881
1731654812.120096,883.9233464709037,797.4120403977092,801.4769143516177,831.2596079882215
1731654812.1216135,865.1260718265954,799.0979894384129,801.5360161495038,823.3858170713215
1731654812.123296,822.1465895024082,801.5484600151777,801.5941848621607,802.2576403705397
1731654812.1242025,778.6931492090209,804.0351630970516,801.6514100601802,780.6494443226078
1731654812.1271973,752.5947885232465,805.8052091552454,801.707681656304,767.8034780320968
1731654812.1310987,746.3080484252182,806.4512178879133,801.7629893243785,764.8683422116054
1731654812.135,751.2261248257723,806.1585107958364,801.8173217539041,767.4544895427123
1731654812.1372278,757.6000599091744,805.6302218258176,801.8706669437494,770.7082137874469
1731654812.1389012,760.6272457795836,805.6859584714421,801.9230147677955,772.2834530829397
1731654812.138968,760.4313849610961,806.7718510567338,801.9743611811925,772.2720753406089
1731654812.1428027,759.1111575868151,808.6792353373718,802.0247100790219,771.7220633518968
1731654812.146704,758.2816522791361,810.616392829179,802.0740669171364,771.4264098629872
1731654812.1506052,758.3340859814406,811.5832004944251,802.1224224044222,771.5694325764484
1731654812.1528416,758.8869801310047,810.8819070291147,802.1697368063351,771.9575271563991
1731654812.1545067,759.4644050974291,808.536494540486,802.2159485081789,772.3552875003093
1731654812.15784,759.8470148359653,805.3827089770139,802.2610265857352,772.6563582734389
1731654812.158408,760.0627696300432,802.7173318529399,802.3050493421697,772.87632228362
1731654812.159155,760.2284771411776,801.669268007665,802.3482290836243,773.0734815066976
1731654812.1623092,760.4261868594108,802.676448017841,802.3907757953828,773.2881251678339
1731654812.166211,760.6717867666433,805.3807150358697,802.4325841831964,773.5276852634166
1731654812.1684554,760.9428488852993,808.9189515867723,802.472964709438,773.7808889706264
1731654812.170112,761.2145414676299,812.3247873945955,802.5108679686329,774.035531105587
1731654812.1740131,761.4765689741012,814.8166401718348,802.5459306434292,774.2866975535007
1731654812.1767125,761.7313725925646,815.9791226960252,802.5799123493106,774.5357459571835
1731654812.1779146,761.9854004415449,815.8933228236255,802.6169530277645,774.7859505214743
1731654812.181816,762.242853642957,815.1094626854232,802.660711726613,775.0394342379917
1731654812.1840692,762.50440430543,814.3295861341248,802.7084079142367,775.2965713353439
1731654812.185717,762.7688516698364,813.9420549381347,802.7463147249722,775.5568248672022
1731654812.1896186,763.0350063235547,813.787662404206,802.7551699061414,775.8196777504198
1731654812.1935198,763.3024949525145,813.3643608672224,802.7307587888968,776.0850220739549
1731654812.1941068,763.571597982378,812.2487586440535,802.7097634646483,776.353072105953
1731654812.1955843,763.8427728226145,810.3323546357187,802.7699466650365,776.6241268653098
1731654812.1974213,764.1163402518032,807.7339287238874,802.9693095869087,776.8984166762403
1731654812.199683,764.3924379428527,804.6203718536433,803.2284937652742,777.1760823348515
1731654812.2013226,764.671118912416,801.221307407568,803.2421761560403,777.4572247404192
1731654812.2052238,764.9524502270422,798.0261933314317,802.5562245890359,777.7419530855852
1731654812.209125,765.236546648975,795.8576898925979,800.8562415601072,778.030399850482
1731654812.2130263,765.5235499005684,795.5579328831899,798.2934050732867,778.3227091220391
1731654812.2144563,765.8135954750861,797.3874345641004,795.5527378215736,778.6190206996259
1731654812.2152967,766.1068034938213,800.5804943750938,793.5369126160566,778.9194691990684
1731654812.2169278,766.4033064847492,803.4964226605961,792.8639353139333,779.2242030456333
1731654812.220829,766.7032945220766,804.4210147804964,793.5468579128857,779.5334081584813
1731654812.2247305,767.0070262599221,802.5788948297657,795.0887265711552,779.8473037623698
1731654812.2286315,767.3147494247312,798.6783497286233,796.9115450406268,780.1660818111321
1731654812.2290592,767.6265338398331,794.5455984721859,798.7940480091821,780.4898069295609
1731654812.2309103,767.9421475929321,792.0237066984337,800.9862410935812,780.8183717322371
1731654812.232533,768.261213337721,791.8941103609811,803.8941277986859,781.1516456497524
1731654812.2333283,768.5837870961597,793.6242575726195,807.5511400898878,781.4898564663183
1731654812.2364345,768.9110769501482,796.1038065278883,811.3042973581357,781.8339576738641
1731654812.2403357,769.2454418008678,798.6713199045868,814.0402254448558,782.1854283661228
1731654812.2442367,769.5887170283928,801.4494090832635,814.8552726156419,782.5450436969602
1731654812.2465243,769.9390817387581,804.671431545853,813.6616968367063,782.9110376217602
1731654812.2481384,770.2890869334985,807.7379171275863,811.2366003833446,783.278522382484
1731654812.2520397,770.6292507190179,809.1197573612405,808.6979430313987,783.6426754324574
1731654812.2522006,770.959378671074,807.4470797559277,806.8720456168141,784.0060582710258
1731654812.255941,771.3014002772788,802.8917069127974,806.0282864798006,784.3849086160051
1731654812.2598424,771.6970719130712,797.5089482834497,806.0404364608734,784.8038967900966
1731654812.262138,772.1738099104075,794.0558636541831,806.6609986561226,785.271665982688
1731654812.2637436,772.6860444233016,794.1657631444288,807.6153410344913,785.7472221421147
1731654812.2640114,773.0848726439897,797.338405477741,808.5288598624056,786.1338935810563
1731654812.267645,773.197659577128,801.4881973942914,808.9233522036288,786.3462127319737
1731654812.2710726,773.0477004477024,804.5034172266999,808.4350842107959,786.4492270796037
1731654812.2715464,773.0803588110371,805.5711935553642,807.1226369772901,786.7638009402424
1731654812.2754476,774.0753492294558,805.3912401354347,805.5482529727234,787.7397096153044
1731654812.2777522,776.4557674822418,805.3391651491972,804.4550752193373,789.472953860489
1731654812.2793489,779.1963351637303,806.3340725406184,804.2492984582933,791.0969478187044
1731654812.2832503,779.3808783673195,808.21097283734,804.7465056151998,790.7650817894173
1731654812.2871516,773.8969447897177,809.9333062008961,805.4114635520442,787.0338313504749
1731654812.2899446,763.5879747169203,810.3899894667438,805.815466592121,781.4916525891854
1731654812.2910528,756.9298178837334,809.1677148752678,805.8700847905038,780.4584318501674
1731654812.293366,767.4589639010223,806.7652915663328,805.7276670493852,792.3519179429916
1731654812.2949543,802.6014813105106,804.1474131332321,805.5674761958692,820.1912706857423
1731654812.2988555,852.1071739503024,802.0115821875702,805.474391230435,855.2006331246546
1731654812.2989638,889.8748472768983,800.3358515252426,805.4416629523105,879.6797003467923
1731654812.3027568,892.2623772798918,798.560539263,805.4280238313395,879.4862369150871
1731654812.3066585,858.3957673995244,796.2755041854114,805.4033720842272,855.9934990391772
1731654812.308817,813.5992575954318,793.8633017282885,805.3612908958373,826.4198946406188
1731654812.3089795,791.1569210628181,792.5173662299309,805.3095848089931,811.3878317873739
1731654812.3105595,806.5976343219043,793.5009518282309,805.257311299087,819.6762692016649
1731654812.3144608,845.6646474703588,797.1411284924244,805.2084189870664,842.5245378418748
1731654812.3183622,876.2394891624292,802.3495288364164,805.1622038373547,861.8664302445715
1731654812.3222637,874.7161853585112,807.1254391970234,805.1164118743651,865.4254496473526
1731654812.3245935,845.1581758068495,809.7516060347843,805.0695410665921,856.1965326615507
1731654812.3261647,815.4973099303139,809.8382417243903,805.0213607990598,848.8345152620313
1731654812.3276887,814.1691822268862,808.4618444087304,804.9723407277877,856.4430605015193
1731654812.3300662,846.6172037745656,807.3079747306365,804.9229678723563,878.9355670523084
1731654812.333916,890.7688919979341,807.4478312580841,804.8734424966933,902.48421480093
1731654812.3339674,914.8293154029301,808.6292384873029,804.8237267465253,910.4397896939507
1731654812.3378687,902.7817747947003,809.5745728382154,804.7737140889557,896.9190627989389
1731654812.340207,866.9970093750402,809.0350626948808,804.7233441816197,872.0178767477864
1731654812.3417702,837.8087215942415,806.7923548937309,804.6726223473669,854.0894769632996
1731654812.3456714,838.591130536881,803.8486661245373,804.6215870166294,855.0024001801401
1731654812.346561,866.8333488730665,801.6872783868499,804.5702776634706,870.4657852303595
1731654812.349573,896.8659352430371,801.2206430389183,804.5187250484951,883.7913936258761
1731654812.353474,901.8626859622939,802.2631020082894,804.4669551515435,880.2949182131244
1731654812.3558211,876.5837771349779,803.8706321951097,804.4149880018268,860.2700555585818
1731654812.3573754,841.8642069591015,805.133564559288,804.3628237118031,839.3978244140167
1731654812.3612766,827.3884874833938,805.71176360872,804.3104303542766,836.042417984313
1731654812.365178,847.3004082337701,805.7957848370833,804.2577639848657,855.9342848413023
1731654812.365433,888.523705263358,805.7418284915746,804.2048377213754,886.7803277137284
1731654812.3688684,920.7412917951501,805.7783825861591,804.1518028543538,907.0793475213455
1731654812.3690794,919.7272681908372,805.9439655544493,804.0989372342868,902.1748449059124
1731654812.3714347,885.8502352423311,806.1738759522623,804.0464332811882,875.228606591243
1731654812.3729806,843.7053445313695,806.4002873646989,803.9940279473628,844.8433833518704
1731654812.376882,823.2082835115924,806.5966754002717,803.9408035333594,831.1076876402273
1731654812.380783,836.6183675093515,806.7709279664223,803.885676071065,840.6123179172275
1731654812.384305,869.4237596614671,806.9408236218262,803.8287735266024,862.0016954008339
1731654812.3846846,892.5293469675513,807.1172923214139,803.7728805514528,875.6308061646012
1731654812.3870487,886.1789025215182,807.3014931305962,803.7229375056577,869.6686095792937
1731654812.388586,856.1859914744672,807.489660831332,803.6817403128014,849.5987640229566
1731654812.3924873,829.0795810797376,807.678264788438,803.6430507982616,833.3794222750068
1731654812.3963883,830.1518745055422,807.8660790959683,803.5886926317978,836.3826626719385
1731654812.40029,862.4896584326266,808.0536319158268,803.4991252857208,858.6001468129587
1731654812.4026625,903.9744835738918,808.241872606874,803.3799537369905,884.4184193573236
1731654812.4031773,924.351535179635,808.4313354265917,803.2868223193595,894.7668611857256
1731654812.4038205,908.5551495582203,808.6220387576649,803.309887701923,881.6844581702089
1731654812.4041913,867.9769018984991,808.8137626976858,803.4853661755091,853.9169294767414
1731654812.4080925,830.9565221564139,809.0063155089721,803.6615187553103,829.4560114147195
1731654812.411994,819.9836556837051,809.199629940146,803.4396653448375,821.1165186694797
1731654812.4158952,833.9111830744774,809.393729140275,802.3330953716514,826.7617512517604
1731654812.4182763,850.0325434726805,809.5886605936302,800.1292827756268,832.2149917322189
1731654812.4197965,844.666715026982,809.7844560394834,797.2102546580436,824.4753853518225
1731654812.4220493,814.787439200445,809.9811182549496,794.5582831123802,803.9145782816646
1731654812.423698,781.6631181105823,810.1786137460786,793.3815622115962,784.6645277317616
1731654812.4275992,772.8029343975601,810.3768682809751,794.5140841935358,782.516068042839
1731654812.4315004,797.5978189464372,810.5757907917327,797.8873194384156,800.6694147638809
1731654812.4338903,837.8542185913252,810.7753500845374,802.4221619550576,825.7938936013927
1731654812.435402,861.7116696817882,810.9756737007668,806.5081960469703,838.105802103702
1731654812.438773,849.4560999794934,811.1770540480879,808.8334167405786,827.2175609229873
1731654812.4393032,809.7197411426122,811.3797248087184,809.0273298669235,800.6069082216045
1731654812.4409213,772.5939110243957,811.5834240968663,807.6930397907843,777.6477987827195
1731654812.4432044,765.1888816217339,811.787095633749,805.8653054245792,774.0064251688516
1731654812.447106,789.6094986521476,811.9893463769162,804.3473571631755,789.1583143016944
1731654812.449504,821.564974675893,812.1899999683981,803.395299492153,807.3540562397591
1731654812.4510071,831.006597746054,812.3919419077001,802.8526518076562,811.2829364800016
1731654812.4549084,807.7008854281061,812.6009609176582,802.45375562432,796.9194897421721
1731654812.45881,770.1208028466971,812.8211582294615,801.9660887793016,776.8674393341978
1731654812.459793,749.9652609404252,813.0467172053144,801.1294917039033,769.3442726850574
1731654812.462711,765.368158985786,813.2571646355302,799.6402072869595,782.361838006698
1731654812.465118,805.4045440485734,813.427628925736,797.3905149368675,806.7061185045504
1731654812.4666123,838.7261749478803,813.5590297333038,794.824520886295,823.5823602820029
1731654812.4705138,838.9172875999834,813.7106072534308,792.9819122982319,820.2890772176719
1731654812.4737253,805.6985539248225,813.9901606690028,792.9573757040689,800.7509109726068
1731654812.4744153,765.0045242939203,814.4587120964864,795.0602116274628,782.2717785043475
1731654812.4783163,748.2137816005165,814.9704417781827,798.388419736787,781.256879154694
1731654812.4786654,767.2654391180422,815.0817137519816,801.3159506689904,799.5202514083337
1731654812.4807315,805.3489829531594,814.2130964090686,802.6163423417286,822.2631133745825
1731654812.4822178,830.433724680595,812.0791954044304,802.3139108254713,829.5229399885061
1731654812.486119,820.8743622935584,809.0614869660835,801.5212827861817,812.1466706173755
1731654812.4900205,782.6657098236311,806.0904353790387,801.4088831685707,779.5363585127885
1731654812.4939218,744.4421823918758,804.0202906348954,802.2460826997819,752.7776023815874
1731654812.4963455,734.2396655750882,803.0330706646774,803.3686116673952,748.4799256158642
1731654812.4975376,756.9178291972892,802.6200344435016,804.0144965170366,766.2068503400259
1731654812.497823,790.556818860728,802.1237399878861,804.135270612338,789.4095445019941
1731654812.5017242,804.5653968346362,801.3089493743817,804.3809438747774,798.8326658113549
1731654812.5056255,784.6611965690269,800.4561098690302,805.3581913060384,787.5577359627957
1731654812.5086772,744.5491460879549,799.9422864248619,806.9931559487867,765.9108756648235
1731654812.509527,714.9606437394367,799.7414790026984,808.6259612981722,752.6691048282901
1731654812.5119593,718.8611380091181,799.3529400397488,809.6282446332207,759.7023860529047
1731654812.5134282,752.7765119332882,798.2849399578197,809.8592682385747,782.2468839606455
1731654812.5164096,789.5225423604845,796.6787693714936,809.6088328582099,802.6479514562892
1731654812.5173297,800.5119965232658,795.4370093690036,809.2538708741299,804.8124722488836
1731654812.5212307,779.5781204102177,795.5991628699502,809.0062592489182,787.7874713326428
1731654812.5251322,748.3188742578344,797.4158895923274,808.8852764120192,767.051827667521
1731654812.527573,737.881524778723,799.9369680384218,808.8188631070774,761.8504907086788
1731654812.5290337,762.0952254605029,801.5325685425338,808.7418631592251,778.7106134152667
1731654812.532935,804.7194385536267,800.9570161141417,808.6331710392571,805.0563644875691
1731654812.5352817,831.9436133280478,798.1246453689683,808.5039256014428,818.7816092800156
1731654812.536836,819.9647242586831,794.0822583976554,808.3722071120162,806.2781825189445
1731654812.5407376,774.8573630639214,790.3412991948209,808.247797742695,774.1548872753359
1731654812.5431871,728.4818063884057,788.1186114138015,808.1308074398202,744.8814967869168
1731654812.5436296,713.8056462539396,787.9064722143552,808.0171238139957,739.5782025378816
1731654812.5446389,739.4283393951026,789.4466944573493,807.9033917564717,761.4959587437182
1731654812.54854,783.4789829788062,791.9680487361941,807.7886801174511,793.2698156494234
1731654812.5524416,811.5364460584317,794.5212057686549,807.6736832395233,810.2463431837946
1731654812.5541537,804.0686980638174,796.2893923365727,807.5593619062302,799.4687548508072
1731654812.5563428,771.2367199240858,796.8017756032212,807.4461924958772,769.2678120739006
1731654812.5588007,743.1903402389501,796.0346819217043,807.3341465793477,741.8407385076167
1731654812.560244,744.1876494124713,794.4138206561931,807.2229970640733,735.0155548355475
1731654812.5641456,772.2780181512604,792.6927457029412,807.1125734075783,748.266773303934
1731654812.5680468,801.4322699914163,791.6665578878773,807.002835855834,764.3932186869387
1731654812.571948,803.9624127319307,791.7944498741881,806.8938262167403,765.0690121036089
1731654812.573026,774.1821345914032,792.9595671391465,806.7855967604837,746.952278169087
1731654812.5744147,733.6783359908461,794.5648230283667,806.6781733086754,724.8566040904693
1731654812.5758495,714.1048432185067,795.9154849116619,806.571553499496,719.4665818730515
1731654812.5785818,731.6708884842212,796.6207647689766,806.4657183610583,739.8273926528501
1731654812.5797508,773.9125965807942,796.7729030648801,806.3606429578628,775.0696553227506
1731654812.583652,809.4178883387642,796.8562435189756,806.2563078165664,802.3891862921081
1731654812.5875535,812.8656606624468,797.4764134580676,806.1527168527898,805.0913331567009
1731654812.5900283,785.23574264053,799.0133754201917,806.0499135939733,786.0019204744431
1731654812.5914547,752.5490030546441,801.3148721894574,805.9479681334566,764.9481089064302
1731654812.591898,743.9045600423962,803.625028535504,805.846909603244,762.1012180409242
1731654812.595356,766.9328916264337,804.9361129395332,805.746626492994,781.0169390587524
1731654812.5992577,801.2458099489098,804.6820615828294,805.6468365012422,805.7009885118015
1731654812.6031587,815.480282442534,803.2953448797689,805.5472630622996,814.2089577946532
1731654812.6056423,793.7411793154674,802.0684300060678,805.4480372098155,797.2881964086099
1731654812.60706,749.5382118199437,802.2567770463149,805.350039938375,766.4850488388138
1731654812.61077,715.8812776392377,804.0732153645799,805.254608293795,745.2126444012976
1731654812.6109614,719.6091856864834,806.4395151834798,805.1621880424019,750.3551063230052
1731654812.6135342,760.2855195292726,807.7743978861691,805.0704936866147,779.2793412047142
1731654812.614863,810.0568578402285,807.1982774236568,804.9741962341715,812.285098674762
1731654812.618764,834.5791702302971,805.1543058574546,804.8686167275492,828.1155093394465
1731654812.621256,818.9465384768433,802.9465192501544,804.7573622114946,820.0705001017324
1731654812.6226654,778.5214720630968,801.6349869070983,804.6580092606656,800.1020006948115
1731654812.6265666,746.0940701790455,801.2665999593205,804.5949081263486,787.9995600394528
1731654812.629642,745.5824556968824,801.0809833771287,804.5722528266733,794.7635843022571
1731654812.630468,773.5935819643222,800.4253214872248,804.5396786429351,813.8656697954253
1731654812.6343694,803.8278917599042,799.4694733481837,804.3883055961602,827.4160056859207
1731654812.63687,810.2196529725073,799.0301702046805,804.0166623847368,821.7784271402711
1731654812.6382706,789.0258502057181,799.6847054951733,803.4427305789338,799.4053279052584
1731654812.642172,761.3830341810965,801.0486823772692,802.8368997765392,777.0983376315817
1731654812.646073,754.7805323332468,801.950487971019,802.3794124783901,772.3712135187284
1731654812.6484864,779.5424508979953,801.4068346446936,802.0819267022267,789.2720082762121
1731654812.6485145,819.9786966532571,799.5685459385626,801.8357755021398,815.1196202889538
1731654812.6499746,847.2469607519998,797.8073886074831,801.6690138914701,830.6159778143957
1731654812.6524837,843.1651710743237,797.8138950255864,801.8576139998711,825.2025524824696
1731654812.6538758,815.3851815418817,800.3705509375584,802.662628191732,805.4412217627925
1731654812.6577773,791.1975370242413,804.7237612199109,803.9362575657473,789.6171095824646
1731654812.6616786,794.6393028039483,809.0169846055809,805.0707748479149,792.7395306825134
1731654812.6655798,825.8239207487092,811.450632636161,805.4551849287108,814.1639384812959
1731654812.6673863,860.2279613943582,811.3406667026121,805.0655118670553,838.2211975118036
1731654812.6680975,869.0808998917862,809.4059121153504,804.6165030967699,847.4326451831585
1731654812.6694813,843.8488020700416,807.2086400250529,805.0710911836899,837.1521789592451
1731654812.6733823,804.0439534957984,806.2008765886491,806.8857363086911,819.2642211443027
1731654812.6772838,781.681873366334,806.969756302414,809.6023034390809,811.9768487593499
1731654812.6811852,795.3562662082347,809.0511926187646,812.0782666657891,824.4890443802744
1731654812.6834388,835.2684170599239,811.3055753630221,813.1148504245858,849.3163774885272
1731654812.6837115,871.0781657653633,812.5579968952534,812.001275087656,868.3483650017697
1731654812.6850865,875.8147870613095,812.1466182043258,808.6999587799714,867.4094062282181
1731654812.6862583,846.6696569572774,810.1681560987402,803.7586142091073,847.5064952380657
1731654812.6889875,806.47605322127,807.3940960018133,798.1734743913339,823.8632659657683
1731654812.6928892,785.0293187383329,804.9331716178451,793.2664599337493,813.5776299729366
1731654812.6967905,795.2474358654299,803.7537203331685,790.4222400034373,821.7879891826377
1731654812.699325,823.3589457129843,804.2193450646329,790.5537495151796,837.6022995991744
1731654812.7006917,841.1229764489806,805.8338261405939,793.4808068043992,843.3283782697413
1731654812.7045932,830.0173321264692,807.3776801726461,797.7226603900929,829.604803758956
1731654812.7051303,797.2789912957189,807.4855959511716,801.1036284261265,803.9169219185359
1731654812.7084944,770.4193962821622,805.4527481221274,801.9746400255808,785.2636838180686
1731654812.7123957,774.7704148706077,801.7998293528211,800.2477993678713,789.1303213503936
1731654812.714939,812.498351179919,798.1320940403509,797.4527441315062,814.8440501438195
1731654812.7162971,859.9918123802523,796.2436204209245,795.7302063626903,845.3847140966255
1731654812.7183907,885.5426220994145,797.0070855678765,796.4715489668363,859.7679822459904
1731654812.7201984,873.3151046976737,799.8402828200885,799.5169800198669,848.3842438447364
1731654812.7240026,834.962771549487,803.1591770401965,803.3515544620046,819.5817216340319
1731654812.7240996,799.9285537640683,805.4815387199254,806.0644408675205,792.616361487335
1731654812.728001,792.0169312197522,806.3529955426496,806.4500259047227,782.6126165550253
1731654812.730553,810.8004664130633,806.4365185506905,804.6456692598463,789.4476884186067
1731654812.7319024,832.9662735970824,806.7825500239995,801.9857326667429,799.4124334983699
1731654812.7358036,832.7166201894605,807.918549936227,800.167291067792,798.0903146718796
1731654812.739705,804.3751005884695,809.4782596535139,800.2229378364934,783.4606882557141
1731654812.7428746,768.0890289505284,810.6088787643351,801.940705649307,767.966943128993
1731654812.7436063,753.5238528707399,810.7674572122421,804.0927959104067,767.7615493798196
1731654812.7461667,775.016137572839,810.2363072999816,805.2889733160321,788.3997713545014
1731654812.7475076,818.8855482360829,809.9357264184785,804.8639361620512,819.2341288408862
1731654812.7514093,853.4758648294226,810.6763367636576,803.2327328103838,841.2433986230465
1731654812.753343,853.7636029201976,812.4447866426699,801.545403748246,841.7336304557946
1731654812.7553103,820.6053705734017,814.3074250829023,800.9318045643321,823.841905669645
1731654812.7592115,779.257256770266,815.0322965562133,801.8447212524343,803.3090490229712
1731654812.7617466,758.6799697045248,813.9455407985305,803.8749801791131,795.4643350689895
1731654812.7617805,768.6145950082508,811.3493028815643,806.0648358485846,803.17359174593
1731654812.763113,793.0635583421666,808.2078639856029,807.4560280764352,815.4997993165871
1731654812.7670145,805.2848746028892,805.4225548106405,807.5542837866194,817.9533668792417
1731654812.7709155,791.5570528330417,803.3212886975041,806.5252955826811,805.6171040247737
1731654812.774817,763.5050881573823,801.7339682647524,805.0888784047759,787.9592389070547
1731654812.7773943,748.303730381676,800.4688457112899,804.1622529058177,781.0458958127182
1731654812.7787182,764.9155246829675,799.6654454026444,804.3729370172358,793.5619698776546
1731654812.780619,806.6082950151148,799.6772182415168,805.6646940334948,818.4915571299239
1731654812.7826197,844.86384671731,800.6378140377631,807.2657163896707,837.7638480286844
1731654812.786521,851.8753650020191,802.1873712235916,808.1260597270559,836.4287585092271
1731654812.7882955,823.2967099875141,803.6584068946329,807.5871394901701,814.9392051788858
1731654812.7904222,782.4926303240118,804.5362475878081,805.8088750516409,789.4133244896665
1731654812.793008,762.4091556193843,804.7471950070335,803.6326751958075,779.3002570812966
1731654812.7943234,779.3430145942342,804.5617175866869,802.0116103712637,792.0936711386826
1731654812.7982247,819.7792009072123,804.300823202629,801.4653552531726,817.4128680899779
1731654812.7994907,851.2809780612381,804.13568892111,801.9185694594594,835.4779979284147
1731654812.8021262,848.9181416224268,804.0755715454783,802.9140896685852,833.3056052874363
1731654812.8060274,815.6596964970175,804.0574179190351,803.9413877401782,815.3603223889017
1731654812.808622,779.7600466248167,804.0274936218425,804.6517495020994,799.7123397023518
1731654812.809929,771.2022165513645,803.9699734906496,804.8987283616162,802.7574361121442
1731654812.81383,796.8256792163015,803.895324815771,804.6646021666313,825.2014494618828
1731654812.8177314,834.7473412518733,803.8188146045547,803.9794613233436,850.9729856125155
1731654812.818363,852.358266693398,803.7482492537678,802.929427437549,859.9268916555244
1731654812.8216329,832.8146559072836,803.6833587723086,801.7576868892722,843.9499114215546
1731654812.8232477,788.6516332105533,803.6205759485761,800.9155425315574,813.6169749883227
1731654812.824236,752.0822767533946,803.5571498889592,800.8873749610394,790.2827585136309
1731654812.825534,749.9767908955067,803.492403735617,801.8188133344755,789.8233984232558
1731654812.829435,783.1206101388343,803.4269791720943,803.2622613723623,810.5543151021991
1731654812.8333368,825.8509240545352,803.3616876291844,804.3664637305855,834.6839068079622
1731654812.837235,846.3471073070981,803.296910154815,804.4567128855377,842.3159174817451
1731654812.837238,831.5468282893288,803.2326080974232,803.5306387823376,827.093713329773
1731654812.8398497,796.7418761814959,803.1685899048797,802.2170740272229,800.969019083852
1731654812.8411393,772.14468553516,803.1047217691993,801.2465858290016,784.1454771482375
1731654812.8450408,777.596021217526,803.0409828129663,800.9386514365491,788.415840156355
1731654812.848942,806.3835634800031,802.9774184434585,801.1260958314488,807.6832033120459
1731654812.8528433,831.4092924111837,802.9140773997185,801.4522337939574,823.4506609582791
1731654812.8554635,828.2532247839104,802.8509792054191,801.6752875594751,820.5021247620465
1731654812.856107,795.9065366354307,802.7881153443901,801.7531700871099,799.6280532624567
1731654812.8567448,758.241895321903,802.725469254593,801.7576074482523,776.9749627835669
1731654812.8582,745.0686874756927,802.6630406504311,801.7649761624895,770.7397693895051
1731654812.860646,767.9469995282385,802.6008610917269,801.8061074183611,786.1889345198579
1731654812.8645473,810.2715811685453,802.5389843265109,801.8730499371213,811.2849862738933
1731654812.8684487,840.1399703927525,802.4774391781542,801.9461704175544,826.6162855424911
1731654812.8710773,836.2000778774976,802.4161619278636,802.0130886770728,821.5507101202902
1731654812.87235,805.3707025169323,802.3549747008396,802.0722804299672,803.1069965445397
1731654812.874979,777.1301487605683,802.2936993997876,802.127841502534,789.8570559451118
1731654812.8762512,778.4166229277382,802.2324210002042,802.1837254144432,795.7998444333527
1731654812.8801527,810.1009419214492,802.1717165348206,802.2413554363848,817.8822855278762
1731654812.884054,845.3428377506259,802.1124722929968,802.3001792290672,837.9436338374665
1731654812.886691,851.7257408901472,802.0550090479605,802.3591417367235,837.6506079595325
1731654812.8879552,818.6885985566037,801.9978689018735,802.4176324600353,813.9868352630127
1731654812.891857,767.2463809915419,801.9375781784181,802.4756149328791,782.4457294424242
1731654812.8931522,733.9745015849093,801.8710256739975,802.5333238251143,765.325427619987
1731654812.8938513,742.4509749504799,801.8004684360778,802.5909654951807,774.5829093457097
1731654812.895758,785.1335275949497,801.7373739809661,802.6486071092539,802.8085495183195
1731654812.8996592,829.8434893784801,801.6979707933237,802.7062159695926,829.2315196195221
1731654812.902305,845.3616581700703,801.6859782763019,802.7637386452313,835.8279455650653
1731654812.9035606,825.5602643227157,801.6706213761665,802.8211476972136,820.7574291751366
1731654812.907462,792.7340379653326,801.5856556900098,802.8784455792228,798.5978696513803
1731654812.9113631,777.7484912785806,801.3787556070151,802.9356484118531,787.5980842337854
1731654812.9127233,793.8511900199288,801.1064762220291,802.9927718860575,794.7861483894974
1731654812.9152646,826.2175631038359,800.9978068092366,803.0498264146541,811.2653119360237
1731654812.9179187,845.6799391022955,801.3652376329542,803.1068168991467,821.0776248667449
1731654812.9191658,834.3680023884592,802.344258697141,803.1637412497702,815.4948957741487
1731654812.923067,801.2178003012032,803.6717825511337,803.2205885226299,800.4445612018394
1731654812.9269686,774.5307726018721,804.7899893954318,803.2773444584849,791.1078758564014
1731654812.9281046,778.3437715095822,805.282877654155,803.3340105204527,798.6282733110605
1731654812.9308698,812.4587242277098,805.2768979510959,803.3906277403271,820.1589861601758
1731654812.931595,852.3329657086077,805.3962300532132,803.4472760855612,840.4670035144829
1731654812.9335325,868.6568307453746,806.2291547839845,803.5040165168926,843.906646177247
1731654812.9347713,850.8030151873585,807.7065069185024,803.5607833380757,827.2401870327255
1731654812.9386723,815.3114611367937,808.931002604831,803.617317441746,802.8388476033311
1731654812.9425738,792.357316177094,808.6937640769087,803.6732920358926,789.1918077295508
1731654812.946475,800.9205344927594,806.3839744927146,803.7287036201301,796.0234789837842
1731654812.9491465,833.0287810280224,802.6405734904755,803.7843117421002,816.2553197132185
1731654812.9503765,860.3494409025327,799.2039869803187,803.8415528879713,831.7762573935845
1731654812.950467,857.7992466777949,797.964360455095,803.9013559904589,828.4319769020425
1731654812.9542778,824.5271832094174,799.8066839516398,803.9621242535762,807.7761024062862
1731654812.958179,784.9905896808206,804.0591587160384,804.0187108620241,785.8925684782503
1731654812.9620805,769.5422606707558,808.9449541261816,804.0651950129561,780.4452017101465
1731654812.9630568,790.4853327167084,812.6915492470952,804.1024609769092,796.613355377348
1731654812.9647603,832.5444315183956,814.4742453752916,804.1459245491183,823.0732744606606
1731654812.9659815,864.7742799195674,814.5801393628124,804.2223416497352,840.9301114036482
1731654812.9693396,864.2889480824357,813.865801031996,804.3457667097445,838.4311667034743
1731654812.969883,833.4406843169434,813.0825036955524,804.4796783834802,819.9738944946075
1731654812.9737844,797.2230135415622,812.5515955078279,804.5211406548646,802.3228604111158
1731654812.9776857,782.9046982773971,812.2390564756145,804.3566708162906,800.8695411250344
1731654812.980374,798.0656348880497,811.9891940371962,803.9957715223676,816.8671395194913
1731654812.9815867,824.9671139935111,811.6944858236299,803.6811634778362,836.2149092165387
1731654812.9854884,836.1134467368137,811.3363286153544,803.811334231584,841.1460599640212
1731654812.9882116,818.0985774573063,810.9462930502415,804.6427552101843,825.3255451252827
1731654812.9893897,783.5613084875024,810.5578919327273,806.0052085813782,799.6965315468137
1731654812.993291,760.9587367155858,810.1845614581268,807.3441067348183,783.9617053417554
1731654812.995988,770.5966907337139,809.8227173749651,808.1168091139064,790.5657527852849
1731654812.9971924,806.9498126802071,809.4636956369787,808.1843245405666,814.3187438677401
1731654812.9980092,842.1319360529014,809.1020562472713,807.8075000418105,836.1922625580454
1731654813.0010936,847.9743332645626,808.737137142236,807.2723380575736,838.2873148223288
1731654813.0049949,818.8405033408642,808.3707363377652,806.5952858743412,817.9450027073726
1731654813.0070837,776.403944392277,808.0045781533621,805.676275414749,789.6338478861726
1731654813.0088964,752.0464211505057,807.6392696761857,804.711606301466,773.0728920021287
1731654813.0116017,761.0096061578564,807.2745499346352,804.2936467777846,777.2751976874804
1731654813.0127976,789.8438358808007,806.9099396914951,804.9308379931829,793.696981147947
1731654813.0166988,808.1556285179774,806.5451584059015,806.4314982521233,804.234064650848
1731654813.0206003,795.1634474154135,806.1801808760262,807.8721192325861,797.2809444087613
1731654813.0245016,758.5047019314161,805.8151018701404,808.3171035826158,778.0893068540448
1731654813.0259557,728.9236131025261,805.4499988724713,807.6380044870241,764.4791445363907
1731654813.0272155,734.9162129110654,805.0848764706684,806.6104574056257,771.5100127906641
1731654813.0284028,778.3872324109975,804.7196835488843,806.1654554089195,798.1098317767769
1731654813.0323043,831.5171905347821,804.3543642876957,806.5156560052543,826.9540471060483
1731654813.0329614,857.6109769458349,803.9889097595706,806.996903386461,837.8313467969482
1731654813.0362055,839.3429157267896,803.623380287355,806.7539256797514,823.6416227798813
1731654813.0401068,791.9383006380742,803.2578646953015,805.5886773350303,796.0082765881738
1731654813.0428293,750.8723083926309,802.8923630228218,804.1735054398307,775.9128922819003
1731654813.0440085,744.0502941494849,802.5266544859115,803.4719344513421,776.9784032153254
1731654813.0448277,770.870904940647,802.1603125334759,803.9343343831295,795.0783693462962
1731654813.0479095,804.856981635139,801.7930348562884,805.1700071381254,812.7372897392437
1731654813.0518107,817.131557500496,801.425226610072,806.3082581434896,814.4766676100058
1731654813.055712,800.8720339465467,801.0583274011617,806.6693702192093,800.0996688546676
1731654813.0584433,776.361327087486,800.6940687113103,806.1743575141721,784.7082630371574
1731654813.0596137,772.8150132636958,800.3323229351648,805.2161662113426,785.5620930126389
1731654813.0635147,802.6423998729973,799.9688022471249,804.197986850193,807.0059800038945
1731654813.0637,849.7286013196979,799.5957529414102,803.2073832942775,836.120760826425
1731654813.067416,881.2825926517615,799.208610033089,802.1173952030753,852.5998845478819
1731654813.0679138,873.5227588617805,798.8168473690587,800.9532436559186,844.7037968138895
1731654813.0713174,830.6965104677855,798.4488237577503,800.0846602295728,818.5187404676891
1731654813.0740569,782.4664478024558,798.1356393780061,799.9983265870596,793.309341304125
1731654813.075219,761.6015539161292,797.8696988319961,800.8704263927933,786.6973349411605
1731654813.07912,779.2558942547952,797.5648867246247,802.384469248785,801.2878064458322
1731654813.082572,817.2514166022657,797.0790696349856,803.9800828988508,823.2518857210006
1731654813.0830214,843.5869636842194,796.3509906764045,805.2769401738083,833.9676952753412
1731654813.0869226,838.695169275411,795.610757092511,806.2782002421119,825.3207588122324
1731654813.089671,810.9444482734305,795.4754253760688,807.2261333687566,806.2091811221168
1731654813.090824,788.6462988472183,796.6994219486118,808.3149645892404,794.9858513242241
1731654813.0947254,795.4845908545153,799.6006763179114,809.5204787557843,804.1614473528484
1731654813.0986266,830.0919195322946,803.5949893546253,810.6145673161786,829.9333851050463
1731654813.101444,866.6658788287835,807.3393116540736,811.2725024481657,854.8798552351047
1731654813.102528,875.7715218990529,809.4924221411824,811.1982730613589,861.3662422922982
1731654813.102866,848.149001485718,809.533072005426,810.2736298384287,844.9178987252258
1731654813.1052847,802.4623063798017,808.0142625733686,808.7105505277756,817.293130681883
1731654813.106429,771.0022775673883,806.1030726885705,807.0755708665365,797.2028501443908
1731654813.1103306,774.6571425249487,804.8137254591059,806.0510027113966,796.0382897782838
1731654813.1142318,806.8868329883243,804.5180065511266,806.0060590960534,809.6961640345187
1731654813.1181333,839.5554357074606,804.9954837515619,806.6933591490435,822.870404926086
1731654813.120316,846.1136677051209,805.7991367888011,807.3651084634097,822.3102464971579
1731654813.1208985,823.2555613033048,806.5246641402173,807.2687402665752,808.1115688739491
1731654813.1220343,792.9869731121607,806.8186492793338,806.1453184565036,793.4691827152581
1731654813.1259358,783.21134982713,806.3244305218885,804.3561982727591,792.9107977927675
1731654813.1298373,803.2244530725695,804.8296419843933,802.5908058936697,809.0093617420749
1731654813.1337385,835.1051240147024,802.5816022654941,801.4259775538518,829.1883435746106
1731654813.1365125,848.5793408543819,800.4231558942834,801.0435221043688,835.7584931951321
1731654813.1376398,826.9548387161136,799.4516297112968,801.2212443195697,820.9506146688237
1731654813.1378183,782.3076394450268,800.3222025509845,801.5347577458792,794.2624598016037
1731654813.1391883,746.9883564890087,802.7161780365205,801.6591236737715,775.6613686393689
1731654813.1415412,747.9808380609859,805.464606350094,801.6504511449557,779.7952910364826
1731654813.1454425,784.80932180322,807.3220982220887,802.0357465729254,803.8982389582729
1731654813.1493435,829.2640299998584,807.826242763431,803.5439519293408,829.4557382474783
1731654813.152126,847.7922254380265,807.5641247707803,806.5212927517774,836.7419671568676
1731654813.1532452,828.578411406604,807.6420872813974,810.4099670749096,820.6345452701711
1731654813.1571465,790.8150743654265,808.8078136384878,813.789072230481,794.6484091802138
1731654813.1580603,768.14108167309,810.9056555419181,815.1257636246539,779.6810995804891
1731654813.1610477,780.0445401713362,812.9830383325196,813.7712969162814,786.7691813707316
1731654813.1649492,815.3852571486202,813.8333788957123,810.4335703300173,808.2112194517736
1731654813.16774,841.8829783252695,812.5739823165515,806.7248417186933,824.2910044228839
1731654813.1688504,833.3861344135464,809.0420736163156,804.1313584565197,819.7540600825434
1731654813.1727517,792.018265509795,803.9652669675255,803.1921382791911,796.3454609257536
1731654813.1727705,747.0502867495018,798.8191235305452,803.4202297908886,771.3782761795871
1731654813.1766531,731.7662924121031,795.2633005612882,803.8464216020591,763.8513410650119
1731654813.1769323,757.1710549882348,794.3163575023585,803.6462807118182,779.403736921179
1731654813.1805544,803.3609960247009,795.7936752209055,802.4444350340355,805.9416228660177
1731654813.1833537,835.1277145061212,798.5014008553071,800.313701088308,823.234498886802
1731654813.1844556,829.4244563950718,801.1063112078228,797.7091369644079,818.8967098095585
1731654813.188357,793.096844455624,802.9806621394956,795.419186339502,798.1204202322176
1731654813.1922584,756.8306201444324,804.3134940017655,794.3709249179341,779.2937614910629
1731654813.1958044,750.1137142543522,805.472866491623,795.1773195959194,778.8956832509018
1731654813.1961596,777.3850075532241,806.3344956548974,797.6497616152252,797.9354020877217
1731654813.1989677,814.681245327775,806.3006223651016,800.7086091849004,821.1067254263229
1731654813.200061,829.371366551514,804.9894552275392,802.8967072490373,829.3402538569187
1731654813.2039623,806.804923780647,802.8546150749894,803.2102328532612,815.351758221624
1731654813.207723,762.3576687596899,801.0483024843552,801.6758990885717,789.46261884255
1731654813.2078636,729.4380962475175,800.5925053305845,799.2804122891573,771.1584321485728
1731654813.2117653,733.294848038274,801.5841164180426,797.3227446927134,773.491507601638
1731654813.2145813,771.468125057354,803.1110011156453,796.6398117637282,792.9753649340554
1731654813.2146766,816.1644734837754,803.9266080768911,797.2104768425382,812.9066191010737
1731654813.2156663,836.4645010048807,803.3326392490604,798.3598893057255,817.1942533408873
1731654813.2195675,822.6462355173376,801.6038730387656,799.341065292727,803.432984567017
1731654813.223469,793.1402888817859,799.6751073960535,799.803660800529,784.613929057838
1731654813.2273705,778.4595360538567,798.403580657243,799.8397005186102,778.067617869607
1731654813.230195,795.2823832898837,798.0444977813404,799.7230265725898,790.7522109544004
1731654813.2312715,832.2634968016923,798.298453588885,799.6561203431223,813.181128210413
1731654813.2335486,859.5452975613911,798.7151624771469,799.691294351204,827.2123934484985
1731654813.235173,854.0405879095537,799.0191568429528,799.785911454484,821.3224025460585
1731654813.2390742,819.2203515854097,799.1686874690242,799.8839071405824,800.6025958209058
1731654813.2426753,782.7217476375499,799.2441528316406,799.9587192270827,782.9745272414428
1731654813.2429757,773.648139564338,799.3267951676232,800.0131435719243,784.5294394515059
1731654813.2458093,798.3678097033022,799.4470007206642,800.0608755385498,806.0224084659797
1731654813.246877,834.9207326006399,799.5941688452069,800.1117487482342,831.798179231643
1731654813.2507782,850.8392685062499,799.7466662898302,800.1677979370438,842.289956051197
1731654813.252421,829.8754577924976,799.8916292415975,800.2264381278337,829.9656580013763
1731654813.2546794,785.6276182177289,800.0280063343151,800.2847173631835,805.5424167319229
1731654813.2585807,750.6505232755369,800.1604895678146,800.3413740029573,789.1746258418407
1731654813.2614229,749.8455791979328,800.293318420195,800.3966649240092,793.7834193202908
1731654813.2624822,780.111632012813,800.4279000726636,800.4513428518062,814.3470477553204
1731654813.2663834,813.1754430261288,800.5635565973442,800.5059069763563,832.0915897691299
1731654813.270285,819.1978234439207,800.6991492364691,800.5604395858197,830.1009176082606
1731654813.2712927,791.4554871911034,800.8340647437775,800.6147972415478,807.3808701247913
1731654813.274186,751.7638737226468,800.9683112136204,800.6688352483814,779.8293563402823
1731654813.277037,732.5288541727257,801.1021712611265,800.7225054934287,767.4811453188934
1731654813.2776272,750.4052935861848,801.2358816384278,800.7758365988885,778.5255403884363
1731654813.2780874,792.9097980637464,801.3695243928975,800.828873502163,802.9372998656478
1731654813.2819889,828.5190909974597,801.5030769518481,800.8816378053056,820.6383417258271
1731654813.28589,831.8966384794417,801.636499215549,800.9341282299114,817.496414589556
1731654813.289791,803.8577400306335,801.7697821308709,800.9863489459117,796.3168555396409
1731654813.2901647,770.002184428336,801.9029493497014,801.038337722035,774.1016900460467
1731654813.2926505,759.2973042783951,802.036037677057,801.0901613705807,767.9786905373095
1731654813.2936928,780.2428830784922,802.1690806098021,801.14185890776,781.350665312843
1731654813.297594,814.0860333578751,802.3021034794481,801.1933558093352,801.4909601006239
1731654813.3014953,830.407711089565,802.4351266075133,801.2444364013807,810.3431641340167
1731654813.3053968,812.148187665107,802.568169923526,801.2948878723638,799.551991088479
1731654813.3082645,769.7944102599564,802.7012553170613,801.3448308534747,777.5076746312493
1731654813.309037,733.5587937201078,802.8344065369777,801.3950023885161,762.8000801835763
1731654813.309298,729.9534335516007,802.9676480882424,801.4465173271286,769.3299570434003
1731654813.3125796,761.1435848751023,803.1010043722488,801.4997640153111,794.8276000248281
1731654813.3131993,803.0963467271633,803.2344994508545,801.5528917273416,821.9116783712938
1731654813.3171008,824.091614046158,803.3681572105799,801.6015471577032,831.1811282728884
1731654813.321002,809.3972354376314,803.5020015929928,801.6419000306596,816.314687554902
1731654813.323878,772.6957904134229,803.6360567225232,801.6769234225619,789.1389599243914
1731654813.3249032,744.8600023195042,803.7703469250077,801.7211195562106,770.297112764103
1731654813.327909,748.8403003051479,803.9048966678724,801.7947683524019,772.8748921920886
1731654813.3288047,781.1243899475196,804.0397304153771,801.9021897017358,792.3613465903578
1731654813.332706,815.1214077317227,804.1748724003854,802.0045008467818,811.1124658129974
1731654813.3366072,823.5859199908048,804.3103464340978,802.0194387959161,813.2576794273904
1731654813.3394918,801.2156222070205,804.4461760242365,801.8852390913709,797.3634607657913
1731654813.3405087,768.6113012001788,804.5823850186939,801.6832386576368,776.6107118675998
1731654813.34441,754.6982406634397,804.7189985262,801.7267351261975,767.2781426124213
1731654813.346781,772.6256085986837,804.8560431262649,802.466345861726,775.991044364334
1731654813.3475318,809.1144399837735,804.9935450934432,804.1614904495423,796.2206145971812
1731654813.3483112,835.7763253392137,805.1315265512341,806.5377011332592,815.5145795824673
1731654813.352213,832.9066796974755,805.2700023686808,808.8204015880941,825.5795629910937
1731654813.3551056,806.0652235287919,805.4089832673737,810.2764074319554,826.4005931537778
1731654813.356114,781.4797356819928,805.5484888337714,810.8472380866117,822.9752161576971
1731654813.3600152,783.7719127396957,805.6885646347102,811.2436628126554,819.9592544126549
1731654813.3639166,814.6815867242752,805.8292839724395,812.3253392290917,819.0777111605167
1731654813.365653,851.1273913004766,805.9707113256261,814.2781399018248,819.7318702298959
1731654813.367818,864.5826386549669,806.112829771128,816.3134271849615,820.7028305524718
1731654813.3707194,845.3152289995757,806.2554900867141,817.156629803597,821.2681994110103
1731654813.3717191,810.8195884989291,806.3984842586766,815.9314392656802,821.3708518949918
1731654813.3756206,791.3897906543709,806.5418015368556,812.7609867873495,821.2754658534229
1731654813.3795218,805.113117993286,806.6859369328791,808.675514174478,821.2197150872286
1731654813.3824842,843.0336950942751,806.8318732108725,804.9624565128871,821.2811826749044
1731654813.383423,876.3507031470044,806.9803292996893,802.4793855574102,821.4201758465343
1731654813.3845253,879.4739148094169,807.1303942405398,801.3948430806574,821.5714030460284
1731654813.3863337,850.3666327611685,807.2787163578381,801.4099980920057,821.6993726622904
1731654813.3873246,812.0631818166955,807.4211597610099,802.1298348958554,821.8035837004746
1731654813.3912258,794.1008381767283,807.5577835977565,803.2391410709446,821.898891793538
1731654813.3951273,808.5485763842013,807.6982842070018,804.4541246745462,821.9974726067609
1731654813.3990283,840.1079057651151,807.8605129382111,805.4779559939017,822.1027432168019
1731654813.4019473,858.8990469266045,808.0547618734762,806.0986951241445,822.2122251577666
1731654813.4029298,845.8766223911562,808.2569296133345,806.3067618212415,822.3224653082555
1731654813.403397,809.7649775317841,808.3922032137103,806.2658202219549,822.4317642792332
1731654813.406831,781.0001408482848,808.3588627727094,806.1676471877281,822.5402453705154
1731654813.4107325,787.2751331968542,808.0954109928275,806.1194213348848,822.6487196734427
1731654813.4146338,830.5909999003395,807.6470721492173,806.1325157207627,822.7577382309119
1731654813.4174364,884.371766272799,807.1779016891984,806.1724649760766,822.8673493037061
1731654813.4175613,912.918335325952,806.9204483870022,806.2074327832571,822.9773819004365
1731654813.418535,897.9788452645131,807.0903903342968,806.2268647825884,823.0878367601423
1731654813.422269,852.0049384544537,807.7767370144777,806.2360336645063,823.1990222007345
1731654813.4224365,808.0137555360013,808.8156055844956,806.2437482650987,823.3112527281095
1731654813.4263377,793.901087523976,809.7334665687696,806.2548424035527,823.4242261585529
1731654813.430239,811.3121388032832,809.9137281807489,806.2694238211038,823.5366135775054
1731654813.4331748,836.0196261876486,809.0167590242474,806.2855021028696,823.6466743353589
1731654813.4341404,839.5904181754204,807.3784148089444,806.3014282688694,823.7542847466236
1731654813.4380417,814.2792901606131,805.9544557437786,806.3167295036877,823.8632731444367
1731654813.4411414,779.9598685016605,805.680510872569,806.3317326484022,823.9810793479766
1731654813.4419427,766.9998317909711,806.7008711060262,806.346902378197,824.1127036957383
1731654813.4458444,789.6191852009721,808.1728344979381,806.3624703042835,824.2501798261668
1731654813.4487886,832.4782819683813,808.9050178868839,806.3784208958012,824.3669389038558
1731654813.4497457,862.0043311154798,808.3111781994912,806.3946395693733,824.4317431349614
1731654813.4523888,853.1933071086282,806.8354001159121,806.4110379068504,824.4478898242442
1731654813.453647,809.9129182118326,805.4823412549848,806.4275907212092,824.4942189347133
1731654813.4575484,762.2250528218525,804.9099247049284,806.4443120280437,824.7107136297461
1731654813.4600136,742.9261385187541,804.9172431837418,806.4612198795454,825.1761555624915
1731654813.4614496,762.1311709792303,804.7512211554692,806.4783186956942,825.7125789970144
1731654813.4644024,800.1689603113947,803.8856376766357,806.4956004919457,825.8039444850459
1731654813.4653509,824.2936696052487,802.5305017281646,806.5130533714139,824.8995736302634
1731654813.4692523,815.504820528845,801.439693822155,806.5306668885779,823.174109707207
1731654813.4731536,783.5935711416271,801.2520711324187,806.5484311648504,822.2524416707257
1731654813.4770548,758.2636825087876,801.9879518335987,806.5663331696377,824.8226464458908
1731654813.4788857,763.9369184316022,803.1115161029117,806.5843564115683,832.2963602162428
1731654813.4800162,799.1598525128594,804.0134175745908,806.6024882454947,841.5484975823076
1731654813.4809563,837.4010485500976,804.4255558148762,806.6207316907688,844.3860500167049
1731654813.4848576,848.3463254086961,804.4576236361534,806.6391088234238,832.881017412661
1731654813.4873407,822.3278845967811,804.3633827666902,806.6576393528609,807.6747345146658
1731654813.4887588,778.2404017548251,804.3212543697721,806.6762931405522,780.7794232151577
1731654813.4926603,748.578289199421,804.3727123468929,806.6949516776297,767.8984568896186
1731654813.49563,753.5357101256507,804.4766994405577,806.7134466365453,775.7151974255571
1731654813.4965615,785.0805080068301,804.5830654184463,806.7317216447291,795.5583147824742
1731654813.4977577,814.1484427281689,804.6693200108851,806.7500454138536,809.8695803461727
1731654813.5004628,815.304793906009,804.738986484019,806.7690343494327,806.660166852214
1731654813.5043645,788.4689288010729,804.8045873216162,806.7891987157064,789.7702465413885
1731654813.5082655,759.2325002839782,804.8746907223474,806.8100390795433,775.8352055500541
1731654813.511244,757.0738145737854,804.9508077236366,806.8294067879866,780.028115023095
1731654813.5121667,789.658294521408,805.030465832442,806.8443985221069,802.4047250524944
1731654813.5160682,835.0378057132799,805.1110181790658,806.8544890527402,826.5242729885007
1731654813.5166297,858.6019686473543,805.1913892073532,806.8652233902118,831.9619763331084
1731654813.5199697,840.9788709764796,805.2718429463037,806.8875545528978,810.8477377039619
1731654813.522293,794.1303471932788,805.3530462646843,806.9271255988414,775.1134869236537
1731654813.5238707,752.5608507367716,805.435414263571,806.9630060641429,748.3343178730037
1731654813.526858,746.5158550115608,805.518985475572,806.9244022759333,748.1359322978212
1731654813.5277722,778.3904339347223,805.6036022175039,806.6821208390461,772.766946038796
1731654813.5316734,821.186716266461,805.6891095269598,806.0840315713085,802.568740636664
1731654813.535502,840.4359107338521,805.7754392859907,805.0632352800349,815.5048475301422
1731654813.535575,822.0011438163598,805.8625949955627,803.7807862988126,804.4715792917804
1731654813.5394762,783.0569502761894,805.9506046801073,802.6654422466445,782.3074922339272
1731654813.5424716,757.1976296201908,806.0394860394626,802.2349830054309,770.3810850549245
1731654813.5433774,766.18100523977,806.1292290625327,802.7659357791445,780.372641059391
1731654813.5472786,801.9601866087768,806.2197871852272,804.0425931849132,804.5700484518441
1731654813.55118,833.7213708137324,806.3110815389588,805.3980684992122,822.6147549657986
1731654813.554374,833.5414692244381,806.4030383334299,806.075412254891,818.678105821777
1731654813.5550814,799.2326878420254,806.4956645685734,805.7084342840849,794.6273231852446
1731654813.5572455,756.0449856615863,806.5891116121203,804.5943174241462,768.5803266346592
1731654813.5580854,736.4328588373553,806.6836184866489,803.52443942795,760.390243914325
1731654813.5589826,754.3800126300133,806.7792542846533,803.2474665222621,775.8855461278986
1731654813.562884,794.6901999296881,806.8755647756183,803.9444404213568,802.392575847221
1731654813.566785,825.6956477420244,806.9715089853698,805.1165642857078,819.0717604254705
1731654813.5706866,825.130311992015,807.0661631823729,805.9608500512073,813.8098920383665
1731654813.573246,798.002296828611,807.1601877206082,805.911233705153,792.943586170662
1731654813.5736992,771.5145258497749,807.2569367529247,804.9199346438377,775.6740512538322
1731654813.574588,771.1461770887972,807.3611237294087,803.3275875095168,777.6536176268988
1731654813.5784893,798.1652718312585,807.473739600561,801.5336004215333,797.4943994286104
1731654813.5823903,827.9270755124764,807.5856384066591,799.789190391743,817.6959501974587
1731654813.586292,830.6538634616065,807.6773419710529,798.2431940021817,819.3122769162212
1731654813.589313,797.1681655211175,807.733581829015,797.1056331106984,798.0412443274327
1731654813.5901933,747.9132031135705,807.7709400950727,796.6946187454015,768.3729360665673
1731654813.592118,717.7288624736631,807.8556355290091,797.2556415318916,752.537209196162
1731654813.592198,728.73601606407,808.0720693433775,798.6790532467261,763.2822448255594
1731654813.5940945,772.9664651841358,808.4211299069761,800.3982533491148,794.0447486597678
1731654813.597996,818.4288232244629,808.6985853517816,801.6544881280423,823.9803010885311
1731654813.6018972,833.9014233653107,808.4906169485882,801.982878091291,833.8105086046468
1731654813.6049268,812.9441959389626,807.4074228892869,801.506769117868,820.1394506274714
1731654813.6057985,777.9172128442339,805.4587510788982,800.75590147396,797.0509508115185
1731654813.6097,760.693090416753,803.2230338113131,800.1859255376053,783.909178115697
1731654813.6109903,775.9942842844049,801.5513306431645,799.8765898746607,789.5628264235114
1731654813.6136012,809.6399625922828,800.9970750228584,799.6552089110452,806.0790577635256
1731654813.6175025,831.431466340086,801.4622552464584,799.4047273197943,816.874146351228
1731654813.6205406,821.4499716637977,802.3481470698171,799.180503231847,811.7366935688867
1731654813.621404,787.3204248560663,803.0339046456121,799.0873568357925,795.6231135637967
1731654813.6253052,758.036660602406,803.252392529292,799.1467399484719,783.961457237656
1731654813.62715,759.8969379077593,803.1069243087443,799.2954552175551,788.9889224069565
1731654813.6292064,794.7900292864452,802.8404094242051,799.4576787679292,809.0129902744854
1731654813.6298623,838.6289707812921,802.6234961995266,799.594421325458,829.5682840089227
1731654813.633108,860.9529799176255,802.4954803760119,799.7052229848643,835.3318960232009
1731654813.6361544,849.5743382610209,802.416694769829,799.8059291600034,822.8847989400356
1731654813.6370091,820.1494589599693,802.3389734260359,799.9093149638752,803.7838835740541
1731654813.6409104,802.7502856064815,802.2407964441397,800.0187943524438,795.2421786677826
1731654813.644812,816.3612100448782,802.1255996862399,800.1316041537629,805.864178403931
1731654813.648713,852.4512340239373,802.0054073594666,800.2440451467172,828.1767988625425
1731654813.6487343,881.4714203337289,801.8884152139036,800.3543240725264,844.3099162953336
1731654813.6517684,877.0508690015171,801.7760407588092,800.462585962922,840.338572568884
1731654813.6526144,837.9681094944777,801.6658892058318,800.5697177286692,817.6304018529597
1731654813.6565158,790.0161669274473,801.5554100401079,800.6763708720352,792.0757009632105
1731654813.6604173,766.46413268991,801.4435659956835,800.7826888831271,781.9681995374178
1731654813.6621022,782.8331467743623,801.3306048683766,800.8885077440975,794.2283533449543
1731654813.6643183,825.6155905049812,801.2171584054987,800.9936344528679,819.6088355566819
1731654813.6673822,863.1453192302075,801.1036151615268,801.097985164683,840.2487361643996
1731654813.6676064,869.7241639382112,800.9900034861612,801.2015769969461,843.4503261376514
1731654813.6682198,844.3570267590649,800.876167515808,801.3044623823741,830.9786082261758
1731654813.672121,809.8836402736074,800.7619591273565,801.4066796167474,816.7215720728655
1731654813.6760223,793.5077753902949,800.6473153533101,801.5082402633886,814.6167274852171
1731654813.6799238,804.472454326437,800.5322354981307,801.609138690867,826.6509778783959
1731654813.682996,827.1907659130527,800.4167278013432,801.7093645410159,841.030238409694
1731654813.683825,835.5539542227239,800.3007795453769,801.8089111692252,842.3767511826187
1731654813.6864784,816.2387694504434,800.1843657509165,801.9077832161067,825.5144122129757
1731654813.6877265,780.9973566470388,800.0674799845413,802.0060047403822,800.9998978381306
1731654813.6916275,757.2735570480394,799.9501530765011,802.1036188419852,787.3319089379146
1731654813.695529,765.0351231217642,799.8324250627999,802.2006638055188,796.0057510114166
1731654813.6970546,799.4140669432666,799.7142640453417,802.2971250256838,821.6591003593124
1731654813.6986098,833.8184626712022,799.5954878702947,802.3928988481333,845.481913902451
1731654813.6994302,841.130092303175,799.475806524933,802.4878372178076,849.4163217801843
1731654813.7033317,815.6796215424279,799.3550804118255,802.581916536495,830.0716523009727
1731654813.7053506,777.9102024272803,799.2337025932942,802.6754506957752,801.3712256417409
1731654813.707233,757.610356755752,799.1127129565631,802.7690972522815,783.6708212123768
1731654813.7111342,769.275415967137,798.9931232676719,802.8633731150546,787.8631839170795
1731654813.7142236,800.1081200589626,798.874388304994,802.9577329149782,807.2712100298332
1731654813.7150357,821.0144880587708,798.7531132775791,803.0499696497686,823.9736785737177
1731654813.7189367,811.5719793758132,798.6241901349196,803.1372365036816,824.2032226171165
1731654813.7228382,777.8502775710264,798.4859332613363,803.2193552940723,809.7607986747558
1731654813.724223,747.9170909792302,798.3470556194047,803.3026362304593,795.8847550072022
1731654813.7267396,748.7613819394701,798.2277905353226,803.3993370852249,797.6783827631557
1731654813.7298374,783.7890598279077,798.1457777760776,803.5177714670097,816.7639456867531
1731654813.730641,829.221831303043,798.0870678517867,803.6450659970552,839.281433900184
1731654813.7320068,852.1855223545555,797.9847996633023,803.7379562646146,846.7411372488039
1731654813.734542,836.0969458639363,797.7471740448187,803.745897689424,830.8403023309389
1731654813.7384436,793.4248029794758,797.3608274358342,803.6764774590982,800.324520506077
1731654813.7423449,755.8440167401295,797.0235875294301,803.6663534287424,774.3770728625473
1731654813.7430947,749.5178060952218,797.1656281504577,803.9686991464714,767.7826096858721
1731654813.7454512,775.0879232799394,798.2203037204885,804.7854778972749,779.7949474733518
1731654813.746246,808.3741870391533,800.2209380438364,806.020127881624,795.7431351595162
1731654813.7501476,821.1407464553859,802.5865953685222,807.1983034632559,800.0014312915603
1731654813.7540488,804.7968505487479,804.4119414551499,807.739194033021,789.4698507735997
1731654813.75795,777.3259819069086,805.0899503870082,807.4064005109259,776.1909961958719
1731654813.761065,767.6541466204351,804.708283594382,806.5075283909396,776.8216958014265
1731654813.7618515,790.570150233026,803.8774994208406,805.6135072048361,797.7762866986634
1731654813.7619667,833.1799044557881,803.2262560837606,805.0532506978999,828.5459868773179
1731654813.7657528,864.2244786435582,803.0716024927091,804.6737949162421,848.9559705054266
1731654813.7669592,858.8191596724162,803.4855447755214,804.0897385228708,844.7171139733084
1731654813.769654,818.7123861693439,804.5198623291051,803.1688066042,818.8770432820196
1731654813.7735555,771.6874643887792,806.2433642412985,802.2888914460336,789.9306545304029
1731654813.7766788,750.2316175416686,808.5544455066018,802.1221924882556,777.8550336983091
1731654813.7774568,766.2058254820606,811.039613057557,803.1092364414732,788.9800496760583
1731654813.780839,801.8313191395605,813.0889201985179,805.0288915841329,811.7104075735135
1731654813.781358,824.539030705076,814.1669668051783,806.997570420457,826.5286181314598
1731654813.7852595,813.8694655959412,813.9867871851175,807.9303715946523,822.1205959526462
1731654813.7891607,778.4369324426701,812.516434402741,807.1791460307088,804.3756928949508
1731654813.7922928,748.8747497917535,809.9894244556623,804.9361887087307,790.8867277938774
1731654813.793062,752.511975441024,807.0380776281022,802.1495411071746,795.6950522880395
1731654813.7969637,790.6712828515858,804.7620877979779,800.0241407925156,817.1458551323449
1731654813.799711,837.1366917707003,804.3952617994709,799.4285563640938,838.9396027868798
1731654813.8008647,858.7941131135262,806.5340491637708,800.5190466891767,843.3411865444948
1731654813.8019114,841.5939103092378,810.4233351860823,802.7007129807075,825.5706341926013
1731654813.804766,801.1441218073693,813.9971794541534,804.876018000266,797.6922624098008
1731654813.8079066,769.8008034202345,814.9162626593514,805.8835612959089,778.9874867655429
1731654813.8086674,770.7909073080962,812.0242842734455,805.0161863667568,780.6750069111764
1731654813.812569,800.1584980599044,806.1784228425535,802.4291506541741,797.356376147807
1731654813.81647,831.0685767335697,799.7872976296096,799.1844984103556,812.1224074913823
1731654813.818583,836.8091804820541,795.372061595462,796.7970204552711,811.0521318180207
1731654813.8203714,813.266443565932,794.218420413005,796.4559409706559,794.9780652739126
1731654813.8235204,781.9714334314175,796.0364402573244,798.365368843306,778.6303144255446
1731654813.8242726,771.2638897945995,799.6467562479966,801.6297212372845,777.9350124468796
1731654813.828174,791.7725793433611,803.9171942588265,804.782098556624,796.2664257605603
1731654813.8320754,827.1091130903022,808.1798611499586,806.6310205292123,821.2376726943177
1731654813.8359766,847.473501886489,812.0310108613911,806.8864494961025,834.6230245105005
1731654813.8368638,834.4993476802067,815.0045838762152,806.188903554249,827.0681758744225
1731654813.837455,796.6587043564008,816.5799110627464,805.5863481205747,805.4928371957282
1731654813.8391342,762.7410323975625,816.5078511352874,805.8514470379517,787.23089360789
1731654813.8398778,758.776582749218,815.0782584094661,807.0641099908757,785.6815876357455
1731654813.843779,786.9562011201109,813.0192267732479,808.6480375760028,799.1027117924615
1731654813.8476806,823.6707626773746,811.0642552481077,809.761715377079,811.9040797831659
1731654813.8515818,838.7347199973191,809.505588137711,809.7670903245352,807.8794929536301
1731654813.854748,820.484970061234,808.066786949933,808.495211679104,784.7471692766709
1731654813.8554833,785.8820035337503,806.2008720926511,806.1992691106802,757.5747900577952
1731654813.8563273,766.5886388267818,803.6162859354331,803.3268595935306,747.4405170173459
1731654813.8593843,782.1532566132034,800.6446050994991,800.346741789447,764.1779857597161
1731654813.8632858,822.7339933696443,798.1390164156718,797.7285598563137,797.5205455936735
1731654813.8671873,856.1727423226024,796.9331829748128,795.9659885955542,824.3372658828066
1731654813.8703618,853.9531111376169,797.2626254925373,795.5023848241485,826.3943064854233
1731654813.8710885,814.8478881408796,798.6128319988983,796.5649220685492,804.4097528891893
1731654813.871816,766.9101159376576,800.1067156348337,799.020580786665,777.2371690075174
1731654813.8749895,745.9671790981289,801.0851196587532,802.330326780954,766.9724853840537
1731654813.8751993,767.5387224508704,801.4097225604384,805.6188205853902,781.7984118120695
1731654813.8788912,814.4107555743072,801.3346179351935,807.8944050275603,809.9655782703218
1731654813.8827925,850.0026532458161,801.182473183866,808.4434192174805,829.5440884943457
1731654813.8859756,847.3509015754848,801.1280764460098,807.2639092502701,826.2264842567714
1731654813.8866937,810.6819140883885,801.1813306840222,805.2171301541325,804.9564825086126
1731654813.8905952,771.86662812047,801.2776487634435,803.6374197325836,785.8329513395287
1731654813.894071,764.2375797288877,801.3616216201539,803.5272416260651,787.3917527172148
1731654813.8944964,795.1489705374837,801.4166838934457,804.8717789875361,810.9359591940732
1731654813.8983977,840.0395185609655,801.453411417947,806.6202393923464,839.0166157186045
1731654813.9015894,862.8546801631375,801.4874731509564,807.4103911855224,849.5046217510352
1731654813.9022992,845.6397493573008,801.5269527692209,806.5278690315738,833.6574658967602
1731654813.9062004,802.8171967734439,801.5716324976377,804.3904264261037,803.2868819727232
1731654813.9067683,768.945949625679,801.6178703509252,802.2068503134715,781.2892167783049
1731654813.9101017,770.7267093996055,801.6628355090672,801.0921128184542,783.4861792779976
1731654813.9129434,806.2248642246278,801.705821827951,801.3246814353128,806.5382300680329
1731654813.9140031,847.5547249078667,801.7474847665047,802.2996069295975,831.4203939041347
1731654813.9172032,864.0669980153065,801.7886624234844,803.1699032150228,839.2850031667028
1731654813.9179044,846.9203108937944,801.8297544485962,803.6152301044984,826.6773919998674
1731654813.9218056,815.1873331149274,801.8707291375913,804.0783447197964,807.7214016253442
1731654813.925707,798.8044543436293,801.9113967740929,805.2755812629514,801.5746028182642
1731654813.9296083,812.7518546146329,801.9516271369871,807.4443438755222,815.6781217876804
1731654813.9318156,844.1690248233064,801.9914065124619,810.036310097832,838.9423299445463
1731654813.9328172,863.2315347981639,802.0307877809296,812.1290850946268,850.7233586575904
1731654813.9335096,848.5978446586937,802.0698227620799,813.1271077085898,838.1435198739345
1731654813.9374113,806.1030134859949,802.1085290306916,813.0955285583021,807.3065761126703
1731654813.9413123,765.1777871553053,802.1468988575191,812.5294455294002,779.1041056801106
1731654813.9417205,755.9137511731478,802.1849333863152,811.9110823360429,773.0682105122893
1731654813.9452136,785.3169920617371,802.2226748168243,811.4597970499008,792.3636643048297
1731654813.948431,831.6566558127126,802.2602039743921,811.1591951899517,821.7830055993373
1731654813.949115,861.2348424976059,802.29757914582,810.9064408003941,839.9557055735488
1731654813.9506876,854.2827402314517,802.3347346505396,810.6273087910092,835.7850238325314
1731654813.9530163,819.6542371745871,802.371431333967,810.3067404737849,816.1537423636208
1731654813.9569175,786.8083263756004,802.4073951213556,809.9646763703893,799.1845545249736
1731654813.960819,781.5729564364926,802.4426886824655,809.6236919889433,798.931733080004
1731654813.9640448,805.3509397480605,802.4780847454294,809.2934052212119,814.1319840012463
1731654813.9647202,834.783768643789,802.5149015203647,808.9718589579679,830.0758205630228
1731654813.9686215,841.9800245634809,802.5538268854348,808.6533438281188,831.6397594973135
1731654813.9695597,818.2082461284764,802.5930995179939,808.3341036711677,816.267317730185
1731654813.972523,781.1947360028461,802.6278379354997,808.0135668552721,796.0004948191133
1731654813.9764242,760.1584727489278,802.6530154976643,807.6928854419886,787.0853139234882
1731654813.976673,771.3183890125223,802.6705936102458,807.3732300357735,796.0546296932963
1731654813.9796586,804.2353201042723,802.6959616268443,807.0550449165553,813.9419338473969
1731654813.9803257,830.1835566536641,802.7534083698276,806.7381810994124,823.4560095201861
1731654813.9842267,825.6931491025105,802.852677511479,806.422323522131,813.3008882158715
1731654813.9881282,792.0148236121395,802.9556540238248,806.1072781540292,787.8999874251156
1731654813.9884317,754.3958674346762,802.9686988724746,805.7930204906426,764.3477701818156
1731654813.9920294,741.4363381879712,802.8063550021259,805.4796120678304,758.789764359571
1731654813.9952724,761.3823850661917,802.5302050024416,805.1671117640099,773.2856333974469
1731654813.995931,795.1729775149406,802.465984745103,804.855537018607,794.0705950541108
1731654813.9998322,812.3744349299166,803.116072071085,804.5448661337564,802.8360710273993
1731654814.0037334,796.9274419279915,804.7729919420149,804.2350557728438,791.8600535445347
1731654814.0073037,761.1641561406068,807.0780399967903,803.9260628550696,770.5874931720562
1731654814.0076349,736.1884653760886,809.038809679254,803.6178735209816,758.2473703062567
1731654814.0108862,746.3403037489646,809.7122681230613,803.310531899963,768.39740355662
1731654814.011536,788.6093691037959,809.031872549206,803.0041347720877,797.6920958638927
1731654814.0116253,833.8575278556407,807.9744398209375,802.6987502842316,827.7771546512672
1731654814.0154374,849.147208535538,807.8288136121342,802.3942711206865,838.9331167029449
1731654814.0193388,823.537816942559,809.1515904778859,802.0903248538557,824.9113436756817
1731654814.02324,776.7676576857978,811.2741057897862,801.7864476339428,797.3680919740569
1731654814.026176,743.709685457906,812.7558521258885,801.4826196676313,776.3905015975585
1731654814.0265,746.886099473483,812.4192500732767,801.1798652996849,774.7020511371135
1731654814.027141,779.0893536110044,810.1867346322767,800.8801314289094,788.3007142227879
1731654814.0310428,810.0934482089668,807.1427747581816,800.5846634359564,800.997239188474
1731654814.034944,811.8444194569774,804.8245666615952,800.2912460922242,798.7443666043797
1731654814.0388453,781.4522686776914,804.2616333891698,799.9928146123249,781.5549271385207
1731654814.0421138,743.3152213303753,805.4139535115938,799.6812728531163,763.1878320127444
1731654814.0427468,729.0177736379092,807.3404104783536,799.3578767687519,759.4757686147618
1731654814.045048,751.6370680165791,808.8916059140917,799.0438011002664,775.6826702808926
1731654814.0465772,795.1256327109179,809.3716120495459,798.7757816037848,803.382166445875
1731654814.046648,826.9958259124817,808.7307444762563,798.5734004562707,828.3566299415417
1731654814.0505493,824.048676683914,807.3035534582323,798.3880496436145,841.4061629891278
1731654814.0544508,790.6521023898326,805.4572504796442,798.0837487044522,842.7696840922149
1731654814.0577276,754.8592789280683,803.4642727325509,797.5208487072686,838.4739852081228
1731654814.058352,745.3532600648983,801.5846953204945,796.7601652741595,834.2368612702355
1731654814.0622532,768.0517015222001,800.1260196986301,796.2589781017982,832.3666800426935
1731654814.06392,801.8343319113179,799.3523718571598,796.7891208266494,832.3408948974334
1731654814.0661547,816.9675510491759,799.3607919104252,798.9073651884014,832.7716544693844
1731654814.070056,800.5900038069112,800.0961039240593,802.2814083341077,832.7744693865228
1731654814.0733416,767.720041867291,801.4763880275354,805.5804993402082,832.2364972804074
1731654814.0739572,748.7205659019658,803.4310204929077,807.2586456257069,831.4479252628588
1731654814.0778587,763.9857820233442,805.7573213457657,806.6210512378816,830.6911234893178
1731654814.0815296,806.8601579656153,807.956818911867,804.2335829004182,830.0687488452537
1731654814.08176,848.4981466294577,809.2931537454805,801.4136185213478,829.5420887621912
1731654814.082792,860.4325429749979,809.115156870192,799.3612017448539,829.0358544398329
1731654814.0856612,836.7457850615663,807.2334696045145,798.6163969848136,828.5060709196687
1731654814.0889554,798.3442727299354,804.0843726207829,799.0418327553675,827.9496891167141
1731654814.089563,776.0020302497852,800.5817910899557,800.0704578990559,827.383142688969
1731654814.093464,785.7254262934466,797.771498730347,800.9548111432285,826.8209543675407
1731654814.0973651,816.421778205511,796.4848263086508,801.0245314537063,826.2677322447787
1731654814.1012666,840.0704227880912,797.1060532451347,800.0385850391839,825.7209270010377
1731654814.1016643,835.9362911535422,799.4438279776131,798.4821188302199,825.176497663839
1731654814.1045692,808.4699060965675,802.7034148093236,797.4660230856759,824.6322879346181
1731654814.105168,783.8611012780867,805.6818549469995,798.1000838163391,824.0882958557893
1731654814.109069,788.2068646741402,807.2978115234235,800.6997434638474,823.5454140655077
1731654814.1129706,825.426607426252,807.257533923217,804.4480096619965,823.0042820242093
1731654814.1164818,872.9339678736819,806.3326039930676,807.8463262428368,822.4649297852816
1731654814.1168718,898.4953185868078,805.8779098691125,809.6676585735033,821.9270750959193
1731654814.120183,884.9431543620414,806.8672086563975,809.7136149700394,821.3906241366166
1731654814.1205363,843.4510553584312,809.2253410407623,808.8267878817612,820.8559394390311
1731654814.1207733,804.9434896309418,811.9983891260509,808.1873069934524,820.3235740039835
1731654814.1246746,796.0528183841069,814.1313085123855,808.4598758836946,819.7934607229713
1731654814.1285758,818.3696968085889,815.1204816887129,809.4353242634813,819.2640922128302
1731654814.132477,847.8166607315347,815.0650758722644,810.3784657796731,818.7328009514381
1731654814.1357968,855.1914134578951,814.3058746187761,810.7187820462497,818.1981019110816
1731654814.1363783,831.2201191534218,813.165957080431,810.4927369696959,817.6633855831253
1731654814.1394083,794.9584730393303,812.0005488432188,810.232477121838,817.1383886923613
1731654814.1402798,777.9600036432665,811.2738306881391,810.4821595076584,816.6333786319603
1731654814.144181,797.2277621734602,811.33399905227,811.3633454576944,816.1448560088357
