timestamps,eeg_1,eeg_2,eeg_3,eeg_4
1731306104.6650312,803.0696695220761,783.8979228855362,919.2349151774754,777.9184781027225
1731306104.6689374,794.0387165810462,795.5079253500313,807.3016835605656,757.488674253329
1731306104.6707437,786.1391992688112,802.3138078292845,714.1019097421034,741.775443601559
1731306104.6728437,779.9901741733671,802.0062823408508,640.9847767941584,734.4806077848427
1731306104.67675,775.3423348547585,795.6775898984486,571.5591055146003,736.5407994297933
1731306104.6806562,771.1658802590239,786.7587745307385,491.6060869135709,744.6772725101767
1731306104.6845627,766.2669633302669,778.9588803431452,412.1635221622333,752.2948723908065
1731306104.6863334,760.0813984721093,774.6063257150836,370.4760572143805,753.2553096264782
1731306104.6884687,753.1606075159849,774.1571928474651,401.9893552928135,746.1414714255646
1731306104.6923752,747.1185359555751,776.6705575748766,507.5370861297515,735.4330044912946
1731306104.6962814,744.0330601750202,780.5650352648685,648.1846734064804,728.1932340495412
1731306104.7001877,745.416574895938,784.1771364311604,772.7646977362896,728.7251427624095
1731306104.7019231,751.1767581325558,786.1282062243858,850.2459161469383,735.5823946839248
1731306104.704094,759.3290538767211,785.7145125003508,878.6103505550284,743.3063010903834
1731306104.7075138,766.9687469858648,783.2908397745014,871.5265759694169,747.0522192190313
1731306104.7080002,772.0234904031147,780.2654673332427,845.6851101914853,745.8623732556388
1731306104.7119064,774.4416198207707,778.3735217024239,820.9418805637719,742.0159372524638
1731306104.7158127,775.7627247978752,778.4922168734244,820.9663442854702,737.8534853441072
1731306104.7175128,777.4280332159835,779.9120523367009,858.8738297953867,733.7015047522358
1731306104.7197187,779.4111585436157,780.8835377826555,916.1092269938747,728.8969037077522
1731306104.7236254,780.4777237928697,780.1918946200838,942.3199690996889,724.3371211064945
1731306104.726379,779.7800342704894,778.3779150116042,889.505786901922,723.2691719569082
1731306104.7275317,778.1492920980529,777.3315318059729,755.9798086796717,728.9032971611636
1731306104.731438,777.7308797443073,778.4984019473723,596.7501088320455,740.8897498712703
1731306104.7331026,780.2330433382408,781.3920594478126,483.0060961688823,754.2142787680151
1731306104.7353442,785.4194195330472,783.9010258702493,442.68735794688433,762.1335728667184
1731306104.736446,791.2748601498225,784.1534115521016,437.22859401979844,761.1659387205581
1731306104.7392504,795.7285479560469,782.2258881902756,400.21847852784293,754.1181490348832
1731306104.743157,798.3713638792842,780.2126355974001,306.26104166276315,748.4680740744351
1731306104.7452433,800.5826014329028,780.722086628406,206.014166804963,751.0757132754469
1731306104.7470627,803.9308803353939,785.1284735556673,189.53992059233303,763.1985323746409
1731306104.7486925,808.3470705302174,792.8218823742409,305.72152785805787,779.6475123471542
1731306104.7509692,811.857706142929,801.6917592232213,511.26911556581,792.6574957963303
1731306104.7548754,812.2588315587341,809.254705275736,700.9035021189712,797.3232462506529
1731306104.7587817,809.27140293431,813.7378506052634,794.7716575355281,794.4110214405298
1731306104.7626882,805.2150825071717,814.7291595640668,801.7169003579619,788.7753338348249
1731306104.7641082,803.5495035499221,813.234190886481,798.3078856944057,785.1792090824217
1731306104.7642822,806.4509872521045,811.1146931183365,845.7660964287534,784.9528773710567
1731306104.7665944,813.2515178251696,810.1335561150565,927.5337685733715,785.7022269150895
1731306104.770501,820.7405267291635,811.1124468480439,967.9552332684448,783.7808129993107
1731306104.7713332,825.020946342005,813.686246369876,911.1481783994421,777.4901213868329
1731306104.774407,823.7858277786772,816.7189597421508,780.370967458119,768.7612803305894
1731306104.7783132,817.7300041155167,818.9925320820059,658.7048581376482,762.1409700096744
1731306104.779872,810.2232766020005,819.7180036786785,610.1551696881978,761.6728407703166
1731306104.7822194,805.3288389537448,818.7343983862733,619.783280664152,767.8367672502727
1731306104.7829728,805.3927262216363,816.5325890139696,613.8281397636891,776.9113543244064
1731306104.7861257,809.8456851300035,814.1750323067218,541.7584146778627,783.4642758435358
1731306104.790032,815.959704006877,812.9860245648731,438.6340090547281,784.2314275233007
1731306104.7939382,820.7534963127611,813.9659719118047,402.512691566009,780.4379355558971
1731306104.7954617,822.4808298088755,817.2235630050403,504.40832321586754,776.7552954738696
1731306104.7978444,820.83834088618,821.8530398484899,715.866077998777,777.6872052740681
1731306104.801751,816.3626409209362,826.3576819977759,923.4673316503831,784.1304666592499
1731306104.8018377,810.0409345930505,829.3023189885447,1016.873052325329,792.6758338946291
1731306104.8056571,803.4719073695761,829.8384176453808,970.4906935893566,798.1329467813281
1731306104.8062203,798.905523558151,827.9967264506938,850.702754994207,797.3767489088724
1731306104.8095634,798.4079110062844,824.7444291596564,751.8330529607904,791.6222894789566
1731306104.8110514,802.420220825092,821.6857642560556,722.8253387720841,785.3567582480949
1731306104.8134696,808.983899057298,820.3325888359947,743.8333413541524,782.6911726676605
1731306104.817376,814.6614662312613,821.2496486740819,760.8748036433964,784.02785754061
1731306104.8207023,816.7380268056053,823.6612813892049,738.4757690929061,785.8618671827654
1731306104.821282,815.0120803486645,825.8309251500825,683.4776759045263,783.9930302316875
1731306104.8251884,811.6847522930477,825.910350236183,626.250956608912,777.4039570732397
1731306104.826641,809.435681651176,822.6863829365577,585.1014301929075,769.3352786893743
1731306104.8290946,809.3064503431539,815.9659115049473,550.9406087084992,764.5499096849429
1731306104.833001,810.1236073296734,806.7126030929594,504.8688950749627,765.2564256456154
1731306104.8369071,809.8225977724371,796.9764517261215,446.91983207942326,769.376275726759
1731306104.8395672,807.4302696615255,789.3899653191303,404.4385761950981,772.6427400823424
1731306104.8408136,804.0107062353328,786.1396847790419,411.9713859874255,772.5355092297513
1731306104.841108,801.8661744992936,787.8646701292464,484.45652790216167,770.5142888642359
1731306104.8422308,802.7432250281009,793.2334120521408,609.6773260013674,770.6536000402183
1731306104.84472,806.4883977446195,799.5754081812294,762.4512237180843,775.9426110633827
1731306104.848626,811.1122230015574,804.2205199412775,920.4807862154007,785.444375553259
1731306104.8525324,814.1097797778119,805.7627165879102,1064.8736358979447,794.7228691774337
1731306104.8564386,814.0268685931115,804.5737857775633,1170.7178283835765,799.2001529217896
1731306104.8578205,811.1982639188499,802.3536103607355,1207.2955150632602,797.6694693952843
1731306104.8584318,807.2745677831981,801.0166272505161,1156.8223822567586,793.0882203361886
1731306104.860345,804.0422312417311,801.5557704589792,1036.6113689335657,790.0999614527124
1731306104.8642511,802.4517448421353,803.5273868262778,899.0292349732513,791.4455065704548
1731306104.8681574,802.4406633738994,805.4222795055423,800.5398845888424,796.1563835288413
1731306104.8720636,803.4288745343366,805.6453655816946,761.6334259489281,800.717334218266
1731306104.8734105,804.886329371262,803.4847003793521,753.6027234787417,801.9650491290121
1731306104.87597,806.4594578006243,799.5075377335174,728.6372901677146,799.3968214435648
1731306104.8759954,807.6513477572282,795.1740661649512,670.6548867285524,795.3261621968869
1731306104.8772967,807.5567941931429,791.8956359372638,620.8528033452767,792.9898685005052
1731306104.8798764,805.2182466711058,790.1238917672741,649.0039480162953,794.0644304703451
1731306104.8837826,800.6113427835811,789.1467906690126,789.041454190135,797.3903598318868
1731306104.8876889,795.4480067482617,787.8579451383396,994.9241379411328,799.8807535567025
1731306104.8890002,792.746608236465,785.9519649297192,1162.3102727624012,799.0100632572669
1731306104.8915951,795.0223795925951,784.4433676815773,1205.660806515518,794.9711906310131
1731306104.8955014,802.3713727062427,784.8233247250876,1127.1471970371301,790.6836577470456
1731306104.8961616,812.1517564154072,787.406140531787,1015.4305952486517,789.4931123653517
1731306104.8994076,820.6777962129153,790.3476904982211,972.4020785883041,792.3612792581205
1731306104.903314,825.4985263334006,790.4277642080465,1030.6063490646975,796.8872783985943
1731306104.90459,826.3818974480639,785.2173928830334,1132.4949722339738,799.0537334707658
1731306104.90722,824.5427803801285,775.024354631606,1186.2769478618068,796.3439311936932
1731306104.9108827,821.3335562007603,763.1184457562896,1144.6058782098744,789.7368256881947
1731306104.9111264,817.7490548039132,754.0354231180438,1035.3283931211774,782.9953371698534
1731306104.9150262,814.7584358111822,751.1228203236321,922.2224557557836,779.8486457490368
1731306104.9150326,813.4132947345935,754.8973894957339,840.2803422489743,781.357950499229
1731306104.918939,814.1536963399601,763.0763720058968,771.2863764861656,785.567407616611
1731306104.9201796,816.0476498058332,771.9900519532305,682.2018648707726,789.5607598389362
1731306104.9228454,817.1299499272833,778.3598043903572,583.7340115762069,791.9141378219621
1731306104.9267516,815.9221927843771,780.538757034825,543.4276600487719,793.2568382831975
1731306104.930658,812.8328588470233,778.913103541045,631.3526167317538,794.6394816496735
1731306104.9338913,810.0506759167602,775.5772167544815,846.096179468725,795.7243951711517
1731306104.934564,809.8953926703231,773.4033844802631,1094.5505344735056,794.9693812634013
1731306104.935769,813.0024731223492,774.6569675593821,1251.9538024009412,791.7265517451522
1731306104.9384704,817.854235609393,779.7116921283654,1253.1721664477689,787.9517905589161
1731306104.9423766,821.986008961446,786.7729107010549,1136.4447827894455,787.4443728847165
1731306104.94577,823.7928381312295,793.063508607304,1004.7749039672901,792.9613803450019
1731306104.9462829,823.4363400052409,796.7391042314417,943.105887497983,803.6595004103788
1731306104.950189,822.2202941490735,798.0189969265454,962.4245771759062,815.0943203192588
1731306104.951359,821.1579430256384,798.6152223460914,1009.9189922878811,821.851134216751
1731306104.9527557,820.0671007269519,800.0533552730292,1024.0559101510771,820.8523255390435
1731306104.9540954,817.906305035887,802.412681517632,981.2014686593391,813.0742642456676
1731306104.958002,813.8940429599936,804.4819995070249,898.9123432771486,802.7265817393377
1731306104.961908,808.3463214306698,804.9677654696811,805.6013153846652,794.6667889440629
1731306104.9658144,802.5566198990113,803.5696157216951,713.9252767419043,791.7770345523104
1731306104.9669487,797.9109083002731,801.0903149643333,623.7816551064409,793.8031436426862
1731306104.9697206,794.9961209261121,798.7099371780167,545.5411339019096,798.082716947619
1731306104.9716206,793.3820679719594,797.1737539229849,511.5687513777923,801.4329246501363
1731306104.9736269,792.2126267451778,796.5087264486139,556.8950812548221,801.9455213105592
1731306104.977533,791.1247415952179,796.3003389362705,684.3949293782247,799.7425760558882
1731306104.980657,790.7188468911863,796.1293321838269,849.3474585144384,796.5026086559801
1731306104.9814394,792.0950849544356,795.806642459569,981.7153035908159,794.2436787823962
1731306104.9825385,795.7337474341496,795.3506090754297,1029.2008531629053,794.1517122020613
1731306104.9853456,800.6481371302348,794.8541065326675,986.4260316592643,796.1126607843483
1731306104.989252,804.6375745479639,794.3829830575532,891.0844204025666,799.1244305016062
1731306104.9904852,805.6144742868594,793.9499837385895,797.1380224064002,802.1811901557154
1731306104.993158,803.1076787551452,793.536947410018,748.2587269000204,804.9317426070807
1731306104.9970646,798.8918515511148,793.123732267341,764.1537796016285,807.6528815560041
1731306104.9981284,796.2752238046652,792.7019108680663,836.5602883949638,810.6665192282767
1731306105.0009708,798.3564967018596,792.2733456070265,929.6084161287316,813.7916517680175
1731306105.004877,806.1151032816558,791.843150360939,988.338295255873,816.3655848394736
1731306105.008783,817.3963212485245,791.4146352811127,961.5143351718818,817.7930533492992
1731306105.00935,827.5495921350407,790.9882620965977,832.3336317580209,818.0320281847872
1731306105.0126896,831.5960041571283,790.5629758055077,636.1700612957925,817.548624690948
1731306105.013718,826.7696179287321,790.1377256482284,446.8186436979153,816.8981507865587
1731306105.015545,813.9117995865256,789.7121170779797,334.41961511469066,816.3938323124397
1731306105.0165958,796.8962352234563,789.2862828721665,322.56054158303664,816.0708112011253
1731306105.020502,780.5449507367151,788.8604991908286,377.5941581495546,815.82983854221
1731306105.0244083,768.423063964221,788.4349319107922,441.31674958524377,815.5782651448105
1731306105.0282147,761.8266596251322,788.0095973558471,482.1774804216706,815.2849750918441
1731306105.0283146,760.2949167638823,787.5844395225268,520.2049983467397,814.9650458768
1731306105.0293078,762.8509386629921,787.1594089906658,600.1210110461526,814.6441263069152
1731306105.0322208,768.794614644119,786.7344934508741,735.0469838040597,814.336464354842
1731306105.036127,777.5012498000357,786.3097090450516,876.1322334542848,814.0425666808601
1731306105.0400336,787.7059729861176,785.8850810900173,944.2472472835148,813.7567702306267
1731306105.0439398,797.248242791456,785.4606322154332,900.5653266574476,813.4743469134335
1731306105.0448976,803.8120504007696,785.0363790717155,789.8197187679428,813.1939694737343
1731306105.0470796,806.2439763396153,784.6123311277554,709.3914759693661,812.9166432701056
1731306105.047846,805.3895788403574,784.1884889920914,725.5659133971935,812.6437870734347
1731306105.0504322,803.6327281633438,783.7648480800725,811.7402919810639,812.3761478451398
1731306105.0517523,803.3326217656535,783.3414156530661,868.8721711969395,812.1137519509546
1731306105.0556586,805.3395895826502,782.9182375027713,814.9611900749396,811.8563308555731
1731306105.0595648,808.824961841088,782.4954082356264,663.9114473543764,811.6036822502227
1731306105.0604873,812.5696388421181,782.0730269745115,519.1037592128127,811.355776512582
1731306105.0634713,816.4936464113708,781.6510892797471,483.8291797926923,811.1126906659626
1731306105.0659444,821.8916597703151,781.2293874520028,569.6773763493253,810.8745189301861
1731306105.067377,830.0175173034603,780.8075754744366,688.5212738913932,810.6413387421868
1731306105.0712836,840.2893880499562,780.3855228771904,736.3782584875013,810.413217871625
1731306105.07519,849.8679865974426,779.9638264932629,690.7379421564412,810.1902048818405
1731306105.076077,855.1817806906432,779.5439455551933,630.3866131586533,809.9722717154239
1731306105.0790963,854.2508805038423,779.1272639638368,660.2985119979867,809.7592536727898
1731306105.0830026,847.984762904785,778.7130196651302,812.3821566840278,809.5509008601417
1731306105.0848093,839.5190204416996,778.2966083634335,1012.4049961811141,809.3471277066042
1731306105.0853195,832.2154243501387,777.8712242000852,1139.9567755991388,809.1483584726369
1731306105.0869088,827.8483246080133,777.4348796127156,1125.226197061219,808.955586351566
1731306105.0908153,826.1472530087732,776.9997374581686,998.8373964935597,808.7696752470263
1731306105.0916667,825.7232958098143,776.59326336585,857.5433049858863,808.5899137789424
1731306105.0947213,825.4311040263227,776.2386932363594,782.2231568044381,808.4129331576296
1731306105.0986276,825.0898543118961,775.9158352467757,780.4968843845922,808.234046334281
1731306105.1025338,825.190264656658,775.533299167111,797.4844630504505,808.0522742966291
1731306105.103674,826.1049431852318,774.9682907525461,775.3424629527332,807.8766437326007
1731306105.10644,827.6174450083636,774.2076234227004,703.1865879965379,807.7262869860551
1731306105.1072564,829.0784175879447,773.5249919200643,616.1529043335125,807.6159761219578
1731306105.1103463,829.8071720080436,773.5026419877009,554.0692176516666,807.5287942010367
1731306105.1142528,829.2823345142086,774.71407286305,525.0132397743316,807.3985967433523
1731306105.1181593,827.190760399339,777.1812433815469,507.0210055759373,807.1407097285835
1731306105.1202068,823.6963400912235,780.1116777178568,480.1783870090126,806.7501138621273
1731306105.1220653,819.854279605405,782.3665730635985,453.7247653305573,806.413562597221
1731306105.1225386,817.5396499785221,783.4446318705543,462.0255681560348,806.4900690559813
1731306105.1228464,818.4991940128929,784.1275820420713,535.050302772223,807.210243605155
1731306105.1259716,823.0870889325452,786.0518778708453,671.2909405070525,808.1485355364678
1731306105.1298778,829.8124804320696,790.3321841553732,835.9747673912815,807.9033690120953
1731306105.133784,836.2345832149064,796.258077141188,983.5589378662409,804.6306993599414
1731306105.1376903,840.5045624582748,801.224661655767,1083.6228861598845,797.5968530080125
1731306105.138436,842.2370845520252,802.2080479716101,1129.782013229428,788.7766677328323
1731306105.1414034,842.0502061904429,797.8660334066669,1129.6487451265996,782.8110231526663
1731306105.1415966,840.3978619991528,789.7471507881977,1091.7960418696875,784.5238500043617
1731306105.1455028,836.9624498591668,781.6663151022697,1025.3909419298984,795.3167909345462
1731306105.1494093,831.2506748206882,777.6176566735007,950.1125793728069,811.2270732308227
1731306105.1533155,823.7726614550752,779.6047126410897,898.1588100857423,824.6477001639018
1731306105.1540258,816.5282410470828,786.7215506792288,896.2950555027436,828.98423253086
1731306105.155094,812.1114001664672,795.8651522810485,940.3317937196305,823.0302797852353
1731306105.1572218,812.010993288841,803.4368426028359,990.2426454206656,811.7696405287633
1731306105.160268,815.464447589023,807.0033606921012,999.2852915780948,802.861954367412
1731306105.161128,819.8403920809196,806.1569816915936,955.3225108539424,801.2882446237577
1731306105.1650343,822.3443768813405,802.327820993618,893.9987842537646,806.0686257957032
1731306105.1689403,821.838140801659,797.7784723939944,866.5020510525047,811.4891176517011
1731306105.1696155,819.4885250425423,794.3889027385185,890.574756311157,811.8664590289582
1731306105.1728468,817.8009721312585,792.967887936278,933.9571980480163,806.0754314317502
1731306105.176753,818.6991677587138,793.4684360851265,948.668924629883,798.1936093169523
1731306105.1791327,821.9646716902394,795.7458115270526,921.8010277458252,793.7911200624128
1731306105.1806593,825.1670599547172,799.9950055786599,889.7866084084808,795.0619924952696
1731306105.1845655,825.2663836647384,806.3145024214613,899.88011592582,798.9812509006748
1731306105.1852052,820.8846143261195,813.7845111039674,957.4255770780151,800.0426528870156
1731306105.188472,813.6446795037438,820.1150086669594,1013.5747287837789,795.1614864916907
1731306105.1899817,807.5057351669856,822.5557561675297,1007.9896332538951,786.487493289279
1731306105.1923783,806.3652846836088,819.5997317261445,924.6615473634236,779.703160409418
1731306105.1962843,811.3952812938625,812.1544446787476,805.1901395556193,779.2226997875205
1731306105.1979976,819.8729937221207,803.2005899291948,709.602066156701,784.3169241042913
1731306105.2001908,826.5281725896186,796.2198426527947,668.9770807282623,789.4828799777698
1731306105.2007947,826.9250364329802,793.6144606083792,673.7937154765597,788.929538743163
1731306105.204097,820.7543857015394,796.0894552819053,696.0210249327812,781.5679132722348
1731306105.2080033,812.3422463379701,802.953539340013,714.1901439259037,772.2440562675542
1731306105.2119095,807.3247895339891,812.6575528571101,722.0932608622948,767.9095484883086
1731306105.2158158,807.6788664976814,823.12979998131,723.6445875486987,771.7069990972791
1731306105.2163846,809.3515725034089,832.0451264058627,724.5606517644192,779.8784326995632
1731306105.2168624,805.1107822915882,837.3485105173377,727.7276142599648,784.211375365054
1731306105.219722,790.7796001673086,838.0337253915407,733.0011109397391,778.2766799677684
1731306105.2236283,769.6719000617011,834.7465160667142,739.021121605317,762.6932919023158
1731306105.224869,751.1486084065859,829.6404072949862,744.7540017650924,745.3627291474529
1731306105.2275348,744.0853772463375,825.260010258582,749.9521204831855,736.3423458484749
1731306105.231441,750.436316845578,822.9641523890937,754.8605388087354,740.9794672676527
1731306105.2319744,764.080074935213,821.9962572978286,759.7831547569866,756.2689341266821
1731306105.2353473,775.7612688475783,820.0680035567852,764.8594761575393,773.1047508571116
1731306105.2357273,780.0215340513536,815.1825404073863,770.0713904291568,782.7591832700892
1731306105.2392535,778.6325533457721,807.3215599638912,775.344558534853,782.7453414663166
1731306105.2431598,778.1122696255147,798.6593411736952,780.6271221848446,777.676500005486
1731306105.247066,783.7657677508513,792.1894646156419,785.9094716920423,774.6038516704284
1731306105.2475643,795.3961482167916,789.926268077063,791.2063179498219,776.6962327009471
1731306105.2509725,808.0895438102265,792.0388484645534,796.5337641551587,780.5363738482513
1731306105.254592,816.7139858587874,797.3320514529998,801.8985799337943,779.4023716949123
1731306105.2548783,819.6028716316573,804.3390606916553,807.2994687762666,769.8190530879112
1731306105.2587848,818.5643336417875,811.9283983112035,812.7327268705811,755.6394496935683
1731306105.2597563,816.4279125074463,818.9958869787183,818.1961983981928,745.7947236737959
1731306105.262691,814.9655452678496,823.8607890615481,823.6898579043661,747.2935734614052
1731306105.263154,814.475606491065,824.4193705744573,829.2143905019875,759.3431062707813
1731306105.2665975,814.4653053296933,819.4306372632018,834.7698395143956,773.6789860128019
1731306105.2705038,814.4189869272051,810.0354317183496,840.3556433156341,780.923768551809
1731306105.2734568,814.1363619810637,799.9547785819775,845.9721161135824,777.6872942001777
1731306105.27441,813.678791035411,793.6302369208449,851.622054623733,768.6294855692693
1731306105.2783165,813.1820450413005,793.3863177087945,857.3101775198805,762.0934052282929
1731306105.2787435,812.7291161663422,797.8673005495527,863.0387020752091,763.2233268852219
1731306105.2822225,812.3284573881579,803.1911702917577,868.8007110151565,770.2202342163415
1731306105.2861288,811.95118189967,805.9715048318437,874.5781435087092,776.4355387490426
1731306105.290035,811.5703768648704,805.6912043756761,880.3534145393161,776.210801947509
1731306105.2923214,811.1767665028992,804.5039575499769,886.135756763518,769.6880636246044
1731306105.2939413,810.7744244596315,804.823571076854,891.9834675110543,762.9725612223705
1731306105.2943337,810.3705905874239,806.8901390401811,897.9842827351054,763.6605817313146
1731306105.2946436,809.9693166888336,808.3425851390656,904.166873053822,775.0455438990298
1731306105.2978475,809.5707282657816,806.0488156131033,910.3807380586893,793.1631298584538
1731306105.3017538,809.1731610202509,798.6460608005929,916.2770863901275,808.8267200060787
1731306105.3056602,808.7751976314437,787.7808257755654,921.5521639010678,813.2885489020811
1731306105.3095665,808.3763892986682,777.1316552933703,926.4465538918695,803.5996840407481
1731306105.3099232,807.9769626020693,770.0298356318165,932.1114255356744,784.1084795817515
1731306105.3111863,807.5772755446742,767.4960427654936,940.1243665686936,763.5101387127708
1731306105.3134727,807.1775062717608,768.0357194251886,950.7045205024106,749.899881322181
1731306105.317379,806.7776324312293,769.0918426475847,960.4162511691096,747.0711247814927
1731306105.3212852,806.3775397218203,768.8990244541369,961.7748975641468,753.8053773329545
1731306105.3251915,805.9771109867118,767.4341786545602,947.0937796460637,765.779685399881
1731306105.325513,805.5762579668024,765.9984083039537,915.175094172489,778.4059419940827
1731306105.3290975,805.1749377622659,765.9191282184851,874.6773675285997,788.8266415779134
1731306105.329531,804.7731915586966,767.360579880875,839.3149934282343,796.1871788236323
1731306105.3300507,804.3711740838926,769.1225789431925,818.4796037629405,800.603279960259
1731306105.333004,803.9690796979111,769.6577056699962,812.135280565197,802.1080903927118
1731306105.3369102,803.5669061203511,768.5993178296886,813.6910983588499,800.6451762310666
1731306105.3408165,803.1641770433928,767.475774095173,816.3052846434525,797.0122361473825
1731306105.3411026,802.7599794282885,768.7243754186884,816.6895508745919,793.5521911059793
1731306105.344723,802.3536873653745,773.6110856236189,814.9380125945696,793.419371685328
1731306105.3486292,801.9462348918985,780.9388322460466,812.4748105731782,798.5457325700723
1731306105.3489158,801.5408151010183,787.9496811180612,810.384651595339,807.8595223326145
1731306105.3525355,801.1412259786214,792.7076778852695,808.9215385157651,817.4346916265483
1731306105.3564415,800.7471441569137,795.628800302202,807.8212762851697,822.7846676655328
1731306105.3566923,800.3491207339456,798.6147110713229,806.7610760828463,821.7106341585688
1731306105.360348,799.9302027614344,802.7379005152407,805.5941961614766,815.5943701043642
1731306105.3642542,799.4806046804483,806.9185317961487,804.3409474128973,808.2266005942583
1731306105.3644185,799.0213881073859,808.9298976521151,803.0804916736918,803.1062045391693
1731306105.3677804,798.6145991104883,807.646220302554,801.8675716116976,801.16561269675
1731306105.3681605,798.3269232165437,804.2762069186674,800.7119755030851,800.4701612505551
1731306105.3720667,798.1372983951434,801.4497542118837,799.5977945395115,798.053993295185
1731306105.3722825,797.846189276979,801.1023034171169,798.5077503235201,792.5894379297405
1731306105.375973,797.1136691778646,803.0749303326304,797.4345008443972,785.912848748323
1731306105.3798792,795.7204546736031,805.5025771195241,796.3792852036656,782.1167243442385
1731306105.3837855,793.9024615776483,806.4344351614707,795.3459731828193,784.7123871548922
1731306105.3866453,792.2918928553554,805.2390788330978,794.3368578999483,793.95208611976
1731306105.387692,791.1949541116948,802.772589927211,793.3518267901665,806.3524012894275
1731306105.387872,789.8775021643822,800.4167004202054,792.3895029132171,816.7488055457738
1731306105.3915982,787.0147157115656,798.9260832886339,791.4485202377919,821.3301392040265
1731306105.3955045,782.2956633671412,798.0088820371462,790.528059759607,819.5574697549501
1731306105.3993056,777.533876161392,796.8462629768998,789.6277328652291,813.8592314936664
1731306105.3994107,775.7684409832893,794.9620218822544,788.7472569580335,807.5866595847767
1731306105.403317,778.8339715011668,792.6412423480693,787.8862447858836,802.8102788610623
1731306105.4034617,785.5406800701394,790.6179789218481,787.0441752305949,799.4815578820713
1731306105.4055102,792.1764890578766,789.4600703902373,786.2204616646549,796.3309242864741
1731306105.4072232,795.0112059332732,789.2597456124159,785.4145200369542,792.4851361191168
1731306105.4111297,792.8167030233939,789.7794422769825,784.6257924279403,788.3284129270174
1731306105.4150355,787.513094633737,790.6973105075705,783.8537323188948,785.0134522152192
1731306105.418942,782.6320788172804,791.6280575382423,783.097778919437,783.3526690598414
1731306105.4190514,780.942378511571,792.0440221354937,782.3573464671625,783.231841351762
1731306105.4228485,783.0112846700306,791.4413321812748,781.6318422794802,783.9101266749699
1731306105.4243748,787.4658341118806,789.7526722222509,780.920706939989,784.6680098082629
1731306105.4267547,792.2743306323645,787.5551228383791,780.2234421893172,785.1778030916885
1731306105.430661,795.8220100762013,785.7303845150727,779.5395735265874,785.4632593476289
1731306105.4341931,797.2424805320838,784.8459155535223,778.8685209207794,785.6773108491133
1731306105.4345672,796.4126090391342,784.8506919926908,778.2094467838101,785.9305959111415
1731306105.4346411,794.1063347253187,785.2973441300178,777.5612723285523,786.2457344702062
1731306105.4384737,792.0985359309569,785.7589843295137,776.9230610071993,786.5931760351343
1731306105.4423797,792.596472827922,786.0541925671203,776.2946979350928,786.9393698862875
1731306105.4432397,796.9436746430312,786.2117255522995,775.6772703306308,787.2700226733189
1731306105.446286,804.5085082413276,786.3298672277217,775.0721998396122,787.588079889501
1731306105.4501922,812.8537224092363,786.4744316862003,774.4787329897798,787.9020925917382
1731306105.4502308,819.2790160554257,786.6558287524709,773.8912603119174,788.2177164984972
1731306105.4540985,822.5556493622844,786.85402599628,773.3001342917244,788.5358678432395
1731306105.4580047,823.4575660187322,787.0483652582085,772.699438626001,788.8548923240021
1731306105.4619112,823.8031858193185,787.2307914255304,772.0996360324748,789.1731036001278
1731306105.4621043,825.006152755125,787.403671332927,771.5331804176407,789.4898944340308
1731306105.4658177,827.3274028466885,787.572347296144,771.0356023633732,789.8055400116491
1731306105.4658206,830.1496158241752,787.7400787318405,770.5970288962135,790.1205619976034
1731306105.4690804,832.7269332823315,787.9071703892056,770.1153941358498,790.4353011210566
1731306105.4697237,834.7263300407114,788.0724447052229,769.4216042405899,790.7498464344797
1731306105.47363,836.2612280864324,788.2348018263516,768.4355333065347,791.0641620591582
1731306105.4775362,837.5277413592306,788.3938426542837,767.3996588611166,791.3782195978063
1731306105.4809692,838.4178182676252,788.5496997736622,766.9537771715898,791.6920502228861
1731306105.4814105,838.5514184413353,788.7026331613274,767.7316270887538,792.0057296685931
1731306105.4814425,837.8569639999432,788.8527768832504,769.4323867660313,792.3193437395727
1731306105.4853487,837.1897973545736,789.0001088997676,770.0226139901041,792.6329669815333
1731306105.489255,838.145443295226,789.1445367523472,766.4092182433221,792.9466603246095
1731306105.4931612,841.817247257541,789.2859817701915,757.57935801123,793.2604783336188
1731306105.4970002,847.4030515213955,789.4244116547615,748.9854612997938,793.5744760129131
1731306105.4970677,852.0569133864736,789.5598283423719,753.6685035155496,793.8887110987188
1731306105.4998338,852.4874167528426,789.6922363781425,784.824035106033,794.2032429197131
1731306105.500974,847.2634069164178,789.8216130397926,841.3094950798125,794.5181305095475
1731306105.5039678,838.0696057076046,789.9478981095683,900.4044646895526,794.8334317108792
1731306105.5048802,828.9030763491817,790.0710213328314,933.1268000531935,795.1492034471388
1731306105.5087864,823.690189362874,790.1909711894125,932.5534404646039,795.4655023223227
1731306105.51259,823.831346471629,790.3078644620546,922.0328247275056,795.7823845234132
1731306105.5126927,827.1752915296047,790.4219230520181,928.5073677841776,796.0999045925055
1731306105.5165987,829.1137688696525,790.5332719603778,949.8520678625559,796.4181138568556
1731306105.5186987,825.3511501010485,790.6416146978457,955.6158662432715,796.737060567497
1731306105.5205052,814.8585437446624,790.7460938396507,921.3350530608747,797.0567937429249
1731306105.5244114,801.090485590226,790.8457838726986,856.1787952212801,797.3773698639693
1731306105.5281796,790.3058874292416,790.9409383652236,793.346613953941,797.6988563233874
1731306105.5283177,787.7272708041826,791.0341793524168,758.7168873808243,798.0213222415316
1731306105.532224,794.0488863616297,791.1298235660583,753.8187134716435,798.3448132190908
1731306105.5361302,804.8408392574569,791.2298533935137,763.9258382439414,798.6693254062602
1731306105.537563,813.3773154821001,791.3279380853252,774.3653065968973,798.994815648169
1731306105.5388553,814.9257251958818,791.4076083070012,778.9524485198558,799.3212807724434
1731306105.540037,809.5834672187783,791.4527418345167,778.7867738201832,799.6488824330082
1731306105.5437694,801.8996436612366,791.4714321471223,777.3371404120945,799.9779964162383
1731306105.5439427,797.6865060513934,791.5162447454057,776.8988948135947,800.3090144951453
1731306105.5478492,800.1462779404659,791.6664677597563,777.8206004945396,800.6418585907417
1731306105.5517554,807.8289285830853,791.947265805568,779.3933756573309,800.9755318379725
1731306105.5556617,815.8067861694531,792.2180941175249,780.8956009846509,801.3084080953538
1731306105.5564282,819.3322816668458,792.1472898613404,782.0504809866329,801.6398185798952
1731306105.5593593,817.4108338623141,791.41019705457,782.9449594115962,801.9723497858073
1731306105.559568,813.579787350126,790.0765858514214,783.7676534485208,802.3124556796162
1731306105.5634742,813.1265015679389,788.8280239480613,784.6327052686448,802.6662578518125
1731306105.5673804,818.7421540703507,788.5956771079926,785.550613295208,803.030254977567
1731306105.571287,828.0042092233954,789.768719272597,786.480460372772,803.3836923921581
1731306105.5737424,834.7927438979519,791.7105652876008,787.3844932129206,803.6958807212361
1731306105.5749488,833.6807301611611,793.0898343044038,788.249609184637,803.9576378812158
1731306105.5751927,823.995704762215,792.7625277352944,789.081193449928,804.2230953892478
1731306105.5752933,810.5110827674393,790.542215071283,789.8889224626134,804.6146825039368
1731306105.5790994,800.2913460932625,787.3677317755743,790.6779849666004,805.2346999653487
1731306105.5830057,798.0620292331279,784.7610643213014,791.4481170932924,805.9865870934391
1731306105.586912,803.4930578307692,783.8802347933843,792.1965991742239,806.4412070834409
1731306105.5905385,812.2255917730707,784.8056835812861,792.9210830133619,805.9877805263225
1731306105.5908182,819.5215651629098,786.6199380756033,793.6205798382603,804.3831426836346
1731306105.5941577,823.4497608190868,788.199416600871,794.2950404825032,802.3558616740195
1731306105.5947244,825.1991854457705,788.9812749251902,794.9445929073773,801.5065221234266
1731306105.598631,826.7784486945261,789.0615261618705,795.5691089744631,803.0951350341759
1731306105.602537,828.560934025807,788.752050474153,796.1681835437741,806.4811710237824
1731306105.6061282,828.9300724497352,788.2295421535752,796.7413039682096,808.8210783920127
1731306105.6064432,826.0736095156014,787.570663058704,797.2879956257185,806.9043188342956
1731306105.6086297,819.998661518591,786.8623142212336,797.8078663228337,800.0130101661013
1731306105.6103494,812.8742402457879,786.0854116138197,798.3005795878304,791.2678069747966
1731306105.6130226,807.545942561889,785.0028141611344,798.7658141859736,785.7797830971177
1731306105.614256,805.6664698051679,783.4394557486031,799.2032431065235,786.731953441628
1731306105.6181622,806.9484764037772,781.7865993655687,799.6125341444138,792.7596948190272
1731306105.6217182,809.8475570044858,781.0710938007054,799.9933594940884,799.226916284585
1731306105.6220684,812.8401454346823,782.3065684733167,800.3454033142542,802.4621623278864
1731306105.625975,815.2749421694746,785.7078313060217,800.6683637837587,802.977747760401
1731306105.629881,817.3901454261033,790.5784296712227,800.961951593231,804.4190486688582
1731306105.6318872,819.7836273983888,795.9301971454024,801.2258879336429,809.1728442137588
1731306105.6337872,822.8690303144938,801.096243246001,801.459903610189,815.106664100395
1731306105.637308,826.6227018577325,805.7364390961612,801.663739276611,817.0052940097128
1731306105.6376934,830.5740037755047,809.4637901523595,801.8371460861456,811.6019032141029
1731306105.6415997,833.8691367967841,811.7522850298179,801.9798861946599,801.3432644108079
1731306105.6435173,835.3826464066065,812.3267444358187,802.0917329641359,793.0043541299922
1731306105.645506,834.0074998054797,811.543252329849,802.1724709869193,792.0748072164699
1731306105.6494122,829.1961775229047,810.2165263538043,802.221896092932,797.8910431559412
1731306105.650752,821.5601429566409,808.9458856739858,802.2398154186776,804.0087975480177
1731306105.6528976,813.0678471986982,807.5235503418854,802.2260475317829,803.730079642953
1731306105.6533186,806.3992862634707,804.9786827824689,802.1804225721551,796.0823850292014
1731306105.657225,803.5157807459876,800.3355008146153,802.1027823811114,786.9913808753643
1731306105.6611311,804.2767927865182,793.6212454833266,801.9929806121503,784.4926460135797
1731306105.6650374,806.2634545962251,786.3669820758956,801.8508828305693,792.0564756849891
1731306105.6684873,806.2478136837926,781.0536368246457,801.6763666104391,805.7428004290846
1731306105.6689436,802.372711516611,779.6939983496602,801.4693216326602,817.4360856239534
1731306105.6696167,795.3638682626641,782.5170892843116,801.2296497833889,821.0996898453822
1731306105.67285,787.8311778906984,787.7819153038201,800.9572652506158,816.7270170570031
1731306105.676756,782.3131352387646,792.8984768852699,800.6520946173817,809.1697421853025
1731306105.6784046,779.6834287678018,796.0009203493426,800.3140769514004,803.5280987464566
1731306105.6806624,779.0432176630042,796.8410581843478,799.9431638916068,801.2278658595185
1731306105.684077,778.8621389335387,796.5146763954422,799.5393197321462,799.692547622619
1731306105.6845686,778.2110590350414,796.3998684872688,799.1025215037611,795.2785871731181
1731306105.688475,777.1638111485578,797.0668351520528,798.63275905186,786.6802180739431
1731306105.6884816,776.3830624460894,797.7681691553913,798.1300351102661,776.022386574044
1731306105.6923814,776.5410411649664,796.8000680821096,797.5943653703366,767.0480553144287
1731306105.6962876,778.0641162115406,792.6738451467473,797.0257785469145,762.2817888902605
1731306105.6996667,781.1468688424687,785.5453931117539,796.4243164442715,761.6466994338987
1731306105.700194,785.7563099675992,777.9039157707062,795.790034024355,763.2817207155034
1731306105.7041,791.5750796384233,773.6927916303594,795.1229994741533,765.2609447986986
1731306105.7073462,798.0465097143052,776.0650406313767,794.4232942606742,766.6396836975024
1731306105.7080064,804.555074969291,785.176410264956,793.6910131592189,767.4196313660995
1731306105.7119126,810.5583604490289,797.6629210590287,792.9262642546822,767.9868593914455
1731306105.713292,815.5707399062876,808.3370655278027,792.1291689484586,768.6444825937315
1731306105.7152565,819.1824544779486,813.0173383635835,791.299862032343,769.4683022364887
1731306105.715819,821.3199380440757,810.615474936723,790.4384918683611,770.3883121280091
1731306105.7197251,822.570652148654,803.2325959514042,789.5452206043593,771.315331415276
1731306105.7236314,824.0526276760029,794.465618529178,788.6202242030837,772.2075758952599
1731306105.7262113,826.549899867332,787.2652041219346,787.6636920314576,773.0697090968757
1731306105.7275376,829.4216069779031,782.7573206142404,786.6758260524922,773.9234291886784
1731306105.7308462,830.3722230698784,780.5125528681183,785.6568402883124,774.7841880281841
1731306105.731444,826.7436174374452,779.6053289178208,784.6069617072001,775.6550888731914
1731306105.7353504,817.653943690302,779.3770051724108,783.5264331383046,776.5319796912003
1731306105.7392566,805.253910022917,779.4024139743254,782.4155166619473,777.4101760751249
1731306105.7431629,793.8085820341154,779.1099754929552,781.2744931639896,778.2876841949267
1731306105.745076,787.0800154485117,777.8338075170835,780.103653590041,779.1649055869669
1731306105.746436,785.9971273431253,775.4737030132221,778.903283569292,780.0430133645498
1731306105.7470691,788.4142661870255,773.0881729512048,777.6736549210082,780.9227703180716
1731306105.7481792,791.0484767716965,772.5940719930342,776.4150454662439,781.8042743163015
1731306105.7509754,791.9799141127155,775.5344711329366,775.1277958269061,782.6872631205015
1731306105.7548816,791.790288657897,781.8744001278236,773.8123696316819,783.5714751070301
1731306105.758788,792.6235329272176,789.9526729181132,772.4693340382461,784.4568156451236
1731306105.7620258,796.1162074483947,797.7393852655518,771.0991830820249,785.3433353698747
1731306105.762694,801.9311250602353,804.2800906442365,769.70205203823,786.23112372278
1731306105.7639406,807.9738464605931,809.9552876624815,768.2775933252557,787.1202013344054
1731306105.7666004,811.92437134274,815.339915146696,766.825408497032,788.0104612333402
1731306105.7705069,812.7440110301364,819.9207218677765,765.3461458559187,788.9017069446047
1731306105.774413,811.0516673553544,822.1563431251309,763.8425508924922,789.7938234776235
1731306105.7776155,808.3113591224676,820.9836690090665,762.3188797737012,790.6870229405911
1731306105.7783194,805.6457683837205,817.2552122958516,760.7773568154248,791.5819339795645
1731306105.7822256,803.1700467393149,813.4874636078034,759.2129042160705,792.4792137662728
1731306105.7828054,800.1819266435201,811.9341123674088,757.6115132652263,793.37861432567
1731306105.7830665,795.9193068034957,812.7268899561294,755.9594550847128,794.2781306798388
1731306105.786132,790.3194693646232,813.8520451433425,754.2643200635035,795.1745724037955
1731306105.790038,784.3152328886032,813.0064105287237,752.5729920182102,796.0666142320906
1731306105.7932053,779.5025666558139,809.6282338807173,750.956361776346,796.9591804723506
1731306105.7939444,777.3551494425029,805.3082406598231,749.4388806580959,797.8645602659407
1731306105.7978506,778.429925979904,802.3469929093833,747.9021903923996,798.7942960873296
1731306105.80167,782.0488345371547,801.8735560440299,746.0685362525422,799.7413959740825
1731306105.8017569,786.65389359817,803.174325909179,743.6939199620087,800.6658865090383
1731306105.805663,790.5832540298718,804.6396378385789,740.9684632800663,801.5091249690327
1731306105.808795,792.7882154908586,805.2893178885734,738.816938573056,802.2541705951435
1731306105.8095696,793.1891532347869,805.4761341419932,738.5304332455364,803.0054157906569
1731306105.8134758,792.6769395760665,806.2601771156665,740.37817735824,803.996845662167
1731306105.817382,792.8256834613608,808.1710916998327,741.8672976074665,805.4209461549009
1731306105.817954,795.2566900122843,810.548031515018,737.7213500432333,807.0850731434413
1731306105.8205347,800.7068815574493,812.0442572490466,723.9137954819118,808.1536722886992
1731306105.8212883,808.296993604205,811.8083613630336,705.3487214487627,807.427235389502
1731306105.8243847,815.7148625366261,810.2683835205268,701.0976096498767,804.3484018136551
1731306105.8251946,820.4934788588347,808.8460721180514,737.063564334901,800.0694837550128
1731306105.8291008,821.5914949795131,808.9121408497209,822.2926401944936,797.3196797494707
1731306105.833007,820.0743790203852,810.9066748919382,925.2164743303055,798.6817519840696
1731306105.836913,818.3824082003861,814.225293427801,981.1627407178772,804.6243223346075
1731306105.8393996,818.8116997112614,817.6520193323511,941.6249834744682,813.0563154088279
1731306105.8399744,822.3092900163842,819.7632651248681,826.5171695459288,820.6885890292854
1731306105.8408196,828.1862567417926,819.1501294772437,721.6992670829932,824.9126269231087
1731306105.8447258,834.5981508166669,814.7953029809307,711.1562462535661,824.809485973081
1731306105.8486323,839.3488350794129,806.7345907675434,801.4366301627955,820.97173003324
1731306105.8525386,840.6985171645449,796.4914008431425,910.1316431530333,814.7641208860344
1731306105.8528414,837.9734605884278,786.6456825169537,932.5744657154332,807.712915005066
1731306105.855564,831.7892893705416,779.6222413396276,828.5541619607391,801.2032146304091
1731306105.8564448,823.81948917613,776.5825495344428,653.369501885912,796.2987674068565
1731306105.8582644,816.2603643110983,777.2496340376466,508.83927537987313,793.5560904072961
1731306105.860351,811.2093100448617,780.6206496551467,460.1554414893971,792.8967675800027
1731306105.864257,810.0573124474904,785.750481283315,491.23105956801857,793.6318323770867
1731306105.8681636,812.9912855433879,791.8948761724535,533.7019500572569,794.6702198157474
1731306105.871154,818.8814602773065,798.1116304216371,537.9782957872146,794.9423870976573
1731306105.8720698,825.7990046550872,803.0424214347273,518.7310882482643,794.0029213018662
1731306105.875976,831.9225527029007,805.3748978088436,534.8264348043681,792.4885989450903
1731306105.8771293,836.1355569010296,804.6760187770078,627.9865361468239,791.8945499126268
1731306105.8798823,837.8779838379002,801.7814359495021,781.6251248567718,793.4955486701595
1731306105.8837886,836.6435702488079,798.2711719433844,935.8172221697695,797.0924697382981
1731306105.8867438,831.9389101493177,795.4053580155341,1036.760461956726,800.7394145958503
1731306105.8876953,823.9690604376515,793.396304126447,1070.704348247144,801.9811377949252
1731306105.8877287,814.3679037514139,791.5891417330691,1057.2355915402038,799.7873293623271
1731306105.891601,805.9987455424757,789.3168069692497,1020.665657310434,795.571788477476
1731306105.8955076,801.5599994092859,786.6228409630668,973.1370423640566,792.3058981935691
1731306105.895994,801.8215089819773,784.2131750102533,920.0315196348222,792.3256780936216
1731306105.8994138,804.8573694913307,782.7377161538678,870.5303321707415,795.5856266516485
1731306105.9023335,807.1180396577487,782.1087860431953,836.2408290950546,799.7791057209113
1731306105.90332,805.8419458572292,781.4675340504008,821.9365142451478,802.1971182329461
1731306105.9072263,801.0937479234418,779.7736762393562,822.3564812053583,801.7783371792123
1731306105.9111326,795.7388692095764,776.5137716585763,828.0459861039743,799.7127967657223
1731306105.9148588,793.1935090499534,772.0995325934022,832.3061488376335,798.2099281792956
1731306105.9150388,794.6845466186097,767.8564741692662,833.370037613415,798.5186361684193
1731306105.9179232,798.2779116967821,765.6257479258552,832.5524574093059,799.8090149766119
1731306105.9189453,800.4814857316475,766.9817659603536,831.6253635645667,799.7910870727791
1731306105.922616,799.0694730351421,772.275127157802,831.4353925411701,796.592995740814
1731306105.922851,794.8396130283759,780.0824341728875,831.8979778008971,790.4236993849433
1731306105.9267578,791.0219912514708,787.6349068002895,832.5799666941349,783.6254024966578
1731306105.930664,790.9725193236433,792.1576762262916,833.1689199578417,778.9407326508209
1731306105.9335127,795.9582406141064,792.2982976616373,833.5997460930611,777.3483518570815
1731306105.9337234,804.5003862711848,788.6922298267039,833.954689081751,777.330707369154
1731306105.9345703,813.4334655316534,783.3426072158196,834.3283114716164,776.2863179752402
1731306105.9384766,819.7155883256693,778.3360221044976,834.7617678520484,772.8986496076141
1731306105.9423828,821.8172632061196,774.817230695703,835.247918904325,768.3892472236731
1731306105.9462893,820.0990247110669,772.8414894468586,835.7636962909046,765.5681238628853
1731306105.9491026,816.3198239879691,771.9842117669662,836.2939613481433,766.5133293903795
1731306105.9501953,812.7636223413487,772.0314460313431,836.8368073771222,770.8231683015063
1731306105.9525883,811.3602827563412,773.1681959532509,837.3975771051746,775.8246076449534
1731306105.9541016,812.9243068966334,775.659715505459,837.9817574319541,778.5145837772444
1731306105.9575033,816.6071912800662,779.4497826675084,838.5918016200785,777.6926149837092
1731306105.9580078,819.8971287226714,784.0101810840199,839.2275933974505,774.6559010457361
1731306105.961914,819.5854242390835,788.4333696933546,839.8881953759487,771.9735571157589
1731306105.9646924,813.5925534250591,791.6234662264314,840.5731473928047,771.3717239495833
1731306105.9658206,802.6317234399415,792.5709342882398,841.2829083196322,772.4722464687906
1731306105.9697268,790.3554678269802,790.7739666642291,842.0187206244541,773.4132686490669
1731306105.971453,781.553116753366,786.6807982737215,842.7820918606067,772.7730996331388
1731306105.9736333,779.5026941576518,781.7767892465902,843.5738681556926,771.0741109122614
1731306105.9775393,784.276059189036,778.0253612658025,844.39315933184,770.4909447370878
1731306105.980282,792.9921504904731,776.8657226788573,845.2371578739727,772.9659398939707
1731306105.9814456,801.5619596104518,778.4287132222865,846.1032746425395,778.35227768335
1731306105.9853518,806.6817759639283,781.5433551994286,846.9936777960676,784.1865666612189
1731306105.989258,807.0874407233123,784.5038973019571,847.918930516921,787.2967193883757
1731306105.9903178,803.7568072152217,786.0216732400598,848.8942782804224,785.9915621355542
1731306105.9923906,799.2024172208255,785.7636653891117,849.9242142332392,781.2620823311922
1731306105.9931643,796.1899849503549,784.279715144918,850.9821812308968,776.245415104606
1731306105.995872,796.3835345397241,782.5175902063872,852.0084510264873,774.3073795992893
1731306105.9970706,799.5482112227293,781.2717019664502,852.9533789040463,776.8578575251041
1731306106.0009768,803.7960193869469,780.8527951041755,853.8633630261992,782.2729309676189
1731306106.0048833,806.836644793653,781.1091778733258,854.9412345406851,786.8613658374358
1731306106.0087895,807.5398109980775,781.7224678830632,856.4594652079477,787.5104890385873
1731306106.0091825,806.7733251822369,782.5277919340302,858.4574030530429,784.1512332379772
1731306106.0114615,806.8017246303839,783.6126544857259,860.3770430641321,779.9612355430006
1731306106.0126958,809.4940282628177,785.1600394107371,861.0879706062699,778.9465171203703
1731306106.016602,814.6357129872007,787.2359742467077,859.7897629360344,782.854049248918
1731306106.0205083,819.8502336467941,789.7449255459826,857.66952924236,790.0206222398044
1731306106.0244143,822.4836078926129,792.5588749329023,858.9852500429641,797.0299623444525
1731306106.0270514,821.9860119116674,795.6022613549766,869.4798612744282,801.5604649810313
1731306106.0272782,820.5269256428603,798.7172908743872,891.6335432498939,803.8697606206222
1731306106.028047,820.9251453165342,801.4384877525206,920.4938884608663,805.736104901476
1731306106.0283208,823.5558233563647,803.0275213022129,945.5626845206355,808.0214512525141
1731306106.032227,825.2549708937104,802.9223024396531,958.3332664319397,809.2516772437758
1731306106.0361333,821.719894191203,801.2607869802591,957.9667428425431,806.6839608661742
1731306106.0400395,811.6142596645826,798.9128849570117,949.9060872704451,799.055886284965
1731306106.0426412,798.6771167021964,796.8713721550488,940.4255996420794,788.5663158346397
1731306106.043946,789.6734630178267,795.551543840286,932.8391004540737,780.1294605360257
1731306106.046912,789.6953326310864,794.722094835096,927.3131720146613,778.2422579304572
1731306106.0478525,798.652564414827,794.1366982146197,922.621153545525,783.9233909803414
1731306106.0517583,811.674567403041,794.1348459130065,917.7246048162629,794.1913951934163
1731306106.0556648,822.8053157411877,795.4756775433458,912.3214705428949,804.3823662089127
1731306106.0582309,828.8795934531115,798.5253444779884,906.6170265988732,811.2378424278708
1731306106.059571,830.7367952663963,802.6644556351848,900.9069443057194,814.3135419187931
1731306106.0621655,831.3259968118183,806.5442258282903,895.3411098662024,815.0818790021234
1731306106.0634773,832.6410586658925,808.8990823637878,889.9130346690731,815.1369310056805
1731306106.0657768,834.0695687701404,809.1152498491931,884.5529535159869,815.1839662836462
1731306106.0673835,833.3891133951345,807.1861012267416,879.2073546190891,815.1918797663299
1731306106.0712898,829.4002436689572,803.4264009927417,873.8629938543759,814.9724277983131
1731306106.0738206,823.7577773532581,798.4504060910141,868.5320402795493,814.5007590572967
1731306106.075196,820.1742873482053,793.360793400915,863.2297922114539,813.8938300638513
1731306106.0791025,821.470123479638,789.6220589071464,857.9631266810356,813.2767617504707
1731306106.0830088,826.9765412175491,788.3544668095291,852.7307974004159,812.7065904301776
1731306106.0846417,832.645613801113,789.5266809878233,847.5286666678998,812.1775804474447
1731306106.086915,833.9493046162783,791.8642074247836,842.3537988951509,811.6612810988995
1731306106.0894103,829.3223178230244,793.7314679950622,837.2054623560826,811.1374659525568
1731306106.0908213,821.5116475547528,794.2939898324933,832.0840694027629,810.6021389939091
1731306106.0947275,815.8532721440129,793.9275319743373,826.9897971932246,810.0607842736831
1731306106.0970528,816.6951919102938,793.5241050650601,821.9220023368583,809.519524213293
1731306106.0986338,824.3687576064472,793.40492595521,816.8796951550569,808.9809144652647
1731306106.10254,834.7184178699699,792.9423226766799,811.8626721713697,808.4443627785456
1731306106.1035063,841.6043284364242,791.3159315444145,806.8723385263501,807.9082749220426
1731306106.105,840.8497419244627,788.7005771513627,801.9109369465529,807.3716025534357
1731306106.1064465,832.9356073707089,786.6620708116236,796.9785349054707,806.8341668511705
1731306106.1103525,822.3935319269565,787.1730279252666,792.0693144631784,806.2962532908317
1731306106.1142588,814.3433669205106,790.9605741472543,787.1715969179879,805.7581457824037
1731306106.1181653,811.090856200062,796.6642859156929,782.2764322879542,805.2199258583355
1731306106.12059,811.5099170382694,801.6847803737439,777.3935733219915,804.6815126251852
1731306106.1220715,813.0384931729898,804.0908012030905,772.5614023437485,804.1427837301213
1731306106.1223712,813.8738702857612,803.9657057147064,767.8283777850336,803.6036570593685
1731306106.1259778,813.6551506853374,803.1091858698055,763.1952102431651,803.0641015126522
1731306106.129884,812.8795046791648,803.5256723792521,758.5497414180263,802.524101476102
1731306106.13194,812.1064305906344,806.0969140534415,753.6795158793317,801.9836135601696
1731306106.1337905,811.5739595266275,810.374870448632,748.4468461882918,801.4425494012795
1731306106.1361797,811.2336362800343,815.2106496025593,743.0874870573173,800.9008081781956
1731306106.1376965,810.9442622652688,819.3302632695478,738.3628822412242,800.3583567116472
1731306106.1412358,810.6130226807273,821.4856810017961,735.1509551400512,799.8153025328699
1731306106.1416028,810.225882836394,820.60368588737,733.3271506805033,799.2718522959854
1731306106.145509,809.8114184230462,816.3515393049222,730.6258664746712,798.7280708479507
1731306106.1494153,809.3986410556688,809.7735118360876,723.1268364927736,798.1835289747912
1731306106.1517694,808.9985970806871,803.1811497824934,708.8624912942971,797.6372030363416
1731306106.1533215,808.6076831265569,799.0169406500037,693.5885734862389,797.088104650454
1731306106.157228,808.2182246473012,798.4344410229318,693.648667308502,796.536692518057
1731306106.1601007,807.8255665794022,800.7273958692089,729.2969863238051,795.9860516161498
1731306106.1611342,807.4292344110617,804.0617099188371,808.4722285305584,795.440817475565
1731306106.1650405,807.0308211296416,806.8758016785112,913.7264854395838,794.9024185180508
1731306106.1668274,806.6317871941542,808.8109633414177,1008.4253526490809,794.3626686345282
1731306106.167359,806.2325978037122,810.5060302923271,1061.1295146890589,793.8028361738791
1731306106.1689467,805.8329741069577,812.5847719254065,1065.3747366171774,793.2068080502024
1731306106.172853,805.4324663700987,814.831026567155,1034.7245485664716,792.5879122319428
1731306106.1767592,805.0308075028623,816.3217088775735,980.6171564780581,792.0085320103465
1731306106.178965,804.6279512453783,816.3527953747329,900.8003074580554,791.5544576602973
1731306106.1806655,804.2239506886241,815.1919049857815,793.9342918416594,791.2412814032706
1731306106.1829488,803.8188437099562,813.8241881827505,683.8328829411322,790.8989569387618
1731306106.1845715,803.4126129564013,812.8631194654403,620.9031164213175,790.1739732995264
1731306106.188478,803.0052037465977,811.6926667460975,648.8641964800447,788.8038485531574
1731306106.1923842,802.5965573818397,808.7538652052327,763.0178990802652,787.1318347758001
1731306106.1962907,802.1866314663067,802.8166204962022,901.6319235343041,786.449731404276
1731306106.1978302,801.7754002833425,794.1685811024558,984.6549669276585,788.496189938631
1731306106.1985383,801.3628405007024,784.7627734201026,969.1037810927237,793.8848984645352
1731306106.200197,800.9489124319916,777.2598992422024,873.7678976722892,800.5803216435967
1731306106.201715,800.5335515379809,773.6684587183325,754.9940686678342,804.4510133652176
1731306106.2041032,800.1166869526394,774.3799124198453,660.6710070083108,802.4394393200087
1731306106.2080095,799.6982914837906,778.0220373316415,605.7184495012267,795.7819791122339
1731306106.2119155,799.2784325276243,782.1519794119163,584.9809231203793,789.8117042732719
1731306106.2141285,798.8572533500495,784.5054594191165,598.8900477194956,789.9313665097842
1731306106.215822,798.4348212654826,784.2133951796247,656.8689556497741,797.2125432232169
1731306106.2166948,798.0108872834609,782.2203500940869,753.6308963125945,807.5568648623117
1731306106.2197282,797.5847888746113,780.4701209799952,849.8704317280118,815.0278907703918
1731306106.2236345,797.1558267798389,780.3159557072214,889.0124965125405,816.2893236688436
1731306106.2275407,796.7241972717682,781.3895167524046,842.8285409924066,812.489644774546
1731306106.229718,796.2918631423759,781.9546685736384,742.3189520770087,807.5147438285102
1731306106.231447,795.8620210716276,780.5500940312586,657.6378954786243,804.5701975460736
1731306106.2353537,795.4360930090809,777.5354256414854,638.3469514570552,803.996115325868
1731306106.2355597,795.009377468389,775.1385259458051,667.0265255073092,803.7522359958682
1731306106.2366023,794.5700485277291,775.8447243997296,672.7361152040488,801.7482672755926
1731306106.2392595,794.1078408604702,780.4063408178048,598.3080803435844,797.9355958292658
1731306106.243166,793.6340050742846,787.1257693897599,463.2188885550842,794.4947071353685
1731306106.2453077,793.2026611308916,793.0288328337449,361.4102866498805,794.002547348773
1731306106.2470722,792.9172413751755,795.9751717906687,388.3669461993236,797.0396430165328
1731306106.2509785,792.9221366209288,796.0083944156976,557.8227331485701,801.2467554976232
1731306106.2544246,793.4013728976865,794.9511670072395,783.5516732856968,802.8378427868136
1731306106.2548847,794.5702895016217,794.7258973136111,946.5598230549105,799.5405782802005
1731306106.258791,796.5710800168105,795.8388690639631,990.2118726962108,792.4945916691158
1731306106.2608976,799.2338771960677,797.1811362403027,958.6102996723984,785.3284296584684
1731306106.2626972,801.8884314636642,797.1460726758182,944.748687160572,781.1426291630713
1731306106.2666037,803.527877510469,795.0521944761774,997.6672404627066,780.1188362788505
1731306106.2705095,803.3785063981188,791.758316462986,1074.6257459703656,779.8853065462101
1731306106.2714896,801.5087624291793,789.1091790208496,1081.6639189223506,778.1310252728312
1731306106.2732892,798.9621961787408,788.7238027475138,964.7009311579211,774.9119574475568
1731306106.2744162,797.2039958106009,790.9724558795681,767.794802619654,772.5481840991705
1731306106.2764874,797.1934704083627,794.7335165349955,604.581544326659,773.3241637734405
1731306106.2783225,798.7390643964031,798.0379516790559,565.9325737746703,777.1325945474763
1731306106.2822287,800.6783834761409,799.2498583627112,644.3739409042682,781.1525692720334
1731306106.286135,801.851840540037,798.094053134233,743.180980813946,781.8739386762015
1731306106.2900412,802.163417559722,795.829299633627,763.7250058915776,777.843914399134
1731306106.2920773,802.8143046883505,794.367961532796,693.039405456819,770.9421785735107
1731306106.292154,805.3643516701853,794.9178488747625,611.8327967919229,765.1511034162545
1731306106.2939477,810.2644139629208,797.1340043439369,616.578550623303,763.7217754001678
1731306106.2978537,816.0677030478754,799.4044247621173,729.582277009428,766.8542580642215
1731306106.30176,820.0936528935364,800.0225524706017,879.983273060462,771.5986555637053
1731306106.3056662,820.1784500698274,798.3417988166455,968.3905657955338,773.9799972804349
1731306106.3063767,816.2478575267681,795.0926485535192,949.7699917581277,771.707730239049
1731306106.3076668,810.5190400681705,791.7580231035266,859.4585513736096,765.5349846180511
1731306106.3095725,806.096361392888,789.6141400915681,768.5171027052622,758.5014034546178
1731306106.3110187,804.8813433412496,789.1793344685739,719.9548777628174,753.8453655091593
1731306106.3134787,806.3109858359122,790.3489547050275,704.8189250062853,753.1147324047687
1731306106.3173852,807.9854962600268,792.8956061750673,689.5442319394643,755.6190564544131
1731306106.3212914,807.8356965734828,796.7721763046446,657.06716807181,759.3382263848503
1731306106.3232565,806.0724718949206,801.9177838279893,619.2660965367435,762.430635150423
1731306106.3251977,805.11586652925,807.7855199116988,594.1715213521611,764.1948159237928
1731306106.329104,807.3775754959777,813.1311747813827,578.1088098110872,764.9778964233876
1731306106.3298836,812.7579767292514,816.4093616649866,545.5711295911526,765.4699627926611
1731306106.3330102,818.0972224416129,816.564457230273,478.7994830234308,766.124917212694
1731306106.3369164,819.2031983810858,813.6157295229641,396.78753166003503,767.027024433965
1731306106.3388462,813.9678188466188,808.6051532507611,351.96188184360733,768.0540780602208
1731306106.3408227,804.2358088022411,803.0061869927747,393.8500181937547,769.0731524081378
1731306106.3412642,794.9972297189867,798.0470977381648,531.4250135819202,770.0303377497626
1731306106.3447287,791.3380854274592,794.3262363556229,726.4432167596309,770.9395817909536
1731306106.3486352,795.1532913520867,791.8062105907225,919.3550629940141,771.8353786836866
1731306106.3487482,803.8937691698817,790.0750332566822,1061.0231069610263,772.7395588863764
1731306106.3525417,812.2985371002213,788.7049238384084,1126.4067486384802,773.6549162340602
1731306106.354436,815.938961579326,787.533976583967,1111.9883707483223,774.5743606239283
1731306106.356448,814.0287323247429,786.747401659057,1033.5621452964256,775.4910277822036
1731306106.3603542,809.4879081099049,786.7655617288812,928.9208696119032,776.4024842745412
1731306106.3642604,806.3587459740261,788.0330414775339,851.0417043787593,777.3097671510134
1731306106.3676133,806.678577135448,790.7465474786956,840.6109076512162,778.2148033274715
1731306106.3681667,809.2077682289896,794.5203320702943,892.2425219216905,779.1187450683606
1731306106.3700256,810.8211942503111,798.1639272283454,946.6630324415978,780.0217398236113
1731306106.3720727,809.2630575053942,799.9472967332124,926.8016922868316,780.923461240291
1731306106.3759792,805.0154475994308,798.5197250577816,798.0759956279309,781.8236358056799
1731306106.3761516,800.8822999818675,794.0155535855783,606.2954680008406,782.7222370016784
1731306106.3798854,799.7602168879675,788.4346900957185,457.37528105371,783.6194116751097
1731306106.3837917,802.453316334361,784.7205658285342,446.8045171514393,784.5153341744913
1731306106.3856156,807.2288376058199,784.9323627389497,589.8227560037393,785.410122899721
1731306106.3864777,811.2992996329612,788.7319517095816,808.4002628727318,786.3038473902959
1731306106.387698,812.8655379969175,793.3584423762453,988.9443399038555,787.1965860854781
1731306106.3916044,812.0747864383758,795.2870214619195,1066.187070850869,788.0884730836776
1731306106.395511,810.3698069764174,792.5231666199994,1064.3553841546884,788.9796794115243
1731306106.3994167,809.0922684539064,785.9159569334545,1062.045817061663,789.8703109786419
1731306106.4012053,808.6139200725138,778.5203981337023,1114.1437896783484,790.7602825482227
1731306106.4033232,808.5398758777292,773.4842033164375,1201.767415941465,791.649318359716
1731306106.4053426,808.5265634378891,772.035797804238,1253.598173478901,792.537236560266
1731306106.4072294,808.8417966032175,773.0053616780943,1215.038047739627,793.4244726742984
1731306106.411039,810.1217102713232,774.0682550173326,1098.6567059355637,794.3123961596808
1731306106.4111357,812.4975978912394,773.6025204148644,969.5254536456312,795.2026869717954
1731306106.415042,814.9034330114595,771.7292478916328,881.6445079710122,796.0954335605071
1731306106.416795,815.4353747311507,769.9404348502055,827.9304166091046,796.9870220822429
1731306106.4189482,812.837122330178,769.9104939414608,753.5270213666145,797.8706081221387
1731306106.4228544,807.9954706932486,772.5506401369852,621.8748083583582,798.7419105430064
1731306106.4242074,803.9178822658267,777.795303075474,470.182153376455,799.6089652329443
1731306106.426761,803.7688585957214,784.8060074232682,395.8990660784596,800.4969149879498
1731306106.4306672,808.3762042733921,792.1779948548985,477.6321862661466,801.4342953642423
1731306106.4323847,815.3725279042421,798.2377184653735,698.0169792531091,802.41622990277
1731306106.4345734,820.8627621907685,801.7006735480086,941.0778801143114,803.3674792651394
1731306106.4384797,822.2838405223575,802.4391578742933,1073.2625595622217,804.1590879414022
1731306106.442386,820.0633041486676,801.6297612372579,1042.1303794369567,804.7262122922979
1731306106.443072,816.8078223609009,800.9200207797642,910.1901306323447,805.2521690437064
1731306106.4459264,814.9775381793436,801.1912788777645,798.6628831861567,806.2454721706005
1731306106.4462922,815.2053661007166,801.9573393117264,792.2706731824551,808.2758328575226
1731306106.4479744,816.491426855659,801.8945298487755,883.079735147549,811.3617723263541
1731306106.4501984,817.5572461806252,799.9931476999725,991.1527110846104,814.5213899616995
1731306106.454105,817.8460977052589,796.3237907296034,1034.2256353366788,816.2185453297074
1731306106.458011,817.5436734079493,791.8483219661704,984.9687184670781,815.6714449989994
1731306106.4619172,817.0800743190821,787.6057559972764,875.4641338074648,813.8146760362141
1731306106.461937,816.735162755169,784.0932264474447,758.7271515615387,812.700511066029
1731306106.4635642,816.5537451399036,781.3112452188228,669.4341929553271,813.6286783612139
1731306106.4658234,816.4530399124443,779.1939385565266,615.3273546288533,815.7064686190558
1731306106.46973,816.3476328477501,777.834526397496,594.3961408470676,816.3042385817483
1731306106.4736362,816.2045190322385,777.3204983579883,609.8261702966654,813.1838543309974
1731306106.4775424,816.0339124772602,777.5113932928193,664.9360417064131,806.5372266578903
1731306106.479154,815.8582578472481,778.0723883305981,747.5751513380196,799.1828789093912
1731306106.4808016,815.6912575850723,778.6872985743969,826.4112558057055,794.6976360303985
1731306106.4808135,815.5343156215665,779.2042943404088,867.9136642084932,794.9593954375467
1731306106.481449,815.3826915664264,779.6239211964524,859.5097823425091,799.0290664793438
1731306106.485355,815.231984110596,780.0076309459331,816.829371723185,804.1855620086651
1731306106.4892612,815.0807051304321,780.4033001394486,768.6940026441881,808.1780423965146
1731306106.4931674,814.9295651695166,780.8226386090536,735.6610090896427,810.7835597441104
1731306106.4947436,814.779791862878,781.2543835552507,722.8791606040509,813.379028268357
1731306106.4970737,814.6320833996016,781.6844249713633,730.2101071505882,816.9945209073751
1731306106.4996665,814.4864888458382,782.1062683217101,761.8913529252662,820.7188585283891
1731306106.50098,814.3427616272149,782.5207847381777,819.1862277334202,822.0771883405055
1731306106.5048862,814.2006955142116,782.9315057313078,882.8498359808516,819.2131737555547
1731306106.5087926,814.060243148011,783.3409405342859,910.4354027798357,812.9521326527523
1731306106.5103335,813.9214670346323,783.7496332916816,862.1243609409865,806.7504204017857
1731306106.512699,813.7844491475136,784.156986752813,737.1178365033438,804.321239729913
1731306106.5157013,813.6492392201907,784.5623304810807,585.443208669587,806.8033232146806
1731306106.5166051,813.5158519760873,784.965426627418,478.7423449692219,811.8355417407283
1731306106.518531,813.3842871231498,785.3664178393832,461.8387326652721,815.376736744946
1731306106.5205114,813.2545466403894,785.7655678811366,526.8591545090435,814.8818267690913
1731306106.5244176,813.1266401001744,786.1630752943436,632.0764867693767,811.3303660834247
1731306106.5259233,813.0005815239392,786.5590351036337,745.2069757168646,808.447607508723
1731306106.528324,812.876384565507,786.9534882957228,866.674444823227,809.625687843885
1731306106.53223,812.7540599882344,787.3464779624278,1008.8639448602383,814.9439990827547
1731306106.5361364,812.6336157088007,787.7380724195386,1155.0707514290825,820.7925859668583
1731306106.537396,812.5150579224156,788.1283584748782,1247.8739185798704,822.6265426951519
1731306106.5400426,812.398391995555,788.5174256446968,1230.15210157038,818.7434681602896
1731306106.541513,812.2836227051681,788.9053583159392,1105.6977875243088,811.9186062125667
1731306106.543949,812.1707540491935,789.292240869563,957.3946900943196,807.3629601463406
1731306106.5478554,812.0597889926655,789.6781692409855,893.2105862466627,808.5513850950144
1731306106.5505884,811.9507293525265,790.0632547805513,958.1957618500848,814.3590351027948
1731306106.5517616,811.843575834891,790.4476068074604,1090.2560542811552,819.9546779482789
1731306106.555668,811.73832814609,790.8312952163445,1166.3848106601572,820.8076297891313
1731306106.5562606,811.6349850878391,791.214323461471,1106.7880183118205,816.5353939990417
1731306106.557103,811.5335445655446,791.5966650293595,947.9304126644986,811.3439847110186
1731306106.559574,811.434003477534,791.9783935628875,817.1045234308264,810.5497287006675
1731306106.5634804,811.3363575401829,792.3598407914428,826.1034020344049,815.9711512450675
1731306106.5673866,811.2406012330332,792.7415892264889,974.834048165691,824.0986306035846
1731306106.5712929,811.1467281072165,793.1240911173829,1149.1021528666333,828.7614439155813
1731306106.5726924,811.0547315031014,793.5069719632089,1214.2856049659995,826.1803153009045
1731306106.5751257,810.9646052006804,793.8886126711095,1123.21051840325,818.133968937976
1731306106.5751991,810.8763429983368,794.2669873857944,947.7757132341375,810.5317252578641
1731306106.5791054,810.7899364418805,794.642204791177,814.0862525742546,808.670225473784
1731306106.583012,810.7053715808365,795.0193188027955,802.596392938424,813.2581768129467
1731306106.5854757,810.6226282052567,795.407681891794,896.3042537532735,820.4157601322909
1731306106.586918,810.541685991533,795.8132004582292,1010.0384121321965,825.2567346180191
1731306106.588282,810.4625378178109,796.2253524860888,1063.864716502237,825.7071513039747
1731306106.5908244,810.3852004341485,796.6109460888617,1035.0757686411214,823.393010803602
1731306106.5939903,810.3097034991403,796.9328012503902,953.4675114105121,821.2303960387367
1731306106.5947306,810.2360442552548,797.1997730104662,858.6353382734761,820.137880973419
1731306106.5986369,810.1641281825628,797.5185555573279,766.0237026134065,817.8093040536737
1731306106.602543,810.0937633354,798.0791903263881,670.2989616048716,810.5672111465582
1731306106.6038718,810.0247878408982,799.0223763979278,573.1998451046322,796.7115660290309
1731306106.6064494,809.957321893867,800.2537789503054,499.76030446090533,778.6213817276267
1731306106.6103556,809.891943108435,801.4100367662148,482.61485505360497,761.9683497024103
1731306106.612855,809.8294286845727,802.1296090674329,530.3731777615183,752.6556751544282
1731306106.614262,809.7698646013993,802.4675395531124,614.0998764245517,753.6019589520405
1731306106.618168,809.7115771728509,803.0218340334764,687.3431213546576,763.3032614088338
1731306106.6194615,809.6512045509238,804.4951127864724,720.9637403959806,776.7953736566736
1731306106.6203632,809.5863164512259,806.9518267662899,720.8332009506413,788.3040427669025
1731306106.6220746,809.5201541715484,809.4509332020582,716.0727928705824,794.0965592521569
1731306106.6259809,809.4644130703563,810.5642918462632,733.9426767010463,793.9546298538477
1731306106.629887,809.433425993977,809.5511607686136,784.5818102497681,790.4283480538857
1731306106.6317198,809.4267964665894,807.2396338981717,861.846402097501,786.5112059310687
1731306106.6337934,809.4104065213563,805.6967770743175,949.3922162136985,783.6211877490468
1731306106.6350515,809.3212537802076,806.7157840480222,1023.0983143111708,781.4718775577734
1731306106.6376996,809.1207022745772,810.275913693067,1054.373204299283,779.5729472491214
1731306106.641606,808.8829769284572,814.3400003556037,1022.3804940110501,778.5145490455311
1731306106.645512,808.837064471047,816.2725811866915,930.5918094096294,779.584384854263
1731306106.6494184,809.2394698628367,814.7076893886417,811.2064966670594,783.1782406832664
1731306106.6505845,810.038942511373,810.2976863368302,707.974071835039,787.7610660620762
1731306106.6506412,810.5461889615195,804.8602000832556,649.3376839770497,790.5362886773969
1731306106.6533246,809.5630649648953,799.9019711363442,634.9618118022195,789.3449768387785
1731306106.6552503,806.2241104931712,795.8892731819958,644.821695160333,784.311449440685
1731306106.6572309,801.0337209262304,792.7105967365925,658.0742256618289,778.0213803049453
1731306106.661137,796.0381267270803,790.5974442828951,664.5809524550116,774.0406626276796
1731306106.6650436,793.6649305134019,790.4459012965432,664.4999772766165,774.6443646504356
1731306106.666231,795.069553843784,793.1572787948397,662.1084984615434,779.2361788327521
1731306106.6689498,799.4095351713145,798.5741069584458,660.7141417350721,784.6682929356323
1731306106.669449,804.6394865272363,805.010492854821,661.1191564777176,787.409448651586
1731306106.672856,809.0192753361258,809.9395595107243,662.5405593052652,786.0184052116373
1731306106.6767623,811.9633832321551,811.4449667026634,664.0009622136014,781.9792727879742
1731306106.6806686,813.6491875853217,809.3510083546769,665.0494260212349,778.2214817732437
1731306106.6818206,814.0811518959299,805.1549949832216,665.7428737818706,776.5951069319843
1731306106.6845748,812.7642655905188,800.865810142371,666.3209462469379,776.4542283465901
1731306106.688314,809.370784262992,797.7206532241655,666.9521414022608,775.5038954917478
1731306106.688481,804.6420688340633,795.7139976523531,667.6691767280569,772.0972480429775
1731306106.690138,800.421214892177,794.0472684832159,668.4260564469381,766.9518208696255
1731306106.692387,798.5004368304313,791.873636803181,669.1717847651131,762.7747527994546
1731306106.6962936,799.1517609352386,788.7368558032839,669.8851740973857,762.070155804038
1731306106.6974103,800.6916745337815,784.6638551062553,670.5711913627385,764.9901181894537
1731306106.7002,800.6979295547928,780.2166935356408,671.2430747501131,769.1456953537277
1731306106.7041063,798.0800199550146,776.5838702211864,671.909521450901,771.6417434735525
1731306106.7071788,794.3061480843475,775.4073087738944,672.5720398873914,771.562427167701
1731306106.7080126,792.591098403442,778.0977156885185,673.2282560222478,770.6073445077333
1731306106.7119188,795.470885465112,784.9016589139055,673.875631249561,771.2474824022743
1731306106.713,802.6087393236302,794.3802911824948,674.5130421917899,774.1614577430813
1731306106.715825,810.6332305563495,803.782212408544,675.1406595747239,777.4456923051057
1731306106.719731,815.2528110836113,810.1767519683578,675.7595371443372,778.3652336577379
1731306106.7236376,814.092970830026,811.6880723959309,676.3715397511204,775.9565208520734
1731306106.7250252,808.1599632870849,808.1402835520081,676.9789993231246,772.0432764493214
1731306106.7260437,800.950025450364,800.8727701627629,677.5831203998985,769.7710743835653
1731306106.7275438,796.0068807488734,792.0359189656963,678.1813956387907,770.9763489142096
1731306106.7285898,794.7678291610342,783.896280915444,678.7666341745039,774.6183586033524
1731306106.73145,796.1620353333262,778.4329076787201,679.3314540043982,777.556538774814
1731306106.7353563,798.0463921162564,777.0852906254046,679.8791282348108,777.0653066237637
1731306106.7392628,799.2043265183515,780.3654811577187,680.4334563787212,773.0963116514301
1731306106.7431693,800.2523258169327,787.341440105719,681.0319510940005,768.4666706125101
1731306106.7441795,802.7221403273927,795.4531539456302,681.6900543282259,766.7951670741247
1731306106.7449083,807.1622946232799,801.2352293860001,682.3499536033456,769.8270201838819
1731306106.747075,812.0312469521887,801.9931505254244,682.8679882578361,776.2460267015986
1731306106.7509816,814.5460063308689,797.5660270120086,683.1101692690788,782.8113274784092
1731306106.7548878,812.9340366341917,790.7958803339872,683.160411023964,786.8093659546745
1731306106.758794,808.2084157246132,785.952911915582,683.4883802858213,787.8878725684132
1731306106.7597694,803.869237491913,785.9401808066278,684.7796800668516,787.9344727032625
1731306106.7599125,803.6120858089046,790.3066494831119,687.2282001975781,789.1850223743336
1731306106.7627003,808.7381606981927,795.6603457206419,689.6086505405591,792.0647702573764
1731306106.7637732,817.176360705164,798.1889919325661,689.1944448198199,794.5099044543463
1731306106.7666066,824.7720040824822,796.301523794872,683.7878767998592,793.5049242955739
1731306106.7705128,827.8503191277916,791.3952298074763,675.7939122856392,787.8656196111908
1731306106.7744193,825.2649235472281,786.3720306444075,675.3742739000281,780.0436747568092
1731306106.7753592,818.6775627686955,783.3188368473508,697.6390193861414,775.0923644112903
1731306106.7783256,811.1651015074151,782.2491903001542,751.8738804197919,777.0646703243794
1731306106.7822318,805.3542464403054,781.706753924903,829.6732592410804,785.5000337979726
1731306106.7826378,802.3752164415971,780.4170311695268,904.2987987227981,795.0566239639563
1731306106.786138,802.0736623052927,778.4415701667918,944.8459080341784,798.9934998262312
1731306106.7900443,803.8887627369504,776.9546233053842,933.0891371349885,793.9493389097506
1731306106.7909489,807.4094112529647,777.0735066961275,868.7646883626604,782.2421877400127
1731306106.7939506,812.124867332077,778.8953981796809,764.1183235424282,769.9150224285798
1731306106.7948,816.8242156404457,781.4889849694591,640.1569236054352,762.2241963534075
1731306106.7978568,819.6084770371208,783.6370329015646,529.4149273342023,760.2038758231486
1731306106.8015027,818.9929218053219,784.6016206088527,474.18258038292595,760.8215483432971
1731306106.8017633,815.4028411877192,784.4379345717783,508.76491324693507,760.2096396935692
1731306106.8056693,811.5931197669789,783.9056271915788,634.3853927315847,757.0942750314518
1731306106.8065386,811.1054131207641,784.180993431385,811.8645937715446,753.643404087397
1731306106.8095756,815.5782075133374,786.3717784297556,985.0624396197774,753.2453581524923
1731306106.8134818,823.0490909595849,790.814832074062,1115.8943544030767,757.2710991815479
1731306106.8173883,828.9065922388365,796.508598803232,1197.1572646564787,763.6552178871332
1731306106.820367,829.0439139965622,801.2964855614487,1233.7458809806822,768.5699918313832
1731306106.8212943,822.8610955532212,803.0103845885557,1220.3154729390883,769.825779483937
1731306106.8221283,813.7956233387623,800.9161631179026,1148.2557558561248,769.0662200843885
1731306106.8252008,807.0037768331563,796.3366927903747,1037.1938556777588,770.7049287963356
1731306106.829107,805.973988268967,791.8376847867843,948.5809693864052,778.2553152560054
1731306106.8296874,810.5082659959342,789.4971228914744,949.2926733034044,791.0064631814455
1731306106.8330133,817.3205308237707,789.5724757721761,1047.7170120629603,803.8908616253055
1731306106.8369195,822.5543582531304,790.6157639651071,1166.179549927766,810.8771019454389
1731306106.837718,824.2869477828988,790.9333739122583,1191.0481681194065,809.3614221924852
1731306106.8392322,823.325280164565,790.1774089856707,1069.2149072623533,802.1722202658099
1731306106.8408258,821.9741895297994,789.7235004860256,866.5264740632898,795.6176787271635
1731306106.844732,821.9138813543642,791.4925350140244,727.2924029070882,795.0304457134746
1731306106.8486383,822.8664352917663,796.2112094553189,759.8147936734149,801.128836062444
1731306106.8525443,823.0279178603631,802.6268956515014,943.9745893900284,809.8195166523633
1731306106.8533075,820.8314531352552,808.3800727543506,1144.0853702361305,815.426058343964
1731306106.856451,816.5541765643001,811.7712210527369,1219.6782340265042,814.8256895780197
1731306106.8580968,812.4159921157616,812.8809012108455,1139.3612824439156,809.4747634459761
1731306106.8603573,811.0369069258339,813.1377281348655,999.6736076894128,804.0298622973743
1731306106.8642635,813.4345517453261,813.8482512555112,935.6693596596135,802.8113226389173
1731306106.864575,818.1131983912109,815.0561427029138,1004.8203539805714,806.8320777489083
1731306106.8681698,821.9704137661435,815.6602680987652,1145.106363599598,813.5179517151497
1731306106.8688974,822.3881609725889,814.5211839573097,1237.8824026610064,819.0913839733491
1731306106.872076,818.9887473989672,811.4738335256701,1213.2532560295522,821.5555859173218
1731306106.8759823,813.7768392906244,807.3943284841024,1103.2152659163648,821.8872273953482
1731306106.8769617,809.6152793237693,803.401749871812,1000.1285475886962,822.6331195674261
1731306106.8798883,808.2616274616992,800.0244194632221,964.2328841459743,825.2597632636412
1731306106.8837948,809.4441747550317,797.1036233050338,967.2258700862385,828.5678270536342
1731306106.8844874,811.4676895983056,794.4571405644724,923.6005022976528,829.5379219064561
1731306106.887701,812.5876711218496,792.568394275508,780.5751322442754,825.9350629787808
1731306106.8916073,812.0319615718945,792.4995207878267,583.1544596722495,818.5030383938378
1731306106.8955138,810.1592541484858,794.9598214017415,451.91294581786326,810.8304022880695
1731306106.8958263,807.9593038516986,799.3493229047597,488.9531983692803,806.8258044037497
1731306106.89942,806.3333114413819,803.7531167221738,691.6715547357087,807.7554045457013
1731306106.899462,805.5431646736749,806.0446032834386,947.2265885255538,811.2881498362422
1731306106.900077,805.1576599889786,805.2187522917187,1111.819431181008,813.4420108383209
1731306106.9033265,804.5942824929496,801.853914868439,1110.5745166869558,811.9112091339871
1731306106.9072323,803.8607505007723,797.4252818408065,981.7027946144934,807.999340106454
1731306106.9111388,803.77526890414,793.2427572457948,836.6452451530974,805.4542845011579
1731306106.9146912,805.2862148458864,790.0220968565955,773.2305885324201,807.1111519322086
1731306106.915045,808.3557901709336,788.3079764995562,810.4358580948601,812.1914089727653
1731306106.9156668,811.4413024360018,788.9846695579124,889.7603769777087,816.6396489959421
1731306106.9189513,812.2726392777952,792.9863554868933,932.058678726749,816.3288531772102
1731306106.9228575,809.5427045121137,800.2285749644994,897.489586606572,810.4982794193769
1731306106.9267638,804.1966611124881,808.7894197577847,802.6637236035706,802.5371782106255
1731306106.93067,799.129414698908,815.3840702605968,692.5037547805462,797.4266343662039
1731306106.9312563,797.3121404081105,817.1066416405407,601.899371183838,797.9234393023693
1731306106.933556,799.6811243560643,813.252734507093,540.9430374669864,802.5695398087324
1731306106.9343493,804.402906616129,805.8458588495067,505.7897154949766,807.0641440160554
1731306106.9345765,808.1263638328803,798.4291652180814,492.4700754817198,807.802044749155
1731306106.9384828,808.3246013021869,793.9782759014652,497.498095151396,804.6779064741357
1731306106.942389,804.9629393851053,793.4252212312917,512.8066270547831,800.8905910992058
1731306106.9462953,800.2216588792135,795.7412475510909,530.7541561312349,799.9585943938895
1731306106.9468462,796.5848458798513,799.2236117418763,557.1105348257483,802.5223669385142
1731306106.9502015,795.0045595934766,802.7104800101599,611.29582960384,805.7476217120765
1731306106.9524207,794.7252202062876,805.772382463963,703.1330455458689,805.9135981809695
1731306106.9541078,794.7067384543432,808.1126186934272,807.1672825540687,801.9503526596128
1731306106.958014,795.0088860448355,809.1559777313605,869.3059180357195,796.8085052509807
1731306106.9619205,796.6195866083904,808.3695853195446,851.5787442013807,795.3959283848789
1731306106.962436,799.9147024384231,805.8727287870124,775.5976436996375,800.7155150788382
1731306106.9658265,803.4607691134489,802.5414355784868,716.0789975549183,811.2833483243716
1731306106.9692366,804.6488474500275,799.4447833645089,740.2606371506988,821.8313505260209
1731306106.9697328,801.8722363438853,797.2543993141488,845.5029546650744,826.7624644378155
1731306106.9712856,796.326359441577,796.2875105851045,956.349058491019,823.8394159078516
1731306106.9736392,791.5940823105203,797.0541117842033,989.4828688642473,815.4970657320487
1731306106.9775455,791.0380591902237,800.4851195524316,928.7032922361427,806.9099024398752
1731306106.9780257,795.0769112914168,807.2495069783195,838.0413850611775,802.2851062500125
1731306106.9814515,800.7522492985987,816.5757945910672,797.877940592262,802.1496629223402
1731306106.985358,804.1032123169808,825.7598541965606,824.6692731716421,803.6340630365412
1731306106.9892642,803.3676381764759,831.1869418704359,854.245094123477,803.3842290575828
1731306106.9901502,800.2712737081008,830.4098096412202,808.4328868430625,800.6000966626457
1731306106.9931705,798.3959447488674,823.7714919391399,681.9349770434364,797.6201388397653
1731306106.9936154,800.16924909796,814.2780911723045,563.1487787729252,797.5843194722928
1731306106.9970767,805.0284356852372,805.7866725453048,563.4477900904088,801.2337308389059
1731306107.000983,810.068573271713,800.8799994389277,716.6043230062419,805.6754548025555
1731306107.0041242,812.3785986304606,799.9121427709821,940.6704753623828,806.2966385820555
1731306107.0048892,811.1494857142707,801.5924850515169,1099.6525356716877,800.3610586186048
1731306107.0087955,808.1286084535991,804.2139357310101,1112.3220462930449,789.4049594960278
1731306107.009015,806.3318465960546,806.3851959073673,1012.9641416523755,778.502213979166
1731306107.009205,808.0028089744511,806.9940079925373,912.2235055402093,772.9127930073842
1731306107.012702,813.0904654876271,805.0615441609658,895.4750171527364,774.5708894303106
1731306107.0166082,819.1209739270747,800.1116850453011,950.4908121073507,780.9177774171675
1731306107.0205145,822.5979634378597,792.8107903379122,987.5724931145343,786.8499503631066
1731306107.0244207,821.2323325254719,785.0477672323727,930.8403644028016,788.311258035906
1731306107.0247953,815.6700530551561,779.059568319077,795.5434402556228,784.8775209050377
1731306107.0278797,809.416995122897,776.168106957633,679.8807266874588,779.4881875547513
1731306107.028327,806.6670051560578,776.1086477285519,677.6926088607858,775.76044865328
1731306107.0322332,809.3088773719909,777.4095767049885,790.3648753791939,775.2347470432065
1731306107.0361395,815.3283461391513,778.4355038748065,918.3217473287493,776.7661744116125
1731306107.0390117,820.0759272387537,778.3177079253933,942.5996676529663,778.247998202311
1731306107.0400455,819.6924800765581,777.2505304173526,826.7490290596386,778.8472207229231
1731306107.0403848,814.0704498956904,776.1360804335399,650.0785155097406,779.7150262865671
1731306107.043952,806.8718144903195,775.8872188018346,542.8552352250601,782.6760690925797
1731306107.0467446,802.4819519225812,776.7642320539989,579.7647555516612,788.1711118948908
1731306107.0478585,802.4586737236191,778.0750428645713,723.1675071411892,794.2913058814481
1731306107.0517647,804.5866131118842,778.469274090171,861.5437615226742,797.8325280755687
1731306107.055671,805.347458070688,776.7865413178413,904.1337901014547,796.699939203257
1731306107.0559745,803.4514499295292,772.9929826648614,847.3623544391799,791.8512005335177
1731306107.0595772,801.0801564333308,768.5085467307093,761.0688354605252,787.1126729394256
1731306107.0634837,801.702000611442,765.5477408530473,717.7382102600438,786.6519226316627
1731306107.0656092,806.5713948430339,765.8197656645083,733.65858569988,791.7208292106886
1731306107.0673895,813.1539907158831,769.4491627032636,769.4256606694039,799.1417426806333
1731306107.071296,816.8334406306323,774.8301201223719,777.2626083880998,803.0519461496814
1731306107.0715642,814.3593656400445,779.4702039195437,743.9642211146154,799.0822010187364
1731306107.0738988,806.2098954924353,781.2708513421487,692.005139439961,788.0588223505748
1731306107.0752022,796.1731950628173,779.537507934494,646.6430716638753,776.2356979366388
1731306107.0791085,788.7307381603489,775.2672891608287,607.9045498555824,771.392663181875
1731306107.0830147,786.3582689271782,770.630227455287,556.3647271379533,777.3271842540634
1731306107.084474,788.6278236906019,767.8674037768575,484.3374757268565,790.7914851423683
1731306107.0869212,793.3949111194296,768.1022137146618,417.8678362840683,803.3451886777865
1731306107.087154,798.7552154566508,770.7479398583188,405.1663322231093,806.9531435403804
1731306107.0908277,804.1012828291753,774.0049239519442,481.4519508721979,799.3077636575875
1731306107.0947337,809.6414298106506,776.2129747485101,642.1480226043461,785.0843741342478
1731306107.09864,815.1485242045487,777.0354327115222,845.0625912755465,772.4483486408534
1731306107.1025462,819.2797518010109,777.4666174734953,1033.8037558827148,767.6248389355139
1731306107.1027436,820.1786139883002,778.69236273237,1161.1473103677529,771.4850655238005
1731306107.103339,816.8826489154526,780.9332230930429,1201.7835019021657,780.161375801947
1731306107.1064525,810.3248602408935,783.3648257898355,1158.0680394262615,788.4891949671195
1731306107.108786,803.0090024209433,785.036262263773,1060.4320700390845,793.2973316067317
1731306107.1103587,797.5277651486621,785.6794742701597,955.4197387053719,794.4141356971936
1731306107.114265,795.0893190468275,785.5488160574871,881.4117474559464,793.5002107751003
1731306107.1181712,795.1837350960855,784.6381836758628,849.6044702029883,792.2963182013837
1731306107.118333,796.432087359687,782.3871648023749,846.3992394088554,791.6480289422861
1731306107.1220777,797.6764672346998,778.3900484393909,851.1671019278912,791.5451314881823
1731306107.1222036,798.4723445782662,773.3169813770378,851.0652676580106,791.6345854975474
1731306107.125984,798.9254275916768,768.8344563079058,843.9455500709438,791.6426305391811
1731306107.1298902,799.3008054169426,766.4306380085077,833.3788794615533,791.5025923312179
1731306107.1337965,799.7628612751829,766.3691628268625,823.0917026737504,791.2790937013481
1731306107.1339233,800.3288428207729,767.77973944681,814.5257100803699,791.0530081661732
1731306107.1377027,800.9416328174751,769.5474716889612,807.2322313263827,790.8617161321401
1731306107.1410685,801.5477506352549,771.025206060133,800.2280196394694,790.7005561465481
1731306107.141609,802.1286903492194,772.1309731595784,792.9136840301045,790.5497032771332
1731306107.1436734,802.6925641961063,773.0638749542287,785.2291524628042,790.3951922220255
1731306107.1455152,803.2538873701084,774.0151703848242,777.3836917800669,790.2342910261433
1731306107.1494217,803.8208908278959,775.0518638186351,769.5716376155063,790.0707917046839
1731306107.149513,804.3939952677229,776.1452408472802,761.8595649706423,789.9089098336344
1731306107.1533277,804.9700353288158,777.2432464498478,754.2176312890333,789.7503980919646
1731306107.157234,805.5463156582773,778.3162788537505,746.5932923477894,789.5948448190774
1731306107.159933,806.1220600610411,779.3628768340167,738.9571635973464,789.4411550011054
1731306107.1611402,806.6978344051616,780.3945930111742,731.3082593759602,789.2886140834593
1731306107.1650467,807.2744592239314,781.4213653961912,723.6585239160422,789.1371077503983
1731306107.1651027,807.8523830034834,782.4462411167358,716.0181601125042,788.9868416620021
1731306107.1689527,808.4316460299121,783.4674159543757,708.3904697520309,788.838021544313
1731306107.1728592,809.0121210486085,784.4821437579087,700.7739313675468,788.6907162756825
1731306107.1767654,809.5937209907713,785.4890067416761,693.1659470876284,788.5448850608751
1731306107.178561,810.1764589243104,786.488062641758,685.5648700283033,788.4004575866999
1731306107.178798,810.760403408592,787.4799873045121,677.9701803792524,788.2573860656059
1731306107.1806717,811.3456188694831,788.4653211876497,670.3822673798871,788.1156524902588
1731306107.1806924,811.9321490716491,789.4442313023017,662.8027764262213,787.9752536067452
1731306107.184578,812.5200475559395,790.4166434249239,655.2349119270701,787.8361889396391
1731306107.1884842,813.1094145589207,791.3824508294936,647.682007876125,787.6984601703091
1731306107.1923904,813.700381419655,792.3416254567937,640.1435557484815,787.5620730264386
1731306107.196282,814.2930093943124,793.294217624197,632.6111263054077,787.427027938855
1731306107.1962967,814.887153576272,794.2403079093764,625.0702546737889,787.2932972604649
1731306107.1976626,815.482451236119,795.179968446435,617.5136698487835,787.1608097669733
1731306107.2002027,816.0786154390603,796.1132524485395,609.9617339495044,787.0294793642639
1731306107.2041094,816.6760077720395,797.040202570778,602.469890374781,786.8992963715341
1731306107.2080157,817.2760248552489,797.9608623973601,595.0949970960579,786.7704308116024
1731306107.211872,817.8804891463834,798.8752821342558,587.8149177212797,786.6432121276907
1731306107.211922,818.4896095654939,799.7835176874063,580.456261874579,786.5178501521125
1731306107.2134483,819.0995802683317,800.6856262630279,572.7461545899814,786.3939596819952
1731306107.2158282,819.7028286284597,801.5816622177733,564.5773523688704,786.2703195264187
1731306107.2165277,820.2940663693465,802.4716764906489,556.3844327294851,786.1455275326207
1731306107.2197344,820.8810460746759,803.3557218630085,549.2318762215265,786.0197879527661
1731306107.223641,821.4906308750705,804.2338627007713,544.1048684944477,785.896734861545
1731306107.2274616,822.1551451867266,805.1061811913262,540.3794210294338,785.7826886499491
1731306107.2275467,822.8727170210782,805.9727671081168,534.6171648847805,785.6810212627777
1731306107.2314532,823.564842511309,806.8336845880394,521.8984002287079,785.5833330331449
1731306107.2353594,824.089426940907,807.6889337237513,501.2176772184008,785.466038052164
1731306107.235392,824.3647080788265,808.5384556854532,482.77984351965483,785.3044974650676
1731306107.2392657,824.5733793908013,809.3822314353223,490.0107966572117,785.1074361780115
1731306107.2430513,825.2638745167937,810.220454563617,549.115696537421,784.9485277380282
1731306107.2431722,827.0876330595539,811.0536252856988,670.0385881141284,784.9455053806755
1731306107.2470784,830.1405416024689,811.8823243671761,835.9860614765544,785.1476471228223
1731306107.2483356,833.4304458490108,812.7065710152772,1013.0742569134177,785.3739293509444
1731306107.250985,835.2470581753473,813.5251462481697,1167.9405929035306,785.1725370577409
1731306107.254257,834.4680543431801,814.3358195324238,1272.445407506153,784.1241985481083
1731306107.254891,831.6955579773236,815.1373474579268,1296.8013032340612,782.5125575218548
1731306107.2586412,829.031763027539,815.9326897963468,1214.2115910561938,781.8987919389356
1731306107.2587972,828.4919606383387,816.73038317285,1027.296882471093,784.714547157439
1731306107.2627034,830.2924727619704,817.5396330165703,792.243017141538,792.3977456601295
1731306107.2666097,832.4585226276981,818.3579304658165,605.1374744976613,803.2128932609123
1731306107.270516,832.2247270197547,819.159294307116,546.7414614848011,812.211383223943
1731306107.2731218,828.2375068146614,819.9011050966603,626.9522801324636,814.3919336030283
1731306107.274231,821.7959105407627,820.5643995811652,779.4764973733073,808.7370974798524
1731306107.2744222,816.0646931593861,821.213865553625,915.9022455968834,799.4082963350746
1731306107.2783284,813.8503461748055,822.0177779619722,993.5433004978416,792.7955105450579
1731306107.282235,815.6853087395866,823.1498216728263,1036.9591230847134,792.7860985002957
1731306107.283223,819.6364253691092,824.5713462969181,1096.0381365034248,798.133048654101
1731306107.2861412,822.8557901290033,825.866727581155,1184.5686756909224,804.0392022975958
1731306107.289821,823.6501818856245,826.3942427201933,1262.02899956446,806.5437408861085
1731306107.2900474,822.586161085485,825.7730167275025,1276.8975214059221,805.903011350433
1731306107.2919865,821.8579975300153,824.2735580756756,1225.1489375765375,805.9802856055135
1731306107.2939537,823.3439790812371,822.5818788128,1159.4160436799064,810.1374361994588
1731306107.29786,826.8022372145111,820.9851112602613,1134.4372714689298,817.3255975298451
1731306107.3017662,829.7407266263281,818.7658874622348,1143.8416079138817,822.1089219423412
1731306107.3054104,829.2793833820324,814.6018393186366,1118.8599214153235,818.9848936114194
1731306107.3056724,824.5900463428533,807.8349941616771,999.779242468293,807.4454133562951
1731306107.309579,817.8394782044843,799.4834819888072,813.1323505940164,793.3010204347006
1731306107.310851,812.7709695242087,791.9345668573196,672.7087131919677,784.8313929443476
1731306107.313485,812.0912042901687,787.4561107734686,691.2181412887827,786.7118654401905
1731306107.3173912,815.7611870343027,786.80267987754,877.5297016956952,796.5556800643601
1731306107.3181102,821.3472398015386,789.0709856615844,1115.1381541875828,806.7369437569372
1731306107.321,825.8504290973636,792.7113331301096,1247.8617029740376,809.9317808109389
1731306107.3212976,827.5092710709001,796.5599972743012,1202.0343968309644,804.1129482581866
1731306107.325204,826.4501655532282,799.9740070244405,1039.8447410756007,793.5009349772932
1731306107.32911,824.0256354207744,802.2752028931203,898.4383408979307,785.1913242093939
1731306107.329716,821.4612670838426,802.4608392638561,870.3262582720519,784.1942639741092
1731306107.3330164,818.8079521564115,799.7387359503828,931.3129154230775,790.3929485088689
1731306107.3365898,815.0543724900266,794.4176384352978,976.8460246452139,799.2387226970321
1731306107.3369226,809.408963778335,788.1852734618649,928.6835662505439,805.2684037592953
1731306107.340829,802.6176010383191,783.3474433218239,812.1292546883708,805.7115829680456
1731306107.3447351,796.8975810186638,781.5623950713792,734.58282185335,801.7233796588134
1731306107.3485808,794.2683166975361,782.9997512904001,787.6769562511142,796.7450380231049
1731306107.3486414,794.7146454298554,786.3913298942075,962.6045199207618,793.5909338877352
1731306107.3521795,795.9586014083617,789.7155363274628,1152.4158279788476,792.5761983775444
1731306107.3525476,795.1896544791673,790.9836081284051,1235.453243621097,791.9666836289576
1731306107.3529975,791.3389624547406,788.8602439404254,1165.4117038232562,790.1548942451188
1731306107.356454,786.0666100151295,783.1559187818505,994.5396763662458,787.6583958293338
1731306107.3603604,782.7763588338192,775.1557731805211,819.8618083819226,787.2219653026756
1731306107.3642666,784.4666257761738,767.4502100603248,707.4888944161997,791.7998481342244
1731306107.3674457,791.8509882544754,762.9323532410501,660.6171520184283,801.8884561160418
1731306107.3677692,802.7760596282042,763.1934578561197,648.7946502824851,814.3338688476513
1731306107.368173,813.1588940961475,767.2835670729116,658.0668619504729,823.8123406069599
1731306107.3720791,818.9615396323516,771.9369336289744,708.3173492295521,826.1980888363613
1731306107.3759854,818.2056981710905,773.4874524717535,824.4813109756057,821.3899925334536
1731306107.3798916,811.872010835039,770.3333296303049,997.7236876929363,813.3253800342361
1731306107.3833592,803.1023220975694,764.1293475596435,1179.5882239254968,807.0621125616461
1731306107.383798,795.3081593733738,758.6883230280725,1313.1843361871831,805.2527408172832
1731306107.3863103,790.600240778706,757.3503281557696,1367.2839274255175,806.7972206802003
1731306107.387704,789.5034184117818,760.7973108054032,1342.8225681136573,808.4760238246392
1731306107.387885,791.6184774257889,766.8485131517793,1256.1267178368294,807.8565357384805
1731306107.3916104,796.1308121365133,772.1109334675009,1125.0923276940541,804.9997367203231
1731306107.3955166,801.6182435817783,774.0055910414837,971.3117072883641,801.8550225139427
1731306107.398949,805.7436862862726,771.7436239479438,825.3482566731936,800.2258107422056
1731306107.3994231,805.8015100482504,766.0044721648696,718.552053900908,800.1618212235452
1731306107.4033294,800.2789288722848,758.1485822813673,665.6064143965914,800.0715298950528
1731306107.405175,790.4119380944662,749.8384674745795,657.003891285364,798.3650017657756
1731306107.4072356,780.323220848374,743.1052671783347,669.5655774028853,795.1368979490355
1731306107.411142,775.1782878074946,740.1869941505033,683.2716814286875,792.2814296529496
1731306107.4145386,778.2847445951958,742.6807784273155,689.827801001543,791.7593319817506
1731306107.415048,789.0118846999723,750.4591960083023,690.4655176863637,793.5286459674697
1731306107.4189544,802.9990199965204,761.3673563492691,689.5146143139883,795.1904714411991
1731306107.4227724,814.5798854102486,772.2292439243375,689.85708739271,793.9184845294868
1731306107.4228606,819.8164374924057,780.5539263358291,691.9274236197122,789.0239386752189
1731306107.4240398,818.1615221449199,785.6601342470613,694.8283056863311,782.7769638951065
1731306107.4267669,811.8423986754451,788.4085612526176,697.647562485938,778.6622121939178
1731306107.4301283,803.7766690077847,789.9241324789172,700.0352070914213,778.5951501816786
1731306107.4306731,795.85037581062,790.5092896705135,702.1007409243235,781.5330857971564
1731306107.4345794,788.8200764169904,789.6481842783942,704.0820863589911,784.6089010085647
1731306107.438486,783.4023775564598,786.8963677756338,706.1231003747722,785.6748364282234
1731306107.442392,780.9180322615666,782.6552952750724,708.2367366734111,784.9802510884044
1731306107.4429047,782.4609081054504,778.1278889715951,710.3710092205241,784.5669895671055
1731306107.445718,787.3913867155337,774.7003618150908,712.4779225965917,786.0168661294047
1731306107.4462984,792.9704996790819,773.4450732569069,714.5406068969132,788.62817539255
1731306107.4502046,795.9276698913235,774.974505310253,716.5655333302344,789.7034670025191
1731306107.4541109,794.7715631459026,779.3113908246265,718.5645850325968,786.7607322296507
1731306107.4576595,790.860815713555,785.6191693821442,720.5439706452484,779.7853726337752
1731306107.458017,787.3941889130679,792.2251442777839,722.5030067495824,771.6206235207082
1731306107.4613078,787.2287730996096,797.3632804140675,724.4379034633608,766.2131030549979
1731306107.461769,791.1269191496622,800.273117733275,726.3453356591699,766.158085887288
1731306107.4619234,797.4173934444323,801.6771509485711,728.2236911193008,771.3365323686178
1731306107.4658296,803.0543952455414,803.0945009466169,730.0725407748681,779.3576685027914
1731306107.469736,805.3928401472728,805.569776118597,731.8916762323357,787.1947303412219
1731306107.473642,803.7135687606557,808.9821127366839,733.6805631476163,792.8494765477806
1731306107.4768977,799.5998944682257,812.4820542558355,735.4383153314761,796.1418950035843
1731306107.4775486,795.8670946574789,815.4452053809667,737.1639092855764,798.2916581712309
1731306107.4806342,794.7273061748258,817.8837889726249,738.8563684481225,800.5605253349487
1731306107.4814548,796.4887373497505,819.9577933003376,740.5148197010817,802.8229135282545
1731306107.485361,799.7031650337486,821.2515427926429,742.1384600567173,803.2193860306156
1731306107.489267,802.5385777149249,820.7223353735142,743.726505932646,799.4874816877841
1731306107.4924872,804.2126897882997,817.4923958611901,745.2781670065215,791.1942917580769
1731306107.492547,805.3380781049216,811.7581504543035,746.7926473298544,780.9881781871075
1731306107.4931736,806.9610187360945,804.930583328711,748.2691578093944,773.4105260974897
1731306107.4970798,809.1764222239848,798.8274971350859,749.7069261119889,771.781449503317
1731306107.4994988,810.5913206616426,794.6232383370566,751.1051995988324,775.5841759501501
1731306107.500986,809.2432527436441,792.4660438784849,752.4632437456133,780.7196347215882
1731306107.5048923,804.3582775068459,791.9783771412275,753.7803399149068,782.6993958057383
1731306107.5080771,797.5411833909669,792.9621863762717,755.0557845375281,780.1963441236379
1731306107.5087986,792.2927881439458,795.5004062457016,756.2888896968188,775.8933016833279
1731306107.512705,791.954577956081,799.4244753973845,757.4789842271778,773.916738900919
1731306107.516611,797.4106816430434,803.8991786052759,758.6254146142137,776.2324706027292
1731306107.5183637,806.2181565194294,807.7450705233331,759.7275455050183,781.2741463079522
1731306107.5205176,813.9740645563379,810.2511512133786,760.784759980869,785.9032216494759
1731306107.5236669,817.1822774327565,811.6525730407367,761.7964597974402,788.6694430556798
1731306107.5244238,815.7007802494679,812.7854864860162,762.7620656922951,791.229145381393
1731306107.5274343,812.9275218359891,814.2483924240415,763.6810177519756,796.6184327370594
1731306107.52833,813.3491458913815,815.8280778306668,764.5527757897579,806.013809142756
1731306107.5322363,819.0688867179351,816.6569047094843,765.37681969812,816.9442777471229
1731306107.5361426,827.950579942961,815.9495897301613,766.1526497681394,824.6001743631772
1731306107.5372283,834.9863980659677,813.7694328142667,766.8797869851268,825.2337991992854
1731306107.5392566,835.9427012808202,811.2872542557664,767.5577733114478,818.9390712089163
1731306107.5400488,830.3726794207666,810.2884421400595,768.1861719614549,809.6111653375378
1731306107.543955,821.6080779386862,812.1037150467426,768.7645676678807,802.0938570915239
1731306107.547861,814.011943060648,816.5751865898023,769.2925669371514,798.7053539025308
1731306107.5517678,810.0522001043518,821.8517498135612,769.7697982919357,797.8446514769998
1731306107.5548463,809.4580816589533,825.389804610773,770.1959125007431,795.7659689860627
1731306107.555674,810.4593126145547,825.6009896418027,770.5705827952213,790.0591752857194
1731306107.5560932,811.4619198293304,822.897013527989,770.8935050758109,781.9647717405481
1731306107.5595803,811.8332808331603,819.2372794654026,771.1643981060763,775.613889380116
1731306107.5623217,811.7133968126057,816.5645277058011,771.3830036957216,774.8221523826008
1731306107.5634866,811.4752378579337,815.5215614346429,771.5490868722181,780.0335410846343
1731306107.5673928,811.3550944520066,815.4625062775997,771.6624360410028,787.8219814110641
1731306107.570436,811.3816550614196,815.4083399729258,771.7228631342817,793.2849497772445
1731306107.5712993,811.4760702445477,814.851360778638,771.7302037484995,793.4382359753567
1731306107.5749578,811.5624259537278,813.8526286453304,771.6843172705209,789.0496855297639
1731306107.575205,811.6134811064703,812.7053854752347,771.5850869925384,783.6558154497948
1731306107.5791116,811.6399425168133,811.6278579918624,771.4324202156976,780.7296131566378
1731306107.5830178,811.6621528824977,810.6724148909037,771.2262483424155,781.3497299139364
1731306107.5860257,811.6919034415043,809.7883084797984,770.966526957366,784.0888527155853
1731306107.586924,811.7299604304214,808.9124721998372,770.6532358970961,786.7483091371316
1731306107.5908306,811.771890578103,808.016048609655,770.2863793082153,788.0816073074454
1731306107.5938227,811.81381352992,807.1029486077334,769.8659856940695,788.1813733841099
1731306107.5947368,811.8545284597111,806.1887355424162,769.3921079497923,787.7837114315379
1731306107.5972092,811.8947533718356,805.2842602874745,768.8648233856322,787.4919124688531
1731306107.5986433,811.9355986227245,804.3915682634204,768.2842337385226,787.490765612313
1731306107.6016154,811.9776650781996,803.507640149936,767.6504651719088,787.6747761099501
1731306107.6025493,812.0209743213259,802.629162891258,766.9636682638072,787.8812490169151
1731306107.6064556,812.0653002057747,801.7547626509282,766.224017982837,788.0251077408092
1731306107.6103618,812.11046575301,800.8847517079138,765.4317136516104,788.1079843287142
1731306107.6126876,812.1564393749512,800.0199649761585,764.5869788967382,788.1678317817947
1731306107.614268,812.203284183625,799.1609322349248,763.6900615852603,788.2345341304149
1731306107.6172051,812.2510754162394,798.3077119053972,762.7412337486406,788.3158564235763
1731306107.6181743,812.2998561968548,797.4601130780503,761.7407914966427,788.4052227968514
1731306107.6220806,812.3496391789819,796.6179457401984,760.6890549225078,788.4940194821642
1731306107.6259868,812.4004291153145,795.7811268246935,759.5863679964107,788.578156232174
1731306107.6298933,812.4522403757666,794.9496580520271,758.4330984379177,788.6580602366917
1731306107.6315522,812.5050962306124,794.1235624980962,757.2296375567919,788.7358509735185
1731306107.6320963,812.5590110031213,793.3028430206303,755.9764000634201,788.8130687598061
1731306107.632795,812.6139696488042,792.4874760764169,754.6738238756888,788.8900610026571
1731306107.6337996,812.669929710136,791.6774247859403,753.3223699692057,788.9664649294537
1731306107.6377058,812.7268665249669,790.8726524425459,751.9225222958977,789.0418598563242
1731306107.641612,812.7848490926891,790.0731280538201,750.4747877083395,789.1160834117956
1731306107.6455183,812.8440760958639,789.2788248019564,748.9796957138411,789.1892034665638
1731306107.6483848,812.9047679522511,788.4897154598442,747.4377978740226,789.2613585028503
1731306107.6494246,812.9668820801105,787.7057680673745,745.8496669137196,789.332644337713
1731306107.650417,813.0298312876464,786.9269442910058,744.2158960870266,789.4031000277176
1731306107.6533308,813.0926186621136,786.1532027875893,742.5370996774166,789.4727537084832
1731306107.6572373,813.1547450187205,785.384508267803,740.8139149992982,789.5416617101084
1731306107.6611433,813.2175943413309,784.6208414084202,739.0470045482849,789.6098933416721
1731306107.6639743,813.284917214334,783.8621974508649,737.2370549115176,789.6774601714175
1731306107.6650496,813.3605129506532,783.1085611412745,735.3847692382302,789.7442503998072
1731306107.6669838,813.4427638210464,782.35986313057,733.4908551611038,789.8100747738349
1731306107.668956,813.5197908785427,781.6159564602285,731.5560191529698,789.8748951730643
1731306107.6692815,813.5730970376663,780.8766738468709,729.5809834922013,789.9391358916989
1731306107.6728623,813.595657552061,780.1419896971241,727.5665305703128,790.0037310533528
1731306107.6767683,813.6173170327113,779.4121903722497,725.5135457784565,790.0694904412862
1731306107.6795642,813.7102419220431,778.6878162543902,723.422994090375,790.1358040572118
1731306107.6806748,813.9399713299582,777.9691572081679,721.2957757455041,790.1996928776514
1731306107.684581,814.2608308094884,777.2554425027715,719.13250973257,790.2570450100591
1731306107.6881466,814.433243019346,776.544497537333,716.9334633011739,790.3071386004698
1731306107.6884873,814.1100403012395,775.8339856754438,714.6989229030413,790.3582358996276
1731306107.6923935,813.1838895690208,775.1245327482746,712.4300520888829,790.4275368779367
1731306107.695154,812.2168375449314,774.4226898162335,710.1296343609533,790.5280768291748
1731306107.6962998,812.441094484331,773.7392133195738,707.8014676128721,790.6442933326049
1731306107.700206,814.9556709515637,773.0789529721031,705.4475008265097,790.7167430984788
1731306107.7018712,819.5935985670692,772.425920351046,703.0638794682916,790.6703013172053
1731306107.7041123,824.6164727829076,771.7388682877587,700.6401997334742,790.5024636812086
1731306107.7070112,827.8075355259909,770.9778036553989,698.1673113658738,790.3829073829049
1731306107.7080188,828.132582636663,770.1640907103053,695.6536650764476,790.6338760452863
1731306107.7107437,826.482445077104,769.4318379514028,693.1377740737935,791.459845214196
1731306107.711925,824.8003217316349,768.9858609620406,690.6735186924724,792.4808143964638
1731306107.7158313,824.3366866339451,768.9081866760512,688.2736313453789,792.4685695421978
1731306107.7197375,824.5446266092367,768.9081921882922,685.838042126016,789.8642627436208
1731306107.7236438,823.5746152526624,768.3146705664512,683.1511682369392,784.167280892936
1731306107.725876,819.9588921417169,766.5634021015384,680.0435542863463,777.2000304433768
1731306107.7263334,814.0724397871601,763.9461687983679,676.7009396488008,772.7488249244375
1731306107.72755,808.1417373537716,761.8892708115493,673.8671398936785,774.2365469982124
1731306107.7314565,804.7595028671143,762.2375360967515,672.5052941268746,782.0791927977547
1731306107.7353623,805.0789365687988,765.8969442712066,672.6924687210114,793.0681177944602
1731306107.7367585,808.1248274618746,771.8631923266954,672.3407606473046,802.541669553082
1731306107.7392688,811.7374008359009,777.461159496,667.3837632836306,807.6630149723871
1731306107.741923,814.2932056830275,779.7443877402015,655.1316232482965,809.1204412925235
1731306107.743175,815.6967376008164,777.1998088756234,640.2143532962634,809.926927368226
1731306107.7447407,816.8243875393014,770.7217342295268,638.195140097315,812.4394328935273
1731306107.7470815,818.068074562101,763.2709775551309,669.3964090914038,816.1366976291181
1731306107.7509878,818.5247449528316,758.3893010610674,741.6568777230061,818.0239913830951
1731306107.754894,816.7817166679296,758.4009600235427,836.4299951596852,815.3858275991753
1731306107.757513,812.6247118576418,763.3338040385743,918.8585072487929,808.62147774423
1731306107.7588005,807.9245666157966,771.1430304006296,968.7351457841341,801.6451355575267
1731306107.7627065,805.6130435058338,778.9752829456213,998.6287106208619,799.2132364187144
1731306107.7636056,807.4968228350579,784.6034134555056,1035.0353529473368,803.1868596947979
1731306107.7666128,812.8509954674781,787.2457403902335,1082.5111839151577,810.8375783030482
1731306107.770519,819.0436771625749,787.5636485695552,1112.7199478479934,816.7039914041126
1731306107.771646,823.5548918450187,787.1104125454879,1093.2538212055688,816.5343262821111
1731306107.7731028,825.5435924233298,787.5638046183394,1027.3532329191833,810.1763882443677
1731306107.7744253,825.7018644728627,789.9495335182237,961.8267324379226,801.3134380681486
1731306107.7783315,824.8170243135477,794.0983337188072,949.858601379743,794.5886915593952
1731306107.7822378,822.588376466254,798.703291822211,1000.1814711274599,792.5468357592154
1731306107.7824705,817.8738016701042,802.1595593887356,1061.868343687513,794.5595744582208
1731306107.7861445,810.1660413109184,803.7715061592514,1064.9945926747212,798.0795311351922
1731306107.7886925,800.967977421073,804.4121041273299,984.7437026361806,800.8670024690186
1731306107.7900505,793.7284328360154,805.9625369487723,869.5656448291809,802.4478797323407
1731306107.7939568,792.0749306083575,809.8271886192465,802.9200072924237,803.9232157653041
1731306107.797863,797.4432710882197,815.6750132454472,830.0712273708708,806.516829343638
1731306107.801335,807.8349795204078,821.4600790913696,917.0910344377069,810.106050448546
1731306107.8017693,818.756864490643,824.7658621906606,981.0795624139421,812.9687596400856
1731306107.8042822,825.8116719679889,824.4727189748062,963.9690974821788,813.0363837932647
1731306107.8056755,827.135441777791,821.4938930423701,882.1111970671725,809.6367942283979
1731306107.806533,823.9876220373762,818.0028896202491,808.5174905584307,804.1668100532627
1731306107.8095818,819.243413647628,815.7044183070324,807.7690259239232,799.0614821249668
1731306107.813488,815.1405430517649,814.5200112833827,883.8079672360104,796.0495086326916
1731306107.8173945,812.0950179076813,812.869518904961,983.5146175169948,795.263884018847
1731306107.819872,809.3734182715343,809.4472857980296,1045.814753332322,795.7182919423259
1731306107.8202,806.7609117141797,804.9581311158599,1048.2350618412738,796.3426562076054
1731306107.8213005,805.4837389584255,802.0832279588298,1011.5891595645247,796.6125847291016
1731306107.825207,807.33159977616,803.4280358399571,965.7641224249968,796.5376161836489
1731306107.8291132,812.6632142902122,809.1374539398029,914.8467905850468,796.341617785919
1731306107.8330195,819.2236390907124,816.3759833759133,837.11646132243,796.1976904195978
1731306107.8354616,823.1835697761101,821.3161878610737,718.9789578531135,796.1479586910477
1731306107.8369255,821.8416383271674,822.0140788856776,586.8385663864989,796.1515868260437
1731306107.8390646,815.8045781650823,819.7087694617135,501.5257134025486,796.1574651967278
1731306107.840832,808.7545539719122,817.487068051235,516.2402758939484,796.1419403198773
1731306107.841421,804.8984720413599,817.5807197429982,634.9417872854875,796.1078980838383
1731306107.8447382,806.0794009651563,819.6582985693329,807.7394210097791,796.06779331622
1731306107.8486445,810.7150150385304,821.4307553913815,964.9455400623401,796.0303778599183
1731306107.851051,815.1979172540346,820.8079528471197,1058.6562769466323,795.9973095373477
1731306107.8525507,816.5279242125478,817.6304809316473,1080.711929151012,795.9661265608859
1731306107.856457,814.192938414317,813.5936798727081,1052.3450595114882,795.9340993585574
1731306107.8579297,810.0603486095353,810.6685003931893,1003.0632562792326,795.9000526707969
1731306107.8603632,806.5598565237799,809.5559724050012,955.9628005771438,795.8641764464563
1731306107.8642695,804.6412603885785,809.4852129720866,923.1319604099776,795.8270901366377
1731306107.866641,803.1279328990832,809.3232514359636,906.5924716889241,795.7891708104623
1731306107.868176,800.045334740049,808.8069559529524,901.5780718435215,795.7504153306809
1731306107.8720822,794.9012783925708,808.7528828544216,901.1886514849457,795.7106196536196
1731306107.8759885,789.9230478242002,810.171585579275,900.4660286625334,795.6695831908924
1731306107.876308,788.8976035270985,813.219239796074,897.7926347565824,795.6271943729346
1731306107.876794,794.2346875545174,816.972900486462,893.8051730579645,795.5834063749188
1731306107.8798947,804.5603401141626,820.1828095690541,889.6490924633937,795.5381752564253
1731306107.8822308,814.9656761309152,822.2498386969462,885.9526725806783,795.4914226139389
1731306107.883801,819.9796023785565,823.4952889049348,882.7229262062443,795.4430488135204
1731306107.8877072,817.0969735820066,824.4778129602075,879.6934957496982,795.3929863349911
1731306107.8916135,808.2036441327646,825.0513403034314,876.6464377131458,795.3412480831886
1731306107.8955195,797.9476692539902,824.1714899524088,873.520743000035,795.287902120123
1731306107.895659,790.5409849722262,820.7966570512813,870.3610658912274,795.2329276571298
1731306107.8978207,787.5420756850759,815.1530004490983,867.2297032367729,795.176013232554
1731306107.899426,788.0432018073947,809.1391870017876,864.1577423702341,795.1165143777995
1731306107.9033325,790.502843648713,805.2558741322329,861.1435581777353,795.0538405000462
1731306107.9072387,794.200075643754,804.6955531654477,858.1725975871735,794.9882750036194
1731306107.911145,798.9822537487145,806.0606322536223,855.2339508669589,794.9216102801693
1731306107.9111953,803.8853223153429,805.8540335098062,852.3251872802737,794.8564295140807
1731306107.9134104,806.4838083459895,800.6279988398059,849.4491250107881,794.7932852173784
1731306107.9145236,804.1823353579965,789.4375866461176,846.6091525952024,794.7270865586339
1731306107.9150512,796.6221506933524,774.9161502822569,843.8068512092249,794.6468979199012
1731306107.9189577,786.9476648310122,762.1122372939244,841.042091735738,794.5439671664408
1731306107.9228635,780.4184088040988,755.7132743516759,838.3141350611716,794.4272319340909
1731306107.92677,781.1729626074551,757.4411712775174,835.6224762500777,794.3336886861616
1731306107.929,789.6025120093783,765.3128987284942,832.9670513395837,794.311755767838
1731306107.9306762,802.2334926309564,775.0914212776914,830.3480411421134,794.3660504638448
1731306107.9333885,813.9796068474933,782.7256730564463,827.7656246106283,794.392854026005
1731306107.9345825,821.0407241627546,786.150767336815,825.2198648233223,794.1882868736836
1731306107.9384887,822.6399415608008,785.6362285941716,822.7107234100264,793.6154875426707
1731306107.9423952,820.7781464999169,782.9693761364432,820.2381213742387,792.9039997711109
1731306107.94459,818.3857866273556,780.242661075275,817.8019820599046,792.8378564266795
1731306107.9460826,817.1335330289902,778.8524480031848,815.4022398078558,794.479974178725
1731306107.9463017,816.3878812013955,779.018825351655,813.038828673816,798.3999432135331
1731306107.9502077,814.095878180253,779.9627135868848,810.7116698501277,804.0020649342371
1731306107.952253,808.973604333424,780.6577830260292,808.4206666165805,809.696601571558
1731306107.954114,802.2224975416278,780.6921908342022,806.1657059035603,813.9006689332402
1731306107.9580202,797.1930790634651,780.5521081445426,803.9466619294059,816.0127297323162
1731306107.9601796,797.0416377289706,781.0204754773933,801.7633986590047,816.5502843200271
1731306107.9619265,802.196806039168,782.2253976328373,799.6157704422172,816.416218970692
1731306107.9658327,809.7642350308182,783.3318786370226,797.5036217491224,815.9364241823118
1731306107.969739,815.4728613878549,783.3095662475156,795.4267870192244,814.4405117438465
1731306107.971118,816.6854484494748,782.0898660466355,793.3850909732487,810.8019787839766
1731306107.9736452,814.1232265787669,780.9340323448815,791.3783490804266,804.690176459257
1731306107.9757693,810.9777795343822,781.5341446203078,789.4063676786516,797.5832560479922
