timestamps,eeg_1,eeg_2,eeg_3,eeg_4
1731139676.8450973,801.9814910868572,809.0828060847028,790.6894825665726,804.1780486269478
1731139676.849,818.8729025756479,801.9728071123434,795.5679107788163,810.8963120222287
1731139676.8491418,838.0149094669388,798.2181679292914,796.5538968420329,818.1369755249739
1731139676.8529024,852.7875794256373,799.2358028544064,791.9000370503771,824.0897100744227
1731139676.856805,851.4873288250278,803.869361523176,783.1928406176551,825.4441251228674
1731139676.8607078,831.0409025796167,809.3846389190243,774.7735385071448,820.8573350484864
1731139676.8633747,804.7935205213644,813.2359498368621,771.3383366858625,813.264700476784
1731139676.8646104,793.167878179055,814.3065850415712,774.9831413154587,808.1341012004627
1731139676.8647163,804.2768810948011,812.9322720284506,783.7497912462069,808.9437891572327
1731139676.8685129,823.9477748395673,810.0668989112837,792.9198487923812,814.2200092409096
1731139676.8724155,827.0881973901751,806.5023189827481,798.2187636051718,819.1531616581735
1731139676.8763182,801.4333677774695,802.7208710705358,798.49280718265,820.3352901027733
1731139676.880221,761.2006426846873,799.2138190514112,795.8454169138272,818.9278949984779
1731139676.8802907,736.2692769301251,796.6994006033204,793.3732069877101,818.8952037346229
1731139676.882251,745.4491683133076,795.904131953178,792.5884040914702,821.8315110985269
1731139676.884123,778.4402197537456,797.0859171421655,792.6528996197267,823.7379831149966
1731139676.888026,804.1938693165284,799.7523338395151,791.7832136796421,817.7767317459106
1731139676.891929,799.0433059320349,802.84821395868,789.2805125246643,801.2152396751394
1731139676.895831,768.8128899524235,805.2780688197186,786.252324265582,779.9450837618132
1731139676.8958652,743.9143414934216,806.3900284275029,784.4697361819761,765.3635521807364
1731139676.8997338,751.4835997215761,806.1514339591972,784.6034746864207,765.3983053217327
1731139676.9011276,790.2694420269161,805.0015104564551,785.5905180566306,777.4459358632205
1731139676.9036365,831.4563364441373,803.5078721286268,785.6829279050992,789.8871206360885
1731139676.9075391,844.4383183724798,801.9726666121934,784.119583673677,791.3353898818604
1731139676.91144,823.7824463117271,800.1865076033184,781.917780831302,779.7953692332319
1731139676.9114416,793.1415743776038,797.5784289244617,781.2163998547286,763.8948491448679
1731139676.9153442,783.29276687458,793.822229661718,783.8075796786704,755.3077277144251
1731139676.919247,804.67031278572,789.5223175826233,789.9425389872972,759.119149111327
1731139676.920004,838.9637186913889,786.3307470347346,798.1145247179273,770.4085021081538
1731139676.923149,856.585587378955,786.1523441898382,805.8182424809828,779.5332654991117
1731139676.9270144,843.6721012003316,789.8383980450807,810.7268453558206,780.878265205892
1731139676.927052,814.3851397455602,796.3210016764542,811.5841048026133,777.1678696568354
1731139676.9309547,797.9749042141672,802.9618632260327,808.4353467236193,775.9485291754057
1731139676.9348574,812.4709502210836,807.0285855771123,802.3307262610231,782.0284519744347
1731139676.9387598,848.1247846893823,807.3148561706938,794.8730388615554,792.8937671404236
1731139676.9388802,874.7313867221621,804.7553920683566,787.8164510315457,800.9341552712357
1731139676.9425888,866.548824963702,801.6454553608735,782.6771318754439,800.1770930886976
1731139676.9426625,824.2607688094047,800.1144128609099,780.3123138212698,791.6389688871043
1731139676.945083,776.1183062188206,800.9374545110242,780.5937888522872,782.8774435120132
1731139676.9465652,756.9049407203436,803.3495117971187,782.3871004168426,782.1247924754231
1731139676.9504676,780.8608412412997,805.7698659715461,783.965587540914,791.6864673576624
1731139676.9543705,830.0586197195884,806.8651549499527,783.8211346993371,805.974603914642
1731139676.9577568,868.2087396558194,806.326929129937,781.6031380153904,815.9769379027131
1731139676.9581633,869.4854552821587,804.959645906302,778.6309698087379,816.6663030427611
1731139676.9582727,838.9998447033546,804.0525412189313,777.3458332620426,811.1544039790937
1731139676.9621756,807.6989045487736,804.4531414432039,779.6176905025258,807.9180436752317
1731139676.966078,805.6585428630648,806.0040976828664,784.9201246124419,813.3365995530536
1731139676.9699807,836.2056405698273,807.7641268494824,790.0431882444558,825.9302265979835
1731139676.9737377,872.8016558721793,808.8149406330683,791.1534397863339,837.2742875098229
1731139676.9738834,881.3106187452198,808.9811164329601,786.9322772103059,838.8235432209132
1731139676.9766333,848.9134078970626,808.8845724394494,780.1294104510358,828.9406783460076
1731139676.977786,795.660185701541,809.3139748715736,775.8461153849013,814.425180421777
1731139676.98,759.2062204170547,810.4232961672291,777.663956757489,805.3896608013376
1731139676.9816885,765.0666630296246,811.3939718086966,784.8018646746456,807.5174423102616
1731139676.9855912,806.3268518033046,810.8739807138653,792.7486823307212,817.7075883333895
1731139676.9893122,849.2981227399645,807.9745203066307,796.8480709375277,826.6036011664459
1731139676.9894938,860.8236190632789,803.1576949367776,795.8142962518782,826.2260110194611
1731139676.9933963,835.0621627515585,798.2759778344995,792.3491515992137,816.6621685521177
1731139676.9955094,797.4960908265048,795.5148641077411,790.5885500880865,806.1401605326698
1731139676.997299,782.6455606006103,795.8650046353158,792.6557650453238,804.1675413123553
1731139677.0012016,804.2805115966761,798.3223243903115,797.0405689445594,813.4828347014075
1731139677.0048866,843.4720425121301,800.5910331005501,799.8174370784395,827.7399398937316
1731139677.0051043,864.5525715581838,800.8211449819217,797.5481882981012,836.7891895395195
1731139677.0090067,845.2344823279179,798.9831447498052,789.7520750822953,834.8310086313246
1731139677.0129094,795.5312134642713,796.8035030007732,779.4162269396869,824.649870811881
1731139677.014386,750.1887237102641,796.4064913607849,771.3674739696028,814.9538671355
1731139677.0149171,741.4451062354321,798.7357590446247,769.5098317764117,813.503688738539
1731139677.016812,774.2430930911413,802.7997412113166,774.4969981771915,821.4327235529503
1731139677.020461,823.0795352414509,806.146060446631,783.2289086627934,832.6422160141626
1731139677.0207143,852.2849796874423,806.2979758154869,790.6199817286274,838.3898421689728
1731139677.0246172,843.5591621381789,802.3621312708813,792.68881098029,833.769547242341
1731139677.02852,809.2552258208354,795.7629858692883,789.004712296437,821.454503030321
1731139677.0324223,781.1421549682641,789.4544351468596,782.8017630899928,809.7493739648039
1731139677.0332625,783.8874338716168,786.057457281331,778.6605115748492,806.1410505452574
1731139677.0360358,814.9110892619047,786.3231685317882,779.408228246227,811.3654854009445
1731139677.036325,847.0768563346719,789.0823475624143,784.4098584010334,819.0095327542658
1731139677.0402277,851.8319594447887,792.5315502553708,790.3362313013118,821.1741305368267
1731139677.0441303,823.5320507414053,795.6338733667077,793.6943092863263,815.409089694381
1731139677.048033,784.8353885554206,798.5687452207748,793.224079923202,806.890068325762
1731139677.0498345,768.7148304809571,802.1505411023716,790.5018081598504,803.9756691010994
1731139677.0516102,791.6617148364921,806.8762339078871,788.499541252362,811.1526961145046
1731139677.0519354,839.6425958584805,812.3050881353781,789.3467593609267,825.5871572000761
1731139677.0521386,878.2065520362289,817.1343539775302,792.9826885425439,839.9742291836034
1731139677.055838,879.1415423316639,819.929144066347,797.5102409382471,848.4764231587438
1731139677.0597408,842.809943324738,820.038714214258,800.6933979618908,850.1958004944463
1731139677.0636432,798.0621328462817,817.9946602891297,801.3335024239238,848.0104929255668
1731139677.0671847,779.1183924415512,815.0319929209218,799.650022326699,845.2680494928337
1731139677.067546,797.8498101802987,812.1820602988084,796.7095346598031,843.6549874920696
1731139677.0710151,834.4898177051049,809.8082941643556,793.5443555259056,843.1574374152166
1731139677.0714486,854.8909404068021,807.903329712164,790.5900289354167,843.0612203809791
1731139677.0753512,839.9407793128412,806.5600070163223,787.7285214423008,842.8045020665287
1731139677.0792537,802.1695404016647,805.9393432412262,784.82798956279,842.2442892073525
1731139677.0827591,775.4344718638109,805.9031606073418,782.3170849630949,841.5077082779075
1731139677.0831563,786.4289950981471,806.0526158026712,781.2367690694296,840.7587933670218
1731139677.0847516,831.8503195776608,806.3295166930409,782.6235075862127,840.0750188762668
1731139677.087059,880.0214500279318,807.3536452728251,786.7359899133626,839.4482609071327
1731139677.0898914,895.6503061131707,809.7428093610439,792.8224441708569,838.8386766740298
1731139677.0909617,867.8605543567068,812.9218420093224,799.5552545270293,838.2176756006613
1731139677.094864,818.9541983059603,814.8448169773566,805.5924134021226,837.5793557250545
1731139677.0983336,786.4936136035326,813.3421440003052,809.773310356388,836.9312407010934
1731139677.0987668,792.8258318703095,808.0986466238884,811.099790167352,836.2819073908204
1731139677.1026697,827.04658998389,801.4479997787956,808.9857569532053,835.6350077993382
1731139677.106572,854.7528209634186,797.1485462309994,803.8114640652371,834.989776073589
1731139677.1087675,847.6833497465179,798.0464357091083,797.1938387112062,834.3440085045606
1731139677.1104746,808.1813310183396,804.3489994534108,791.4392152048898,833.696245871513
1731139677.113908,767.6807908195893,813.5984071685118,788.3811991836334,833.0462464815433
1731139677.1143773,760.5786977390751,822.1738255695697,788.4206570506785,832.394420388011
1731139677.11828,795.5106166221809,827.2593856703113,790.4602757004819,831.7411612610747
1731139677.119669,847.745585268295,828.0831863193281,792.7370388665477,831.0865541286959
1731139677.1221824,878.6064822591175,825.7838976692958,793.9372012112476,830.430453564477
1731139677.126085,865.9319115939543,822.1948891504418,793.8713293742993,829.7727159209021
1731139677.127644,821.155020971948,818.5678934115292,793.3587655052103,829.1133733628694
1731139677.1294827,779.5418369103064,815.1685951750102,793.4916013033328,828.4526113338823
1731139677.1299877,771.5087016231212,811.7868172829169,794.7967413906518,827.7905098749804
1731139677.1338902,798.1424245844803,808.3806121768056,796.830573550728,827.1266808491843
1731139677.1377928,830.9685031654278,805.1716065994264,798.437539923647,826.4601651742328
1731139677.1416955,836.3856232042234,802.3396324926239,798.4735013992599,825.7900343787293
1731139677.1450572,804.5721632988354,799.9623326877445,796.5350395041914,825.116726951513
1731139677.1455982,758.637109675119,798.388398337294,793.3004657871551,824.4431494803985
1731139677.1465206,736.2735050748815,798.4644733905284,790.3291276176428,823.7736408489042
1731139677.1495006,759.1047542590425,801.0389184018354,789.3687821072206,823.1094803292829
1731139677.1534033,814.7749294936331,806.0318107301109,791.4070813340848,822.4428880504702
1731139677.154586,866.0081983367083,812.0440112863599,795.9541021857544,821.7562379266444
1731139677.157306,879.1280285608398,817.0822686559111,801.1296174657386,821.0345393437763
1731139677.1606317,849.4781036459129,819.8414242025743,804.7035757999532,820.29064378368
1731139677.1612084,804.0182189338027,820.3827982285537,805.462155228574,819.5834156695216
1731139677.1651113,779.312855900883,819.7138403927217,803.8770190879052,818.9931256962872
1731139677.1653967,792.3416000467383,818.873153361922,801.5458632375564,818.5331090941892
1731139677.1690135,827.3196249696932,818.366282733053,799.8634501387742,818.0416167577234
1731139677.1729164,849.248278632798,818.1871038187671,798.9701876153775,817.1849615914753
1731139677.176206,833.5129262791157,818.124235884494,797.7309903400057,815.7155211478198
1731139677.1768188,787.4660067768541,818.0136868494308,794.6746421436612,813.9491475277188
1731139677.1807215,745.9181160887771,817.815459298698,789.1879110916086,813.0637413609676
1731139677.1842732,743.6009176477153,817.568228579086,782.1959727334472,814.5622217165487
1731139677.1846242,786.7725345772957,817.3204532140359,775.9401647101448,818.6167139294894
1731139677.1885269,847.1821646336614,817.0945692309979,772.952901853042,822.354105739608
1731139677.1895034,883.5511223049596,816.8878323411868,774.7165053305943,820.5387836996956
1731139677.1917806,873.45714224942,816.6884038848984,780.6970479824842,809.919848383924
1731139677.1924293,830.158594769745,816.4879436610681,788.3677293166921,793.9978821077648
1731139677.196332,791.0159480962454,816.2848347905949,794.3785219238179,782.3451363045892
1731139677.200235,786.9676285018663,816.081367675588,796.3124370834142,783.1572602220231
1731139677.2031498,817.8183180762803,815.8800873387371,793.9629257525141,795.3856427521496
1731139677.204137,853.4483379177417,815.6820636691948,789.2803066289184,808.4344893270345
1731139677.207355,859.8080442104362,815.4870689012964,785.0394891480689,810.6442603038757
1731139677.2080398,827.933807107413,815.2944634415671,783.1703951234687,799.3562584300939
1731139677.2119424,781.6055610574936,815.1038318958708,783.8362685999464,783.4613403481288
1731139677.215845,757.2989812055476,814.9151141115715,785.7217414031949,775.8910476504971
1731139677.2197475,773.5717305594272,814.7284386946559,787.1865197386117,782.5337329039562
1731139677.222026,815.6756714185651,814.5439357788158,787.463477522924,797.2319395002563
1731139677.2229297,847.7417678870662,814.3616604108415,787.0795186614671,807.0189023885538
1731139677.2236502,841.6237021374905,814.1816088813703,787.1550994083278,802.8308854263988
1731139677.2244203,798.5864581140797,814.0037542488792,788.0752671708423,786.6473670205808
1731139677.227553,747.4151465281891,813.8280539045284,788.7125200037204,769.6663273855238
1731139677.231455,722.404227725299,813.6544387048458,787.1728958237233,763.8231953816921
1731139677.235358,739.7762734463116,813.4828304159314,782.7593963624435,773.826600795539
1731139677.2385042,789.6577909663936,813.313219503852,777.4702137906812,795.2720607332484
1731139677.239261,846.0317433343689,813.1457624046927,775.322939936544,818.6662498671437
1731139677.2409024,883.4131224155714,812.9807678900208,779.5277794021703,834.9525680162106
1731139677.243163,887.8209774975876,812.818436674411,789.6309889491573,838.7018812680597
1731139677.2470658,858.8332151933757,812.6584049596557,801.1512333385708,828.7006452572273
1731139677.2509685,807.3400544583092,812.4994986623584,808.3033348826866,807.8535888452354
1731139677.2540786,752.6383673569001,812.3403379544515,807.791947290763,783.1724434524476
1731139677.2548711,717.1875647500492,812.181042180321,800.7780551089195,764.413406367821
1731139677.2587736,716.7852356427388,812.0250159087099,791.7403457779019,760.0338875466167
1731139677.259338,749.9627355977643,811.8783265428737,785.4526856079459,771.9697484771431
1731139677.259779,795.601320797148,811.7443827676211,784.4260087916228,793.2382257179997
1731139677.2626762,824.3896520374178,811.6154155073029,788.2618706297359,811.3665238495124
1731139677.266579,818.6904852190448,811.4689020559994,794.6782230573848,816.249989905785
1731139677.269653,786.1608012219453,811.2806827569124,801.0420740680509,806.9043361617884
1731139677.2704816,754.7818863430804,811.0578265078898,805.4756861175391,791.7170928899931
1731139677.274384,751.1482101722424,810.8696065267278,807.2954306782481,781.7504848520086
1731139677.2782867,778.7133895673137,810.8288666435161,806.9389880328107,782.4060839689647
1731139677.2786553,814.3829557059736,810.9844921587633,805.544682655225,790.1660825516028
1731139677.2821894,827.3038538408332,811.1616386910265,804.3377895743905,796.7746931052075
1731139677.2852275,804.8449100338361,810.9073293193533,804.1170874839264,796.9603017639552
1731139677.286092,764.1415678350772,809.7438301979365,805.1383061348575,793.0741437335307
1731139677.2899945,739.2237268387751,807.7191489335722,807.3316668327824,792.9117637090743
1731139677.2938972,753.8375800253667,805.7864383169655,810.4021321367333,802.7200827996187
1731139677.294255,801.8161855553419,805.3808022751552,813.512955658189,821.1999849772064
1731139677.2975316,850.8326694433761,807.270614137353,814.9273334748987,839.4125292022171
1731139677.2977998,866.8212101738895,810.7615730833014,812.4028694416271,846.8830041034533
1731139677.300802,840.0913050984063,814.2297106746136,804.6111362124997,839.4136435109956
1731139677.3017025,792.6930247657751,816.5796310184037,792.6991067198893,822.6280120551295
1731139677.3056047,761.0871899464945,818.1094707693571,780.5029113395603,808.2955624280509
1731139677.3095076,767.7511317434347,819.7824445375976,772.7464685488195,806.0529742812196
1731139677.3134103,804.5280746310357,821.6277497135602,772.286487147805,816.9447779022399
1731139677.3163764,841.100317022815,822.0980512511122,778.4586218940364,833.7523502235636
1731139677.3164082,851.0224624558665,819.370701746532,787.735718102724,847.2635398304869
1731139677.3173127,833.0503266070513,813.4969978389305,795.9730313528655,852.6708385517178
1731139677.3212154,809.9801774614999,807.1539557987549,800.3810259191486,850.831935621926
1731139677.325118,806.9137128166739,803.906725710461,800.0419699304155,844.45382308506
1731139677.3290205,828.4055411840213,805.3223476133516,795.3590495999896,833.9936840530482
1731139677.3291724,854.2696135211111,809.5288159826652,787.5734132814563,817.7303146432541
1731139677.331951,857.3284216963731,812.5798013991122,778.7866955298831,795.7869162693381
1731139677.3329232,827.7460796825627,811.4762217707555,771.8382597629372,773.6591206003275
1731139677.3352845,783.2638984361423,806.3103131616258,769.3193418003442,760.9734353900827
1731139677.3368258,756.3329026048962,799.8962773812957,772.0804380068878,765.4465763641774
1731139677.3407283,768.0557174757618,795.4319489999575,778.5091794127908,786.513687961043
1731139677.344631,810.0644633907765,794.2253569663741,785.435606746532,814.0175384609003
1731139677.3475256,849.8236487299316,795.1901641980053,790.0890067697615,833.8491072778404
1731139677.3485336,856.1118403661598,796.1875829906076,791.581118659895,837.0999270681274
1731139677.3524363,824.4310855811157,795.8701679352096,790.8872073406783,826.184488908642
1731139677.3541608,781.3378881537336,794.5493347460585,789.6446846709222,813.0864958539854
1731139677.356339,763.5917969005894,793.6134460413343,788.9282157979117,810.4985548991262
1731139677.3602414,788.7075889801096,794.1761616383144,788.8607358400842,822.1689333853992
1731139677.3631,840.5967351153474,796.0849039678865,789.0248686089552,839.8400199136275
1731139677.3640895,881.7587281381325,798.0096013939783,789.054197003566,849.4666058181162
1731139677.364144,882.295105809558,798.4787395567328,788.8884831984305,842.2366018048776
1731139677.3680468,842.9020927554093,797.046015713596,788.6604754916752,821.8879219166486
1731139677.3719492,793.9008837279474,794.7115615183959,788.4925607740817,802.361918866542
1731139677.373037,771.1959967843952,793.2998696160192,788.4110023457218,797.2742068562671
1731139677.375852,788.2238504308536,794.2568100831619,788.3770090923799,809.2772566842423
1731139677.3786745,826.1907141532521,797.7127243194979,788.3456802677856,827.7632895696669
1731139677.3797543,850.2723079993217,802.4399445370176,788.2967655579657,836.9376753997976
1731139677.3836572,838.421919614216,806.693641970036,788.2330064779942,828.0520465546343
1731139677.3875597,799.2326321989896,809.2895435157006,788.1652273211671,806.1851371093908
1731139677.3914623,764.5237894121551,810.1293897208404,788.1009318216165,786.2638508740527
1731139677.3919137,763.1812629162273,809.9088810518215,788.0414945812474,781.5549126752258
1731139677.394249,797.7127626347185,809.4367573190293,787.9847895191559,793.6643222539597
1731139677.395365,842.0858934459313,809.1643800592663,787.9285090279749,811.6349549499552
1731139677.3990068,862.0787125618316,809.1433429955163,787.8717048389544,820.532876242844
1731139677.3992674,841.8767355785774,809.232811990041,787.8146013319825,812.7233950467881
1731139677.40317,796.0973232647488,809.3010045459546,787.7577827577422,793.175150679739
1731139677.4070728,757.8164423873851,809.3035751089305,787.7016190611171,774.8769551009916
1731139677.4098234,752.0482599237183,809.261841808842,787.6461529636023,768.2844909283142
1731139677.41079,776.0515552221723,809.2121289797582,787.5912559914582,773.4963570316285
1731139677.4109757,802.7319546103753,809.1745295659639,787.536802972024,781.4583468544193
1731139677.414878,804.4992767164342,809.1495922775772,787.4827457955787,782.7300106549167
1731139677.4187806,777.6013893806287,809.1291007466109,787.4290976169789,775.9538150656155
1731139677.4226832,746.196618667527,809.1061808653444,787.375887269656,768.7689748866685
1731139677.425398,742.3720259240116,809.078805986304,787.3231275779056,770.737504266543
1731139677.426586,778.6097298380453,809.0482748437801,787.2708088069312,784.6232979508716
1731139677.4296665,835.5978002892914,809.0164799141538,787.2189099587192,803.3672082157569
1731139677.4304883,875.7437513110758,808.9843628732509,787.1674176733362,815.1139825522828
1731139677.433924,872.0031249687876,808.951845557461,787.1163428176051,812.2534809436656
1731139677.434391,829.267320461256,808.9184383306263,787.0657211011546,797.5032983510959
1731139677.4382937,781.0065744872039,808.8837592347605,787.0155833007842,782.3020957685372
1731139677.4409723,763.1379258732052,808.84768981782,786.9658984088314,778.4389317131322
1731139677.442196,785.6079727756678,808.8102769259551,786.9165334057944,789.0533105776336
1731139677.4460988,824.9021257078604,808.7715871182216,786.8673075893212,806.0388447259891
1731139677.4485428,844.1723870202028,808.731633711722,786.8181871096455,816.2809346153201
1731139677.4500017,824.6563323048771,808.6903833939039,786.7695233601071,812.1797186091995
1731139677.4539042,782.0942464171234,808.6477933741373,786.7220475478604,798.1676303371574
1731139677.456547,754.1673823275734,808.6038329114159,786.6763062511312,787.8275101017791
1731139677.4578066,769.3722604671452,808.5584732222718,786.6316169047168,793.6150433193461
1731139677.4617093,823.1669382216137,808.5116615480994,786.5854245935782,817.0282872616449
1731139677.465612,880.6816900793442,808.4633152528339,786.5345273812023,846.6500056571836
1731139677.4674191,903.1591762322557,808.4133680539805,786.4788675781973,865.4317314954915
1731139677.4688413,876.6544096598619,808.3618596504012,786.4257815609283,861.8687884011849
1731139677.4695144,820.9228166114904,808.3089887423954,786.3891389503455,837.2249696945184
1731139677.4721217,772.7420880504984,808.2550025536001,786.3778444724807,804.0067498246784
1731139677.473417,757.5737839306704,808.1998687024318,786.3763107954286,777.0614520870782
1731139677.4773197,771.8522961761482,808.1429199684227,786.3346513561895,763.8665569001334
1731139677.4812224,789.3983779459766,808.0829533183339,786.1957846636338,761.1610483396059
1731139677.4851248,785.9912438367817,808.0192416021285,785.9691392038775,760.1545165936209
1731139677.4862957,761.1420930047951,807.9531973266152,785.8060200459639,755.5194365648689
1731139677.487696,738.3703077669028,807.8891344762566,785.9704756241892,750.153890171797
1731139677.4890275,743.6956075686616,807.8318242071718,786.6130663766469,751.5670777678678
1731139677.4929302,781.0959738770241,807.7801440957161,787.4262497341882,763.5038313671043
1731139677.4968328,826.5830042625325,807.72086895146,787.5232581063568,780.8957651402088
1731139677.5007353,846.5844294188857,807.6318107218718,785.8969643633387,793.1246755813049
1731139677.5032704,825.4367969037612,807.5021246893067,782.3096879010811,792.8402837828907
1731139677.5037584,779.0044712480742,807.3629723963593,777.8688745477511,782.4625769415686
1731139677.504638,742.9793520649777,807.2975138865877,774.6644858757948,772.5782313151553
1731139677.505172,745.1023497161272,807.3876942001064,774.6727336146126,773.5257643934843
1731139677.5085406,783.447169259518,807.5895235546232,778.7460229211391,787.1937482291706
1731139677.5124433,828.1311622968171,807.6177253525017,786.3194119438978,805.7469172133227
1731139677.5163455,845.3062145536675,807.0027157621057,795.8288257475039,818.1998434378612
1731139677.5188448,824.3710462284313,805.4129308385624,805.4053737920116,819.3248720356038
1731139677.5202484,786.3330337408156,803.0433423886406,813.4075150243142,813.5298893544494
1731139677.5240483,766.2394563483952,800.6515210860297,818.6109909749838,810.6004582607563
1731139677.524151,783.9196948543562,799.1057897412242,820.1829687535001,817.0482056216255
1731139677.5280535,827.1997637399858,798.8626595770986,817.7439929364764,830.4479566816397
1731139677.5319562,861.5766777086526,799.8527888126708,811.6878765096766,841.4857196659169
1731139677.5344193,858.43602341394,801.7329422545653,803.506338012611,841.8467653580252
1731139677.5358589,818.682048702656,804.0883708071286,795.568671537713,831.2525744608118
1731139677.5386758,772.6295745001661,806.3860085302305,790.1093154202758,817.8774560372369
1731139677.5397613,756.3700076626542,807.908443195858,787.958524523801,811.9732697240214
1731139677.542925,783.5372007946836,807.9645034160359,788.038705034275,817.9870242090216
1731139677.543664,834.8520326218504,806.3221371063865,788.2082528172251,831.4574286852834
1731139677.547567,873.7457431142227,803.5015750130223,786.9462221603173,842.9979348000468
1731139677.549994,875.6752520516555,800.6492420852225,784.6171551223509,845.9946511817227
1731139677.551469,847.4819646968116,799.0319826597755,783.3297786614814,841.7110653408081
1731139677.5553718,820.7657246265142,799.3938976285804,785.4487913005944,837.643868509393
1731139677.5592744,824.512508867043,801.4389504756552,791.7662457906156,840.6100195863938
1731139677.5618012,859.8652653936758,803.7217438191029,800.5557797938403,850.5769178726873
1731139677.563177,898.558321292857,804.2279089887221,808.2196504569815,860.6967866265679
1731139677.5655684,906.6713019761821,801.6195045360292,811.3331767029737,863.6030262532296
1731139677.5670798,873.8341887912683,796.4841769637571,808.9491783290715,858.3953257785071
1731139677.5709822,823.2855436314012,791.5338215444675,803.5388813608989,851.961745892263
1731139677.573593,794.1626024675877,790.2042641064902,799.5483868966861,853.2144413341125
1731139677.574885,810.430639423404,794.3652432387822,800.2782159604944,865.13452106428
1731139677.5787876,861.7554758784103,802.7987949136427,805.409472066561,881.6049979664481
1731139677.5806775,911.7413961251742,811.7436186957623,811.3090273405251,892.0133371954987
1731139677.581143,926.7629695656472,817.2620527916368,814.0140034640489,889.9974823522272
1731139677.58269,902.1180852557475,817.7156157387902,812.4155781103244,879.0725565617486
1731139677.586593,864.4855717051464,814.506953168979,808.9083979017868,870.2172277996513
1731139677.590495,848.9085275658808,810.6223122334413,806.9790076768874,873.004051800048
1731139677.594398,869.4102111529807,808.2628316672843,807.903352433099,887.3370184743017
1731139677.5967174,907.6371794407945,807.4908114013421,809.4967096537324,902.7097115500644
1731139677.5983005,928.795990315566,806.7947107779497,808.041577878708,905.9643708466257
1731139677.5995538,911.2511455072959,804.7604234911233,801.7356463861928,891.6048998201783
1731139677.6022031,865.0106136610766,801.2282642633406,792.6845005425084,866.5615181974865
1731139677.6061058,824.0268419083229,797.0830292854032,785.6992809575162,845.628144113849
1731139677.6085105,818.954443195317,793.2652477881002,784.8176540919749,840.9655236642313
1731139677.6100082,852.600449830019,790.2169687041011,790.2996790580078,853.4719235297362
1731139677.6122918,897.7058744620333,788.2512307653159,798.4256955227785,872.3481545625447
1731139677.613911,918.6805838905186,788.1593277187957,804.1864659208192,883.1403469170997
1731139677.6178136,899.8858983259745,791.056047360419,804.7303378574619,878.3437998590749
1731139677.6184304,857.8299577558918,797.3385073839087,800.9484350163752,862.7148175180453
1731139677.6217165,827.4129861143456,805.7303710577678,796.1625143279142,849.2907816983096
1731139677.6256187,833.2963412558724,813.4971300825109,793.2149664286482,849.152694044611
1731139677.6278665,869.7536233487451,817.8928264059231,792.4294519671047,862.8908123192425
1731139677.6295214,905.5774862026617,817.7605895206704,791.9818948054049,880.4680647771339
1731139677.633424,909.9857547973967,814.0635694821879,790.0718094991215,889.4539404855441
1731139677.6373067,878.1215017156867,809.0429109115521,786.8358545987383,884.8247889645597
1731139677.6373267,835.2172069103804,804.7698708308113,784.4037042037006,872.3538010596777
1731139677.6412292,816.2189793373526,802.1714993138478,785.2556042057636,863.0539783784801
1731139677.6434276,837.673261422584,801.0522599596814,790.3899422237963,863.6045835741849
1731139677.6434407,884.6140031859032,800.7973336128135,798.6709306102714,870.9058165868618
1731139677.6451318,922.748351755891,801.0045253066269,807.5542134748259,875.23365001462
1731139677.6490345,925.860647474962,801.5312109280248,814.4036872991549,869.1126524162609
1731139677.6529367,896.2800465739629,802.1029663438914,817.4986052400085,854.2413237622512
1731139677.656183,861.9502943292276,802.0972814332275,816.3375927161196,840.5541222298232
1731139677.6568396,852.6658220205504,800.9148341434109,811.3960831480059,838.1869432464764
1731139677.6590154,875.2033603433711,798.6563648130951,803.7631163046317,849.0797464637855
1731139677.6607423,908.14394637535,796.3755853316845,795.0143656755396,865.2901387394975
1731139677.664645,920.7714149031564,795.509715193866,787.3027276287589,875.5555434692897
1731139677.6685474,900.0203294247239,796.8857633392336,783.1919017283819,874.7329808594619
1731139677.67245,862.4713012040393,800.1275529688785,784.7287440269334,868.1698860859323
1731139677.67459,841.0621972467231,803.9280573201655,791.968216361912,867.139024920472
1731139677.6750596,857.6277466581313,806.9164353040353,802.11217225273,878.9890369372811
1731139677.6763527,904.1931930230261,808.4348478949805,810.4722343418002,900.2845477821068
1731139677.6783447,948.3812833372051,808.7142063283584,813.1335424513495,918.850106587531
1731139677.6802552,958.1128040540915,808.4582029110713,809.5076580068802,923.1058458726751
1731139677.6841578,924.9984809203117,808.2730968166452,802.6639728914669,910.792475491482
1731139677.6880603,867.792216304456,808.381865724444,797.0217851802723,889.8087484115008
1731139677.6901643,815.333185648509,808.7023279796629,795.2233786108333,871.1259350401327
1731139677.6919632,785.7676424208712,809.0690770944353,796.6194451454484,860.772974393375
1731139677.693936,778.9279344733499,809.383198042627,798.2317361819415,857.6267375990874
1731139677.6958656,783.5914623859774,809.6358274355036,797.0105488931299,857.0573814108348
1731139677.6997683,788.8573275648445,809.8622580766165,791.6221352009143,855.4406798998049
1731139677.703671,790.0209263887411,810.0947011176742,782.9469302695488,851.8344793519634
1731139677.7057388,787.7356018745116,810.3439330684458,773.5079306020457,847.0616503456953
1731139677.7075734,784.4697018896222,810.6048082115451,766.2898037470802,842.1971062155401
1731139677.711476,781.9033731161323,810.8685788840145,763.3123696813957,837.7548147411112
1731139677.7128122,780.3195951901424,811.1304419531676,764.5155302393323,833.6871693342576
1731139677.713262,779.2211058604203,811.3903174809872,767.7075129133832,829.7350640260266
1731139677.7153788,778.0849389284045,811.6502316574513,769.8625976808221,825.7103417830538
1731139677.7192814,776.7034071945244,811.9118753005476,769.0482066331365,821.5728131115673
1731139677.7213132,775.1338680815226,812.175763301844,765.6463037409247,817.3708917498178
1731139677.723184,773.5115914995607,812.4416073766092,761.9811288138216,813.1607154357863
1731139677.7270863,771.920669489988,812.708977389665,760.6399797684587,808.9665593950194
1731139677.7309892,770.3705198160662,812.9776734569307,762.7100867124387,804.7837349647426
1731139677.7316887,768.8324534482786,813.2477411619296,767.1524723022264,800.5979388806685
1731139677.734892,767.2792092308363,813.5193237970834,771.6606365227756,796.399583766411
1731139677.7368877,765.7010611888004,813.7925368670954,774.2847946065287,792.1870175464005
1731139677.7387943,764.1017919525734,814.0674306767644,774.6076941751189,787.9629557517745
1731139677.742697,762.4885283131857,814.34401433506,773.6804671508477,783.730226152745
1731139677.7465997,760.8652899017436,814.6222912221168,772.9382983443298,779.4898771351606
1731139677.7481792,759.2321651131081,814.9022768889582,773.0975204512492,775.2414843308649
1731139677.750502,757.5874209090377,815.1839974167933,773.9079232213272,770.984210468005
1731139677.7505653,755.9295556082598,815.4674796377907,774.7257720015447,766.7175262858317
1731139677.752462,754.2580446919992,815.7527443786255,775.110599633834,762.4413349262608
1731139677.7544048,752.5730590100254,816.0398077438731,774.8298318277591,758.1557628848599
1731139677.7583077,750.8749176395859,816.3286887882069,773.5180939913168,753.8609407848476
1731139677.76221,749.1637689665519,816.6194162497264,770.7174325503439,749.5569202184895
1731139677.7661126,747.4395695736808,816.9120240358003,766.5245073635812,745.243701962663
1731139677.7680368,745.7022045020705,817.2065296635102,762.1995187144483,740.921288423385
1731139677.7694414,743.9515927165979,817.5029061133791,759.9136815059938,736.5897005938539
1731139677.7700152,742.1877193784297,817.8010795482055,761.5751490987711,732.2489588337195
1731139677.773918,740.4106159605557,818.1009899847368,767.5753613553009,727.8990715731646
1731139677.7778203,738.620331778889,818.4027096636378,776.4356360850705,723.5400802319602
1731139677.781723,736.8169237136691,818.7065233475251,785.6119720932153,719.1721594703204
1731139677.7830966,735.0004647542913,819.0128033586457,792.8229668884848,714.7956832916286
1731139677.7836113,733.1710545396478,819.3215888572989,796.9644100082567,710.4111063589999
1731139677.7856257,731.3288122573456,819.6320887056795,798.1480818439296,706.01858802667
1731139677.788318,729.4738459923024,819.9427292374805,797.1535222853475,701.6175685334782
1731139677.7895284,727.6062207344312,820.2524002879699,794.9131743475192,697.206853453059
1731139677.7934308,725.7259739611521,820.5626776182473,792.3265461031062,692.785758947526
1731139677.7973337,723.8332188927195,820.8790861352599,790.1894253363317,688.3560596404076
1731139677.7991858,721.9282996033431,821.2082948825527,788.9905079055259,683.9229713705607
1731139677.8012362,720.0118398771335,821.5499239098698,788.7268909926829,679.4924595564817
1731139677.8051388,718.0844735967587,821.8877230652989,789.0145279312668,675.0639119133486
1731139677.8071942,716.1462265678289,822.1921044269551,789.4206880003348,670.6226783021137
1731139677.8090413,714.1959864743815,822.4453819470789,789.7096831273169,666.1431473048585
1731139677.812944,712.2319485377247,822.6830693417049,789.8607646228119,661.6118674378774
1731139677.8147602,710.2536832060626,823.0122569120304,789.9530211940621,657.0637009964117
1731139677.8168466,708.2649715370277,823.5491885650947,790.0572646875687,652.5957710268984
1731139677.8180137,706.2743046516605,824.2572645148869,790.1959482206628,648.3095579983029
1731139677.820749,704.2892223599948,824.781692970211,790.3565500956543,644.1702835040518
1731139677.8246517,702.3045482421671,824.494616086435,790.5193091150834,639.8791206563355
1731139677.8260703,700.2935273860004,822.9058133363125,790.6737118159342,634.9636234208099
1731139677.8285544,698.2186012665992,820.2479683616565,790.8198150367368,629.2524242911497
1731139677.830335,696.0722093883857,817.6835574261173,790.9622147698163,623.5785875823291
1731139677.8324573,693.9281480596993,816.7394324505551,791.1046196547915,620.0684854824435
1731139677.8363595,691.9428682281546,818.2850767280366,791.2480740166992,621.2802656273963
1731139677.8402622,690.23853419096,821.8766033692408,791.3918595205079,628.3441380967546
1731139677.8441648,688.6813495243632,825.9860246581356,791.5349846365852,639.5508579808876
1731139677.844947,686.7395664885796,828.8696685841385,791.6769960200731,650.9103274328265
1731139677.845909,683.7366830230005,829.4022933089728,791.8179914044819,658.6492231727916
1731139677.8480673,679.666417855532,827.4161743618306,791.9582811981012,661.9135340631778
1731139677.85197,676.162049495204,823.5509176542254,792.0981105212772,663.5083729000091
1731139677.852931,676.51449203216,818.8593634799381,792.2375809063428,667.7451002308155
1731139677.8558726,683.7440812002912,814.3676861976506,792.37670671723,676.7882531304351
1731139677.8597753,697.4542789012381,810.700807157608,792.515494117622,688.4792588764366
1731139677.8614836,712.3622188025848,807.8960496322803,792.6539802012888,697.6802523331145
1731139677.8636775,720.9803336645791,805.533344659494,792.7922303913831,700.2214320108164
1731139677.8638234,719.1508569410682,803.1706693109248,792.9303196204334,696.2231800052132
1731139677.8675804,709.8035627074565,800.8258630431094,793.068318790818,690.0793420587977
1731139677.871483,701.3346472470579,799.1009658661046,793.2062926236301,687.2382781082397
1731139677.8753858,701.5854376262953,798.7223488421349,793.3443037866969,690.5218950775261
1731139677.8770585,712.1992362884043,799.7634226861644,793.482415637177,698.85983197997
1731139677.8792882,727.7850047035585,801.2466388469473,793.6206896961861,709.0251364187145
1731139677.8826995,740.2861691622514,801.6644974690021,793.7591803506527,718.4058828925067
1731139677.8831909,744.8766612926009,800.1553673299356,793.8979346041002,726.3487637576841
1731139677.8870935,742.9471865711789,797.3250885670066,794.0370044498115,733.422406213673
1731139677.887848,740.430926362499,794.8684865182953,794.1764693596297,740.0142019561454
1731139677.890996,743.1754919892007,794.2006121483684,794.3164483326764,745.8595271214214
1731139677.8926327,752.7334930268015,795.2565638317345,794.4570696067443,750.5640667815334
1731139677.894899,765.2954750347071,796.5198778758304,794.5983859799487,754.0322423112005
1731139677.898801,774.4565000405308,796.292283491911,794.7402869395179,756.3122653163758
1731139677.9015765,776.1454782535405,794.1833809785749,794.882531225894,757.6182803791735
1731139677.902704,772.3652250331564,791.6260203082791,795.0250122082078,759.1911851434961
1731139677.9066064,770.6403716048768,790.9819864015004,795.16817899653,764.1044567148169
1731139677.9082072,778.8404052030482,793.8736698069363,795.3132075874903,776.2565476264294
1731139677.910509,798.8311744390717,799.9652300889974,795.4613415780108,797.2980060141064
1731139677.9144118,824.0329625581609,807.0874443256985,795.6122592002667,823.896971445025
1731139677.9183142,843.4091643051554,812.5974838935696,795.7625488469049,848.472671312091
1731139677.9204526,849.2969734124306,814.9694667583287,795.9066530688127,863.9138728266553
1731139677.922217,843.1181878347062,814.5252083562393,796.0421832053961,868.9989953752396
1731139677.9227655,834.4410507234809,812.9422005197282,796.1776764954514,869.9379441027047
1731139677.9237816,834.0202798877978,812.0464680659625,796.3347590478108,876.1918972027055
1731139677.9261196,846.1118596568963,812.735981383374,796.5341490758001,893.3651620158792
1731139677.9300222,865.866127441644,814.5958572234673,796.7644095819239,918.6069681887992
1731139677.933925,883.6097953751524,816.2654648545114,796.9559869295856,942.2492834715919
1731139677.937827,892.4301379002253,816.2770842634939,797.0052745528488,954.554609540055
1731139677.939329,892.9406775341978,813.9552998936463,796.8800419067732,952.4271286242248
1731139677.939356,891.5935048253054,809.9300350942319,796.760782123207,941.1320257194493
1731139677.94173,894.4029961148166,805.8954864368205,797.059783783832,930.1842563960971
1731139677.9456327,901.7111497676328,803.6073887868391,798.1268737841068,926.9798716669949
1731139677.9495351,908.3905303585028,803.7043785403071,799.650487414453,932.9177719406094
1731139677.9534378,908.9306652967367,805.2753365685469,800.2099170833712,944.2284835390847
1731139677.9549303,902.7332307326717,806.6566471572744,797.7561428944625,955.9615534045355
1731139677.9573405,895.1020426825872,806.9105079970578,791.2922722230953,965.5716375683105
1731139677.9576826,893.2485234679416,806.721071704019,782.6285905161495,973.4926821101094
1731139677.9582057,900.6180695951269,807.8134402106565,776.2590804106227,980.8683975309531
1731139677.961243,913.9629075445296,811.2439267207427,776.6751455245114,986.9112009738017
1731139677.9651456,925.404015351351,815.9871004347104,784.9455441291544,988.4798608706732
1731139677.9690485,927.9963293134579,819.1727228119456,797.4722284445802,982.422013899051
1731139677.970505,920.6355862742403,818.0285651233951,808.1529084333531,968.709508962898
1731139677.9729507,908.5444884517136,812.074450075735,812.3066239333964,951.528141126713
1731139677.9768534,899.0073588604713,803.7417258087619,809.3543981206038,937.1073063053564
1731139677.9770818,895.8736892560929,796.8171697544643,802.4711283493476,929.8551589211759
1731139677.980756,897.3130525474546,793.9174174631557,795.8818358934866,929.8451465962997
1731139677.9846587,898.4458080036198,794.973568025326,792.0406280844923,933.5657502012839
1731139677.9860797,896.297521644705,797.7777311984958,790.6456412097065,937.1451246883971
1731139677.9885612,892.6826520724175,799.9141579491335,789.8629282125345,939.3399848719683
1731139677.9924638,892.5883422887197,800.4105297067549,788.4925840981326,941.9372481088922
1731139677.9926,899.5447074928278,799.9355728877254,787.2055493014254,947.4115523569378
1731139677.995958,911.9926129960811,799.7173688690455,787.8312263926446,955.9179146719672
1731139677.9963665,923.8168737000124,800.3193862678073,791.3831811412865,964.2605663633947
1731139678.0002692,928.7764720605334,801.2806471622561,796.6768378636358,967.8962318181251
1731139678.001654,925.2767259516683,801.7226477979167,800.9128198293232,964.4558545215116
1731139678.0041716,917.4702661350148,801.2244862869677,801.7993742721014,955.8101075511222
1731139678.0080743,911.6231291619945,800.1777368146776,799.3253026636556,946.7862800158348
1731139678.011977,910.7533726523092,799.3869865910196,795.6125813155055,941.5117340491043
1731139678.0148346,912.1740961603516,799.3413959951193,793.087971610165,940.4366017788997
1731139678.0158796,910.1063885944253,799.8180924020311,792.7160346035271,940.4040745053854
1731139678.0172286,901.0747733446287,800.1453513873805,793.7725402740572,937.4129749422231
1731139678.019782,887.3907949011341,799.862089158559,795.0052665970636,929.6224192835593
1731139678.0236847,875.7742114844174,799.1675431967972,795.7948199514265,918.4424855683383
1731139678.0275173,872.3257203674501,798.7541013764699,796.284679650675,907.4490288877386
1731139678.0275874,877.9539515686987,799.1831552523004,796.7635971786062,900.3191816369874
1731139678.0314898,887.7618589833056,800.3908107999983,797.2347052321529,899.0596451581498
1731139678.0328033,894.6830585001387,801.7931473878514,797.5279571104155,903.1775329902837
1731139678.033711,894.5072497011524,802.8831160034582,797.5686783960347,910.0160188207064
1731139678.0353923,888.5440485025993,803.7125151233047,797.4376658732652,916.1945599015056
1731139678.0392952,881.9920748152468,804.7453993347359,797.2633175054511,919.5091176433378
1731139678.043198,879.3290350123176,806.2095635301807,797.1244186923208,920.0517970125588
1731139678.0471003,880.4346356478326,807.628767494726,797.0324955630813,919.6070962001625
1731139678.0483775,880.7239602517869,808.0814788610824,796.9640246853121,919.7503372965592
1731139678.051003,875.3148561979705,806.9970740972622,796.8954517754195,920.3009984931655
1731139678.0525873,863.7135746182784,804.7212513040013,796.8180262645521,919.4795320727876
1731139678.0549057,850.8488135331249,802.2708652110528,796.7348501773614,915.4582516816037
1731139678.058808,843.339246635789,800.4713173151596,796.652177934836,907.7127224364331
1731139678.0624344,844.090156533693,799.2668768809478,796.5736979933802,897.0027647709584
1731139678.0627108,849.9321495713236,797.852655244193,796.4996745999848,884.3582670895576
1731139678.063952,854.4789252076373,795.5321287960242,796.4287166344541,870.3638146443399
1731139678.0666134,853.7883927433695,792.5306425554475,796.3595711685629,855.4405283867786
1731139678.070516,849.7907119483542,790.0083248222967,796.2918073871756,840.5617882328675
1731139678.0714636,848.2798535147915,789.2243282641782,796.2255962912697,827.3588534033928
1731139678.0744183,853.143103900614,790.5688129850263,796.1612389217751,817.3041596344757
1731139678.0783212,862.0968129557177,793.2851095295712,796.0988803601335,810.7306007187898
1731139678.0795264,868.0686278353998,796.0718923447142,796.0384817294139,806.7351529126076
1731139678.082224,865.3186911925702,798.0235576990542,795.9799217053895,804.2300025659089
1731139678.0861263,854.9730622984985,799.196596583632,795.9230936760265,803.2396254503828
1731139678.090029,844.9510919724671,800.4831466464316,795.8679441245707,805.0799445665372
1731139678.09034,844.0538978696995,802.9363987781993,795.8144609802137,810.8879774780634
1731139678.0939317,854.9391751422703,806.9224981546406,795.7626374498211,819.5684771143467
1731139678.095101,871.6045758263849,811.5646197171544,795.7124304886069,827.158265064332
1731139678.0973516,883.3689378764205,814.9432986321085,795.6637342621395,828.7547970807258
1731139678.0978343,882.3588553705735,815.1912109617124,795.6164009880347,821.942390572725
1731139678.1017368,868.9816856106996,811.9189160562847,795.5703348938525,809.003225492403
1731139678.1056397,851.4572625342147,806.8752265680998,795.5256254484314,795.8692753795502
1731139678.1092165,839.897062218966,803.0804722938466,795.4825858795532,788.4334245604559
1731139678.109542,839.4043219732938,802.8317726855722,795.4415190175166,789.0891783207211
1731139678.1106756,847.2413844784531,806.0095121982393,795.4021888727633,796.0558491636137
1731139678.1134448,855.8656855850287,810.0317918347757,795.3633739954737,805.559446068638
1731139678.1173472,859.1604106544319,811.5958695024291,795.3232591162578,814.7343005802921
1731139678.12125,856.9638700284088,808.994315189672,795.2812075256113,823.0345871730046
1731139678.1251526,854.6089441673826,803.3707371285838,795.2401696886357,831.5762105738143
1731139678.12625,858.1681562609995,798.0524507826457,795.2070711324396,841.427340734949
1731139678.1280928,869.3038550449793,796.419296529174,795.1879353381684,852.2857328323026
1731139678.129055,883.7143592807897,799.703611339582,795.1778470706188,862.3672950071633
1731139678.132269,894.2890510456485,806.1228268413619,795.1535013242693,869.4294388464833
1731139678.1329577,896.4844795104973,811.8943865068161,795.0825972075754,872.2089869111613
1731139678.1368604,891.7338860268159,813.5053646774478,794.9587598127663,871.3596419493027
1731139678.140763,886.1817672037582,809.8281664489798,794.8450680024865,869.2639159641939
1731139678.1418245,885.7018265772617,802.8009857166509,794.8742659983196,868.7677448849912
1731139678.1446657,891.1993631110852,796.3236502562503,795.1476994916701,871.5907341643309
1731139678.1469693,898.0407606594252,794.0875901147277,795.5449581624941,877.4239510643723
1731139678.1485682,900.0719070270561,797.600762689039,795.6006840219713,884.3100805813203
1731139678.1524708,894.8759845271824,805.476843066256,794.7111549722265,890.0497908789587
1731139678.1563733,885.9132131471262,814.3162690497049,792.7906535397558,893.6613778189302
1731139678.1573987,879.8133931526422,820.5907410680248,790.9673923595445,895.8569474593569
1731139678.160276,881.0926934653012,822.3629497960638,791.348324458869,898.1964857353199
1731139678.1641786,888.597976247432,819.8579121917303,795.3394997589419,901.5969477264274
1731139678.1658456,896.4846080812738,814.762540267061,801.7811151808518,905.4398745792888
1731139678.167186,898.8776728152376,808.9835094242603,807.1448244209886,908.1016595133647
1731139678.1680813,894.4921931638742,803.7580189097646,808.1714968596777,908.534177675279
1731139678.1719837,887.5486049049891,799.4761687943513,804.4403823429838,907.5031605773764
1731139678.1729734,884.2424042156515,795.9599538095314,798.2374092321613,907.2387214034788
1731139678.1758864,887.6260714607245,792.8074293072445,792.074038331801,909.6244152594968
1731139678.1797893,895.1624091315973,789.6845087338933,786.7152157357789,914.4798623544206
1731139678.1836915,901.0375963200414,786.6387140856403,781.705167828591,919.5485552545908
1731139678.184722,901.2234705646438,784.3583090174146,777.3167273542233,922.2927325561993
1731139678.1875942,896.8770143280373,784.0821419424675,775.2607180176665,921.9410973723813
1731139678.1885478,893.2188771912294,786.9925931123848,777.1339021848612,920.0553161990119
1731139678.1914968,895.0686105594767,793.3760423185935,782.3747950016682,919.2718960436957
1731139678.1953995,902.9659228455431,802.1494436380801,788.1549723812893,921.3868619638871
1731139678.199302,912.9767404575334,811.1627511809896,791.5037602593919,926.2429108005069
1731139678.2021034,919.9972010792516,818.1342561899029,791.5540911862516,932.001033360184
1731139678.2032046,921.6303102196041,821.6339073678649,789.7423207833301,936.349563366409
1731139678.2035985,919.5589157488059,821.5386453464309,787.9870046110993,937.7848497371108
1731139678.2041223,917.5378635794299,818.7920125982378,786.8460723380944,936.2794402886166
1731139678.2071073,917.8407685967566,814.7677746527486,785.4133384964948,933.0843676898124
1731139678.21101,919.2100818958914,810.7127336262533,782.7456049749378,929.8724792693301
1731139678.2149124,918.112661231889,807.5235107871539,779.111165503257,927.7826403656312
1731139678.218815,912.2376350866834,805.739665838347,775.8059637965495,926.9416278725975
1731139678.219697,903.043601008401,805.5041631092104,773.9661481335833,926.6239685150944
1731139678.2224748,894.8379405186466,806.4761807877125,773.731903351509,925.7097702687884
1731139678.2227178,891.0092128808994,807.9340172941552,774.4295723316922,923.0462190610609
1731139678.2266202,890.8039562194792,809.1618163727862,775.2816368588833,917.7213342345846
1731139678.2305229,889.7205862929694,809.8316892469654,775.8865231485266,909.4894272964409
1731139678.2344255,883.3465040833222,810.0494561058672,776.2348678279782,899.2058382476105
1731139678.2352717,871.2894370158458,810.1030129217593,776.4851252878116,888.6137121592936
1731139678.2370205,857.6764173179007,810.20618294727,776.7667081861583,879.0722266008088
1731139678.2383282,847.6086284160089,810.4163308911996,777.1149649490845,869.8919879583154
1731139678.2413511,842.3683875367566,810.6906749498548,777.5024764325838,857.765516100144
1731139678.242231,837.3184083531796,810.9711030064715,777.8918805632204,838.2780083502215
1731139678.246133,824.5609711565794,811.2295690368019,778.2648406110068,808.8848356736669
1731139678.250036,798.9160581608944,811.4686112801722,778.6226256247103,771.4058507769207
1731139678.250846,762.9675054161288,811.7023968107454,778.9741155453828,732.1185728584408
1731139678.253939,726.8699284248488,811.9412853093457,779.3258924112274,698.8814794547154
1731139678.257841,701.9516641427917,812.1875652801834,779.6794184112119,676.5626272485608
1731139678.2602277,692.1119524383328,812.4386613775637,780.0330229169938,663.4645956087414
1731139678.2617438,689.7430417352991,812.6915504861028,780.3847148565761,651.4793129220251
1731139678.2656465,680.3220881563389,812.9449385207967,780.7335925476216,630.7130016542751
1731139678.2664204,653.0741429406927,813.199114732431,781.079769770515,596.0505331786217
1731139678.269549,609.6606444162484,813.4548988134782,781.4237102788665,551.0927919582268
1731139678.2719378,563.7900499851886,813.7128559501512,781.7657238637572,506.3232197620882
1731139678.2734516,531.6640818313002,813.973117495582,782.1058467344353,472.56489922469694
1731139678.2773542,520.5055759693494,814.2355739793987,782.4439618296459,454.3816256083066
1731139678.279104,523.967284532034,814.5001075100835,782.77994708131,448.06185864791905
1731139678.281257,527.7802386633546,814.7666958300564,783.1137430502287,445.30971076775944
1731139678.2819948,521.0095010769815,815.0353961408299,783.4453436409098,439.6297477723515
1731139678.285159,504.0673556542632,815.3062873942667,783.7747595501664,430.70600252545523
1731139678.289062,487.4122905452664,815.5794309369676,784.1019928277235,423.82254464949887
1731139678.2929647,482.34025558038223,815.8548637940855,784.4270321002939,425.05560740522094
1731139678.2968671,491.487223443324,816.1326101094319,784.7498596521386,435.94130456405776
1731139678.2975693,506.70070436041306,816.4126927134446,785.070459167167,451.6197046874505
1731139678.2979803,515.8563961775976,816.6951366670717,785.388818906236,463.9225836365277
1731139678.3007698,512.9167513816167,816.9799667552104,785.7049309243994,467.19613255701535
1731139678.3046725,502.8913738298762,817.2672051806131,786.0187890613768,462.4263232705567
1731139678.3068552,497.5407766246275,817.5568739805308,786.3303876456177,456.3470829701545
1731139678.3085752,505.38199931208493,817.8490010593084,786.6397212991737,456.16127628220266
1731139678.3124776,524.433349499196,818.1436223556029,786.9467853211058,464.18929564462246
1731139678.313144,543.8735680985105,818.4407706888212,787.2515760626237,476.82950127346743
1731139678.3163805,553.15029765338,818.7404503790349,787.5540910461127,488.40272358000425
1731139678.3168569,550.698875387263,819.0426166056991,787.85432888081,496.22166640380067
1731139678.3202827,544.9233514823001,819.3471963146161,788.152289124178,502.460262094369
1731139678.3241856,546.8668579716425,819.6541754049532,788.4479721863264,511.56315728024776
1731139678.328088,560.9879749298273,819.9637131610243,788.7413792918351,525.8578621876165
1731139678.3287184,581.7249791350756,820.27615354716,789.0325124687299,543.2320238705585
1731139678.3319907,598.3550785160062,820.591780089223,789.3213745341446,558.5783653325843
1731139678.3357332,603.7490642831036,820.9103305768615,789.6079690651846,567.484436758863
1731139678.3358934,599.7680358793223,821.2306585204333,789.8923003588943,569.1359645718786
1731139678.3397958,595.2573904730216,821.5512282153131,790.1743733894449,566.4941226771513
1731139678.3417723,598.7715212983131,821.8718295517266,790.4541937674514,564.1260351602036
1731139678.3436985,612.1006657154421,822.1956377406996,790.7317677019255,565.5676035424467
1731139678.3442929,629.4801858588439,822.5290810834564,791.0071019632076,571.8759702849366
1731139678.3476012,642.5260489808095,822.8768006222577,791.2802038453684,581.7719118164182
1731139678.3515038,646.5880002174696,823.232515843478,791.5510811276092,592.7405222407601
1731139678.3546095,643.6041173426535,823.5736373837372,791.8197420349671,602.2897762670684
1731139678.3554063,639.7619924369914,823.8724078539307,792.0861951988254,608.9852004116599
1731139678.359309,640.4875765640234,824.1292361869043,792.3504496175731,613.202829153048
1731139678.359867,647.028496764548,824.4090099249615,792.6125146175586,617.3557813887794
1731139678.3632116,656.8993998464049,824.8309391993544,792.8723998143583,624.9790319057087
1731139678.367114,666.8234295432421,825.4631786877337,793.130115074265,638.4230538664673
1731139678.3710167,675.0719305148957,826.1433293671613,793.385670475779,656.3624311489189
1731139678.373486,681.5991829686702,826.3696811571784,793.6390762708817,673.526008165303
1731139678.3749194,686.9145469724594,825.4605277716223,793.8903428462138,683.9512036432648
1731139678.3754418,691.3444881142772,822.9999903061254,794.1394806850124,685.7494452311178
1731139678.3766897,695.0377201200115,819.260714302742,794.3865003312367,683.0745859390192
1731139678.378822,697.9949128670805,815.1939361166982,794.6314123566953,682.8650960674859
1731139678.3827243,699.9109390646008,811.9049240638533,794.8742273294671,688.9009513832503
1731139678.3866272,700.5129814427273,810.000531641246,795.1149557786151,698.78132983194
1731139678.39053,700.6224471687661,809.3340855041216,795.353608149879,706.9042363671335
1731139678.3910162,702.7277930521616,809.3000257751072,795.5901947541277,710.5157961415763
1731139678.3923624,709.6091372668559,809.3301913776079,795.8247257243465,712.6225048410372
1731139678.3944323,721.548839107291,809.1694243445136,796.0572110066684,718.7595988628805
1731139678.398335,734.917623203314,808.8376371814804,796.2876603965909,731.0877036060372
1731139678.4022377,744.3939679900309,808.4543712811641,796.5160835820104,746.0954504101561
1731139678.4061403,747.5490300694697,808.1052759910432,796.7424900953566,758.2851874917862
1731139678.4065907,747.5872726276087,807.8072400349847,796.9668890811874,765.902314507321
1731139678.4100428,751.2025040789529,807.5368047779014,797.1892889312911,772.772850836828
1731139678.411239,763.0387337020134,807.2677287911049,797.4096971027144,784.468634961079
1731139678.4116068,781.6860065727506,806.9889183827986,797.6281205884387,802.7479783295729
1731139678.4139454,801.0101913028325,806.7026842270168,797.8445671866752,823.7894782369154
1731139678.417848,815.8297478611819,806.4156208929303,798.059046749412,841.9031224512086
1731139678.4217508,826.8533150173017,806.1320110118907,798.2715705361443,855.0774077660903
1731139678.4221654,840.2099110885675,805.8524348195218,798.48214706933,866.995151598547
1731139678.4256532,861.6978073099931,805.5754855619733,798.6907758487002,883.5821925301188
1731139678.429556,890.8018095672413,805.2997479881686,798.897445196703,907.350163601312
1731139678.4301152,919.960551729387,805.0246538054173,799.1021428247278,934.7416264312003
1731139678.4334586,939.9808752051,804.7503200754891,799.304880614557,958.7339111073159
1731139678.437361,947.0889169360563,804.477051475733,799.5057164298802,974.2279050929649
1731139678.4377398,945.736205095841,804.2050088227224,799.7047372959896,981.6347379075661
1731139678.4412637,944.9655961637404,803.9341556272113,799.9019771405693,986.0353592296871
1731139678.4451663,951.4802590033103,803.6643571809351,800.0973018588321,993.1049502501878
1731139678.446524,965.0416417025781,803.3954839374076,800.2903854310581,1005.3016433102222
1731139678.4489915,979.642926753252,803.1274542572017,800.4809325907743,1021.0247876072438
1731139678.449069,989.1168621622876,802.8602268947686,800.6691514096967,1036.7193101101113
1731139678.4529717,992.3878089314708,802.5937764160337,800.8561203321246,1049.7608159583697
1731139678.4533143,994.1119018439641,802.3280705418298,801.0433760948342,1059.9179994571039
1731139678.456874,1000.374560802591,802.0630514819879,801.2312880646181,1068.723128075522
1731139678.4607768,1013.198534196358,801.7986242928737,801.4169723842391,1077.6435024097464
1731139678.4646792,1028.5431905334292,801.5346692516192,801.5941677441483,1086.5513516682802
1731139678.467868,1039.4999586395602,801.2710973545142,801.7578557676555,1093.612720621249
1731139678.468582,1042.0029951680585,801.0079337037071,801.9132039646958,1096.7245280294107
1731139678.4688888,1038.2681948426994,800.7453489816719,802.0815670462449,1095.4774834899295
1731139678.4724846,1035.0850512319334,800.4835244597931,802.2909266580248,1092.0220612182916
1731139678.4763873,1038.3430592455873,800.2223241477597,802.5440436247411,1089.8661080867637
1731139678.4802897,1048.2142364993492,799.9609934071476,802.781113962212,1091.3328087918212
1731139678.4814413,1058.8191688569927,799.6983569340013,802.8841074064483,1095.7538061474247
1731139678.4841924,1062.599050581636,799.4338911811748,802.7723376967043,1100.0516573369396
1731139678.4844632,1055.9577810671435,799.1692729206459,802.573088182513,1101.3455946521194
1731139678.4867442,1041.8431831047283,798.908785339812,802.7241451709665,1099.4001862137097
1731139678.488095,1027.378052993319,798.6564778427745,803.8101064702222,1096.836040585513
1731139678.4919977,1018.501669491892,798.4099080998127,806.1530940413376,1096.9476441368101
1731139678.4959002,1015.8781677024908,798.1550485877113,809.5277030665628,1100.9539035590128
1731139678.4998028,1015.2199366593693,797.8713648505067,813.2814128669644,1106.8233763946018
1731139678.5000377,1011.4725889418647,797.5533553000995,816.5940029290382,1110.3906175429352
1731139678.5037055,1003.1165671652054,797.2396273821983,818.4892160720794,1107.7714600913166
1731139678.5056207,992.981410760997,797.0189322680335,817.8226303506843,1097.4917430950786
1731139678.507608,985.2573223097237,796.9790274727197,813.7885752521531,1081.3048345316142
1731139678.5115106,981.7053866480737,797.1128839457152,806.8019179407373,1063.4719856496874
1731139678.5154133,980.433144580221,797.2883404812941,798.7854680509256,1048.7898240142833
1731139678.515612,978.0006020741024,797.3983344751477,792.1955696184021,1040.1153261642237
1731139678.5163586,972.6780748499829,797.6142541857793,788.4011901730946,1036.666886285078
1731139678.519316,965.920436587901,798.4289207171427,786.846067687817,1034.366488004268
1731139678.5232184,960.8641537854536,800.2706845493057,785.7862952828715,1028.384385665258
1731139678.524497,959.2103828107568,802.9228614509893,783.920507534593,1016.3928252310204
1731139678.5271213,959.2164138673284,805.3102760627671,781.4006673745,1000.2491088212383
1731139678.5310235,956.7152151379499,805.9952375290239,779.3348055066602,984.8384626309277
1731139678.5311868,948.6581603965185,804.1154122183129,778.3592888439582,974.9525481438251
1731139678.5349262,936.3933391573585,800.07187365514,777.7640666885244,972.530351866342
1731139678.5388288,925.6958908979033,795.4413818441238,776.1206869040662,976.0598707892868
1731139678.5427315,922.967762506385,792.1767677759767,772.8730967391718,982.0177401540982
1731139678.543373,930.2574059135954,791.6256803291378,769.3248822792492,986.7871251048996
1731139678.5466342,943.0413016713153,793.8901285985739,767.9077200722419,987.7459013915361
1731139678.5467613,952.7914009831477,797.7377151609396,770.1748675406942,983.5161911691551
1731139678.5505366,952.6839698561062,801.046083876879,775.2099846162574,974.1183305675991
1731139678.5512755,942.2933226229741,801.6957814844615,779.9138936861913,961.2707857224664
1731139678.5544393,927.7379830618205,798.681542519435,781.095072043718,948.2006599853771
1731139678.558342,917.1068924366098,792.9190667861196,777.79433429024,938.389485160248
1731139678.562245,914.6014010729394,787.1311422040937,772.1089311327551,933.7856803998117
1731139678.56225,917.8615804971544,784.6295420086648,767.9843321725803,933.8695734620528
1731139678.5623355,920.4442893548227,787.553838259857,768.8835808308221,936.3938757053788
1731139678.566147,917.2884351815012,795.5881641454367,775.8361999021532,939.0989616517182
1731139678.5700498,908.6379278013377,805.9776886721901,786.9501525330767,940.8538847667029
1731139678.5739524,899.3077529001764,814.9293735438173,798.5340551058902,941.402438766774
1731139678.5778549,894.1476452225253,819.6271955730568,807.0477708498738,940.337140068204
1731139678.5779102,893.6571154393463,819.6206142130746,810.6390742456852,936.5410707327046
1731139678.5811262,893.3894725164548,816.6635565075463,809.4105710064936,928.6593396472067
1731139678.5817575,887.5486199397249,813.1507439735938,804.6203361378516,916.1059674909798
1731139678.5856602,873.8440358917505,810.3913338433173,797.8308228629128,899.7458366511944
1731139678.586193,855.7817162261862,808.1040701081694,790.7427357369357,881.8260774744338
1731139678.589563,840.5726106058789,805.4474624322779,785.3713262398586,865.2955376161747
1731139678.593465,834.1265121358398,802.501217749063,783.6079985639254,852.8277248458814
1731139678.5934846,836.8155411694992,800.7038063744396,785.9159103174487,845.7888772323922
1731139678.597368,843.2303256101471,801.7590234082093,790.2759600403258,843.4580581159765
1731139678.6000023,846.2092744848604,806.0040352910406,792.894935488789,842.9915942039617
1731139678.601271,842.079195555197,811.7679862181591,790.7924294019857,840.4902368186534
1731139678.605173,832.9719602920502,816.3577212270758,784.3486334398563,832.8714707418703
1731139678.609059,824.3862407026312,817.8561258367365,777.4013517606651,819.5322842983426
1731139678.6090758,820.1322962788538,816.2414794535055,774.4201894203181,802.7211331526861
1731139678.6129785,819.0424582830202,812.9887505931044,777.013117843761,786.313107999622
1731139678.6168811,816.2684868397495,809.6482071427569,782.798706747207,773.7343066816953
1731139678.6188793,807.9336720018412,806.7184068284655,787.5636522811777,766.308640679357
1731139678.6207836,794.989794868005,803.760406523837,788.6372050317761,762.9595747939034
1731139678.6211102,782.9011951593407,800.519140523346,786.484740867654,761.3107487269363
1731139678.6246336,777.4139712264647,797.8911133367143,783.4353965620675,759.4057437595857
1731139678.6246862,779.943289219398,797.7213289416756,781.1646496525153,756.9510533342138
1731139678.628589,786.3727893246134,801.4892760060352,779.4421923779328,755.3058242757195
1731139678.6324916,790.249691840022,808.9745312918959,777.1189028590416,756.2490155907292
1731139678.636394,787.775423206622,818.0369699660022,774.0677713702934,760.399924936582
1731139678.6377554,780.4947666929858,825.6985673951143,771.9816107316834,766.4340857452893
1731139678.6402082,773.4749968250425,829.6981689545294,773.1820507516701,771.644784313593
1731139678.6402967,770.5961917448702,829.4896281817701,778.5623898430265,773.3987809525971
1731139678.6441994,771.0979430472839,826.240052899737,786.5620358043077,770.4495726537234
1731139678.6481018,770.4455761351326,822.0546103842083,794.0220977695284,763.3256067852062
1731139678.6520045,764.7494728913596,818.9251610786077,798.0732325898628,753.781673018477
1731139678.6557827,754.7943680408122,817.863324965034,797.5362093870223,743.9015964373722
1731139678.6559072,746.0538401722996,818.564330598736,793.1015711601096,735.4365858852732
1731139678.6560276,744.5358702319261,819.7539869086618,786.6899735406593,729.5003516449498
1731139678.6566317,751.8380787339221,820.037302522491,780.6801362105303,726.3660582625445
1731139678.6598098,763.455549338625,818.746421016475,777.1935112579971,725.2333041492416
1731139678.6637125,771.8034849344516,816.2542591724485,777.3245455446954,724.2802220434534
1731139678.6676147,771.7299447358198,813.5816943480796,780.5607673100785,721.4516516228161
1731139678.6713572,764.3255666478922,811.65441100169,784.9954000432699,715.8639532827162
1731139678.6715176,756.0777075961071,810.8277146400357,788.509000555251,708.852781529745
1731139678.67542,753.9535168812008,811.0127620511267,790.1525217134896,703.5165371704086
1731139678.6755085,760.113755593397,812.1268220807008,790.5988679451822,702.6165921118494
1731139678.6793227,770.2320197464459,814.2766175247923,791.2821792739105,706.2149028889874
1731139678.6832254,776.6536671410703,817.4438231909512,792.9835742804271,711.061143404942
1731139678.6869316,774.0269536005273,821.0886005262873,795.030296311099,712.6438060541116
1731139678.687128,763.2578964197577,824.2443421757997,795.6878311130037,708.6445451098333
1731139678.690945,750.9007052932885,826.1178469607551,793.4046984381772,701.0822764218345
1731139678.6910305,744.4246646623293,826.581577348558,788.02742145977,695.16499038831
1731139678.6943846,746.820513765895,826.010494613888,781.1479012125919,695.4557969224466
1731139678.6949332,754.558847817781,824.6338021602344,775.2662662963053,702.2895758228746
1731139678.6988358,760.4807134143479,822.1373698527032,772.2343091714533,711.3184387414631
1731139678.702506,759.4274050054726,818.0182189673211,772.0579481378522,716.5360611583875
1731139678.7027383,752.1799167473818,812.3916287669997,773.0138947779928,714.3300980028321
1731139678.706641,744.5589716578982,806.436114086137,773.0559778959905,705.4858868742932
1731139678.7105436,742.5007899846729,801.9667982160663,771.3934585935785,694.0004015698461
1731139678.713261,747.2654022758476,800.4109660305851,768.9617448661047,684.1476590906341
1731139678.7144463,754.7265911988975,801.9348423939161,767.4968445154199,678.2218431520079
1731139678.7180803,759.1435184258356,805.28056783759,768.1276758897834,676.2583731720343
1731139678.7183487,758.065309541882,808.346272430317,770.683537949061,677.1776355749745
1731139678.7222514,754.2234137322241,809.1610206911483,774.1321627882652,679.9165285348663
1731139678.725862,752.9030297091929,806.801809855485,777.5788511202146,683.6873199140875
1731139678.726154,757.0422296242193,801.8541763069226,780.9266155480234,687.6380698565671
1731139678.7300568,764.1756947266861,796.1831744360643,784.7201020732635,690.717083111333
1731139678.7321374,767.9197087533872,792.0817820230423,789.3946305441955,692.1255447519811
1731139678.733655,763.0777828111396,791.2007369960695,794.612706985524,691.983899898355
1731139678.7339592,750.3653329856587,793.8158888046673,799.2939836851394,691.5360209715095
1731139678.737862,736.7038766631538,798.8122550056247,802.3385546250557,692.5939597785884
1731139678.7417643,730.390633872899,804.3363002751888,803.3693172718473,696.5426322031583
1731139678.745667,734.7576543582603,808.6685086740656,802.7757306248835,703.5118292130408
1731139678.7492297,745.503174579841,810.8001111592923,801.0920218268278,712.1560543016986
1731139678.7495697,754.0242333553807,810.5155277284307,798.5003744159386,720.1624836873546
1731139678.7510138,754.0768118963746,808.1793287837418,795.0907653830382,725.3544366779657
1731139678.7534723,746.3240537560694,804.5214227074945,791.5704346053591,726.968394516654
1731139678.757375,737.201998202404,800.4788346497323,789.5005892355746,726.3466626241827
1731139678.7607791,733.2977155649274,796.944814576048,790.5632785484681,726.3379623536082
1731139678.7612774,736.0141422327581,794.3976471821766,795.3391149848571,729.4982392751855
1731139678.764804,740.8577982351744,792.6890117304534,802.5881526283873,736.2572416186249
1731139678.76518,741.7557685130835,791.3170102998032,809.6518338707914,744.4893660312488
1731139678.7690828,736.615221507102,790.0856464778907,813.7633377748856,750.9263533453949
1731139678.76989,729.297704210006,789.5423543470928,813.4483609232847,753.3724528024555
1731139678.7729857,726.2496980344342,790.6268677623325,809.1740789334318,752.0575690313425
1731139678.776888,730.7367047656012,793.6945101036633,802.8881827517479,749.2284157638783
1731139678.7803786,739.8574866039206,797.8168679179995,796.7697970126294,747.5037285393057
1731139678.7807906,747.1052280636693,801.170477445984,792.017983670517,748.3701042157066
1731139678.7846932,748.2321323226485,802.3608491171741,788.5039807046868,751.8492312904177
1731139678.7885957,745.1557214176407,801.5918805032464,785.4962246012128,757.2594860097693
1731139678.7887666,744.4107449745098,800.6035098282629,782.7871994749668,764.1146083475904
1731139678.7924984,751.4821625054838,801.2919224700429,781.1675100924263,772.2387549278504
1731139678.7956965,765.8292620532502,804.0502651769707,781.7804145613754,781.0306817761222
1731139678.795953,780.6885570922491,807.1928824964594,784.9716850187966,788.7314391108692
1731139678.796401,787.8163405102532,808.0642639438167,789.7508194881211,792.7167091114868
1731139678.8003037,783.5368986910992,805.1153077560169,794.3871009594706,790.9984277810829
1731139678.804206,771.5524394558071,799.3578689292422,797.59459686668,783.9150491319862
1731139678.8076427,760.401653639663,793.9613097614046,799.2649060707831,774.5233784237419
1731139678.8081088,757.4088814349666,792.1757182770715,800.1908476091126,767.0644256542894
1731139678.8115275,763.5968485995085,795.1210543105694,801.1533844951368,764.4478223510372
1731139678.8120117,773.3638958164495,801.0943463424434,802.2546423560757,766.6236227670677
1731139678.815914,779.1449791202366,806.8275854591179,803.0597629382348,771.111684626442
1731139678.8198166,777.4311251646234,809.6607449546673,803.295517132964,775.2568070628125
1731139678.8237193,771.4290510106529,809.0673258878793,803.3154759467076,778.3599647845572
1731139678.8265193,768.2900210599297,806.6301710570316,803.8080901596508,781.920747432439
1731139678.827102,773.1860973079527,804.7077880310853,805.0436739192884,787.8181988280667
1731139678.827622,785.023290117487,804.8026515912384,806.4777903152769,796.0536405878789
1731139678.8306136,797.1906911011077,806.6810249564726,807.1729938240613,804.1148407337973
1731139678.8315244,802.6139314575694,808.7260678606484,806.629071080474,808.6415937033868
1731139678.835427,798.9145047897917,809.1825884731887,805.1799866717586,808.0218375350021
1731139678.8393295,789.5762704477796,807.3434900569591,803.6153823234694,803.6592270846928
1731139678.8426766,780.6312217876657,803.8036403968299,802.5132098543295,798.8295675540948
1731139678.8432322,776.1935260953949,799.7149297645908,801.942255472447,796.2581607341616
1731139678.8453958,776.5510448674241,795.855728404766,801.6455182642515,796.5906330350338
1731139678.8471348,779.4834079985035,792.4096616619944,801.3574744075758,798.7511694053093
1731139678.8510375,782.6619777610586,789.5219825257202,800.9654087547158,801.3030511027978
1731139678.8549402,785.0025137957979,787.8455155040858,800.4896624353244,803.4319712539592
1731139678.858251,786.5798345805475,788.3221377731486,799.9940793392625,805.0609979855525
1731139678.8588426,787.9029386776314,791.3001816210028,799.5210056646772,806.4656566399493
1731139678.8627453,789.3438572669993,795.8334503099148,799.0770020183372,807.8968433695262
1731139678.864272,790.9815540340555,799.9128626850014,798.6491325101551,809.4369287512334
1731139678.865531,792.7191901614531,801.6025273009445,798.2241705030154,811.0441202645966
1731139678.866648,794.4447822009545,800.3078254111113,797.79704199546,812.6494116163792
1731139678.8705506,796.109855489709,797.2561575456929,797.3693622952436,814.2153589250906
1731139678.8738256,797.7236165215814,794.7881229337889,796.94462722809,815.7416590178158
1731139678.8744533,799.3144257882569,794.8909531074589,796.5249705312282,817.2443552346233
1731139678.8783555,800.9012791002903,797.9908634022707,796.1106203368871,818.7366935075561
1731139678.8822584,802.4874069887237,802.8715298257313,795.7008553366965,820.2226470462667
1731139678.8831484,804.0673791334893,807.725301665272,795.2950080845513,821.6999313293767
1731139678.8861609,805.6355739838137,811.446294047002,794.8928616626606,823.16521392746
1731139678.8894,807.1899427413202,814.1384487719987,794.4945377541644,824.6170121164765
1731139678.8900635,808.7313986138349,816.5645878265901,794.1002360467114,826.0557857971717
1731139678.8939662,810.2617071376147,819.1894422222125,793.7100725554718,827.4827665032673
1731139678.8978689,811.7820503920738,821.7212282162528,793.3240614698516,828.8989745780895
1731139678.900448,813.2927780831021,823.4799501369837,792.9421700266829,830.3049312665271
1731139678.9017713,814.7938242510965,824.1373390200024,792.5643705139245,831.7008494906929
1731139678.902025,816.2851491331132,824.0988830331271,792.1906586209633,833.0869111559138
1731139678.9049745,817.7669145167873,824.1884836300798,791.8210459359844,834.4634077751324
1731139678.905674,819.2394337359419,824.9295883098288,791.4555460011684,835.8307330421195
1731139678.909577,820.7030563136501,826.0595910969968,791.0941661051357,837.1893147892794
1731139678.913479,822.1580997068155,826.7252637057477,790.7369063321969,838.5395633776573
1731139678.9173818,823.6048488794502,826.2373385200499,790.383762182923,839.8818627816914
1731139678.920549,825.0435870257796,824.7523875915899,790.0347276211893,841.216591674304
1731139678.9209013,826.4746119708151,823.2608135952887,789.6897977307493,842.5441474210509
1731139678.9212844,827.8982159291519,822.8597105738249,789.3489708145213,843.8649478454969
1731139678.925187,829.3146438013212,823.9547224259948,789.012248237341,845.1793987118825
1731139678.9290895,830.7240807359987,826.0817079453606,788.6796291303086,846.4878419826633
1731139678.9329922,832.1267257811814,828.3899474387694,788.351099855268,847.790536347043
1731139678.9353654,833.5229504499061,830.1882434865688,788.0266258624125,849.0877365729998
1731139678.9361234,834.9134174259648,831.0353304810839,787.7061607955139,850.3798826967999
1731139678.936895,836.2989317267632,830.5242096400895,787.3896826858061,851.6677676058368
1731139678.9397776,837.6798866951258,828.3299270893219,787.0772407891557,852.952410786486
1731139678.9407976,839.0555741590904,824.7169758843123,786.7689592113944,854.2344326715687
1731139678.9447,840.4241819263174,820.9523556186286,786.4649347275737,855.5131768939274
1731139678.948603,841.7843935962688,818.8808996026798,786.1650369363167,856.7865216790846
1731139678.951698,843.1383897662539,819.6728655032446,785.8687716807295,858.0525680851484
1731139678.9525054,844.4937460745275,822.7447105053651,785.5754902075,859.3132399702994
1731139678.9564078,845.8600050047307,825.9603708694165,785.2850986616058,860.5770978361884
1731139678.958654,847.237839017264,827.1491662365644,784.9989002533231,861.8562325190355
1731139678.9603105,848.6067295381977,825.7078406850756,784.719521829477,863.1538994639203
1731139678.9642131,849.9271010875498,822.8846161980115,784.4488169633412,864.4485822418568
1731139678.9672723,851.1729749583735,820.5125969285402,784.1841094177947,865.6929024215789
1731139678.9681158,852.3881338764099,819.3684771608814,783.9160356913046,866.8486155878699
1731139678.9702828,853.7152622338476,818.643036538202,783.6332423454458,867.9545698279746
1731139678.9720182,855.3196148434471,816.9515390974285,783.3361971601843,869.1721940639301
1731139678.975921,857.177535577906,813.8923393170235,783.0521095694083,870.7114521891222
1731139678.9775305,858.855730553121,810.6826001790461,782.8306893318296,872.5828593831405
1731139678.9798236,859.5830004868291,809.2714665433627,782.7013278551269,874.2946211954479
1731139678.982847,858.8768863296045,810.7328878876403,782.6022735292499,874.8294583655628
1731139678.983726,857.4850913731782,814.3802961567853,782.3460703066603,873.2045867456569
1731139678.9876287,857.6317782048528,818.3451576236616,781.71487680097,869.3797030022807
1731139678.9915314,861.5765304697942,821.0050916611425,780.7048447043788,864.616272767796
1731139678.995434,869.1219063315696,821.9366659754683,779.7574952122403,860.6365095291127
1731139678.9964068,876.510191493463,821.6514474056925,779.7294346199384,858.2430881770158
1731139678.9984214,878.5147114923136,820.6113471325646,781.5445566402335,856.8729389861074
1731139678.9993365,872.5109059260595,818.6568030678384,785.732662362336,855.6044908626342
1731139679.0032392,861.0733364081184,815.4322329199181,792.0783915500269,854.4925441646286
1731139679.0052,850.6127003810459,811.2884693811695,799.508943849412,854.7751620093952
1731139679.0071418,846.867591445137,807.628622551886,806.342971818136,857.7728492297558
1731139679.0110445,850.7399889568588,806.2289276542136,810.9402311086023,863.621754825709
1731139679.013996,857.7623325063219,808.0821004942691,812.4913956336861,870.9777459030524
1731139679.0149467,861.6275347570245,812.7345070200539,811.4395196049094,877.7403942944607
1731139679.015283,859.0204332951308,818.5649102834973,809.170978832824,881.9807829194601
1731139679.0188496,851.972870553104,823.6254238533736,807.1096008469005,882.4216871964142
1731139679.0227523,845.9219809497862,826.3754482655161,805.8099304853953,878.5514276608108
1731139679.0266547,845.0676581784167,826.0022310263645,804.7198917250169,870.7589891072352
1731139679.0295703,848.798813577984,822.4638717270496,802.8623870187967,860.4801457453076
1731139679.0305574,852.1118995404129,816.4473110334324,799.9599626115896,849.9333320650304
1731139679.0341597,849.7220203665719,809.2272563121124,797.0134064275289,841.2752650790546
1731139679.03446,840.5697656478104,802.3339430414335,795.6356324462494,835.6732716297103
1731139679.0383627,829.0790363014577,797.1017792429496,796.5392959825793,833.0318289625964
1731139679.0401173,822.0766076254845,794.3243126836383,798.5511668291736,832.5606958805245
1731139679.0422652,823.6847701765925,794.1498942988296,799.2739979775142,833.5870135010482
1731139679.0451448,832.0949664278611,796.1317468020394,797.0369562799191,835.8186604835124
1731139679.046168,840.7352075641405,799.3061002435084,792.4331093438898,838.8604993279639
1731139679.0500703,843.0223521277218,802.3666183234074,787.9617555543115,841.5749418674483
1731139679.053036,837.1164365894413,804.1043692093082,786.0018999319548,842.0979268714972
1731139679.053973,827.0146075629613,804.0270545100096,786.9138034208703,838.7525539037175
1731139679.0578756,819.1573009120635,802.7032770676094,788.9414752073467,831.240395426301
1731139679.0607195,817.3371368605789,801.413293595601,789.90073401043,821.0975548250152
1731139679.0617783,820.0794690914897,801.2369940197847,789.056447508417,810.8762185599414
1731139679.065681,822.5099746287497,802.2538476439806,787.5829475829397,802.5411146446303
1731139679.0695834,820.8719434565378,803.4869894422742,787.3958815520175,796.3211356155526
1731139679.0719123,815.7138245605764,803.6142311929898,789.5092092213603,791.0117761577029
1731139679.073486,811.1364654412783,801.8751735432211,793.2591391670597,785.5376722112982
1731139679.0750344,810.971417950219,798.5320693091783,796.8493601452682,780.3930099566442
1731139679.076294,815.2743705716924,794.6598017709044,798.6403929882889,777.5194518725483
1731139679.0773888,820.0956010938564,791.5257636259921,798.1882971381964,778.5286562319625
1731139679.0812914,820.6754000117674,790.0123558685427,796.3452401855757,782.8316016615014
1731139679.085194,815.3436887291053,790.3804484397876,794.4354398285996,787.5560024552669
1731139679.0890963,806.8195741389599,792.3661928695877,793.1683843376629,789.5933435805778
1731139679.0907888,799.880999444807,795.4007073176234,792.1464489036424,788.0834449064197
1731139679.0918684,797.6017996307678,798.7774300938552,790.3802401477552,785.1139481474306
1731139679.0929992,799.5049181150864,801.776715350405,787.3949709424109,783.9481205615042
1731139679.0969017,802.8571589685665,803.8519070244065,783.9482961341943,786.26583642906
1731139679.1008043,805.2580150866066,804.8527067837432,781.6455103921693,790.759762911108
1731139679.104707,806.0226811190953,805.0781987581345,781.7101584047016,794.2843770273473
1731139679.1074429,805.778126447381,805.0163816973086,783.9989765447965,794.6100880720537
1731139679.1086097,805.3942101143182,804.9597837640758,787.1944876165045,792.4392588871661
1731139679.1096652,805.3246949007075,804.8967972059339,790.0128490713167,790.8591298375147
1731139679.1099515,805.5684535181747,804.814404220708,792.2489330136451,792.540027190826
1731139679.112512,805.9319718978549,805.0278169088253,794.5873062676376,797.0668720427093
1731139679.1164148,806.2607447474237,806.0176337743867,797.3259451205073,800.9391141185079
1731139679.1203177,806.513824760813,807.7911169540237,799.3442695248299,800.5468275683927
1731139679.1230173,806.7247349250671,809.4504241484168,798.5744891838407,795.6089230805654
1731139679.12422,806.9380773025794,809.6216688268428,793.8273479374535,789.8622379401415
1731139679.1281226,807.1753425596193,807.5724086951917,786.3578950363927,788.1859054342522
1731139679.1285417,807.4346464892155,804.0599187044944,779.531777738479,792.7044523108453
1731139679.1320252,807.7052180285698,801.0650618656169,776.5733643040851,801.4256885640649
1731139679.135928,807.9791767071044,800.4955615180337,778.1969235433357,810.5673175230801
1731139679.1385918,808.2547864171194,802.8063164812258,782.1708477971873,818.2358500284054
1731139679.1398304,808.5340121058186,806.5532697674417,785.2243810711931,825.8860260012135
1731139679.143733,808.8191538750287,809.2129707391549,785.675578346059,836.1060135421362
1731139679.1448689,809.1111878235516,808.7487496811938,784.5903371010905,848.7338099718746
1731139679.147418,809.4098788586663,804.9358639321331,784.6180304144117,859.0121657837802
1731139679.1476357,809.714587503645,799.5834256717307,787.6191330258797,859.9401880896091
1731139679.1515384,810.0248724151986,795.4332568014954,793.098519849615,847.4187082195025
1731139679.1541662,810.3406249493694,794.3834410392194,798.6337457990421,824.1515885748752
1731139679.1554408,810.661908153844,796.2561217847696,801.7692320833174,798.8958194075227
1731139679.1593435,810.9887585478309,799.0581652205626,801.7310182652546,781.2780161352904
1731139679.1632462,811.3210997665097,800.5632893753481,799.6711171377754,776.0426893592282
1731139679.1662943,811.658790887744,799.9330452625101,797.5052365876338,781.0222855526588
1731139679.1671486,812.0017543517704,798.0659645002577,796.4756457917201,789.9125945166708
1731139679.169741,812.3500795020225,796.5305697473572,796.5232038425769,797.0879407684454
1731139679.1710513,812.703970252522,796.1765306277949,796.70511160452,800.6225476751163
1731139679.174954,813.0634577576631,796.6374183900838,796.1329342816045,801.8892701874446
1731139679.1788566,813.4280035633984,796.9497820552141,794.7101857637075,803.0646897421497
1731139679.1797862,813.7964184868882,796.5075359164518,793.198066388556,804.983904189541
1731139679.182759,814.167620538365,795.4666054916297,792.5781523691297,806.7453222415576
1731139679.185171,814.5422351226782,794.4062156967784,793.1599705517056,806.7875275700017
1731139679.1853154,814.9238280508315,793.7426298331313,794.1548178469948,804.2620116046885
1731139679.1866615,815.317494894705,793.4762155206116,794.1754138405357,799.6762613501356
1731139679.1905644,815.7243531835263,793.3980041384353,792.3498194289214,794.5085649535338
1731139679.1944668,816.1345099786738,793.4096966171664,789.092037982777,790.2605090872446
1731139679.1983695,816.5267046906152,793.5710770869972,785.7932105102012,787.7703148336797
1731139679.2008898,816.8839995858445,793.8661456476948,783.7255202850968,787.2730558423665
1731139679.2022722,817.2239928563398,794.0358616649008,783.2098339755236,788.8975693932697
1731139679.2040472,817.6188877791019,793.7590658674712,783.6994286591955,792.8370931630576
1731139679.2061749,818.162754571816,793.0508487926556,784.4385639645201,798.879207622541
1731139679.2100773,818.8634240533177,792.4643731290074,784.9807715474627,805.8493824189163
1731139679.21398,819.5158753964087,792.8518612990891,785.2677021913429,811.7656445371542
1731139679.214703,819.7156622593045,794.8631322917779,785.436538328539,814.8107782307654
1731139679.2164643,819.1756647321581,798.5672873850078,785.6202523854379,814.4129658467342
1731139679.2178826,818.278970529118,803.3991808764328,785.8660779189686,811.653329027978
1731139679.2217853,818.3493786051497,808.3449196005819,786.1545899954773,808.8010786796286
1731139679.2229235,820.8909087401469,812.2290256279459,786.4497361713559,808.3118219963048
1731139679.2256875,825.8302779448483,814.0991763536546,786.730789044986,811.780173144442
1731139679.2295904,830.3976266154228,813.6967924211885,786.9965240495384,819.3091777737598
1731139679.2320387,830.5738188124765,811.7662053678745,787.2548358125049,829.6389133092171
1731139679.233493,824.6116306832223,809.8335883836945,787.5125795076885,840.9891381037559
1731139679.2373955,815.3733656293305,809.4000806375499,787.771854952835,852.0232767404738
1731139679.2412982,808.717408633958,811.0338302320425,788.0313813251686,862.188660341229
1731139679.2417998,808.8453488313219,814.0410161919921,788.289200995466,871.2366203544359
1731139679.2452009,814.6258305132382,816.9827511689008,788.5442654900836,878.4985645521989
1731139679.2476132,820.2768282408779,818.6472089124687,788.7965502605886,882.7169426523981
1731139679.2491035,820.014820282014,818.7700949781072,789.0464651436175,882.6986765272552
1731139679.249621,812.851652329329,818.0473325025594,789.2943293946785,878.2990912342805
1731139679.253006,803.5827468293002,817.5366470363624,789.5402010853752,870.9205178919013
1731139679.256909,799.1147884662449,817.9476102536636,789.7839652585875,863.0415938069627
1731139679.2606764,802.9891736495807,819.2938535551694,790.0254812250898,856.9844129677094
1731139679.260811,812.3759677858452,821.0074786932033,790.2646692444756,853.6807558679573
1731139679.2631876,819.9378674290281,822.2644247903571,790.5015212562955,852.2610835422341
1731139679.2647138,819.2362255956101,822.2617701202508,790.7360663069667,850.8027526725313
1731139679.2686164,809.5703048016578,820.4461907301235,790.9683170473593,847.7854572443172
1731139679.272519,796.5026841446137,816.8192491822057,791.1982159516401,843.2143855400341
1731139679.2764218,787.685158736959,812.232116271171,791.4256161362744,838.5117516628347
1731139679.2787623,787.3094341081012,808.3179995885672,791.6503506354182,835.2170513683707
1731139679.2795527,793.4756226898137,806.8219940019607,791.8724091960654,833.5852527811203
1731139679.2803242,800.2456388145702,808.5746002243473,792.0921187488694,832.3407139064832
1731139679.284227,802.3801531335046,812.768119745176,792.3100775309301,829.8476702957784
1731139679.2845378,798.864714091291,817.1375996118568,792.5266133201819,825.6515718477642
1731139679.2881296,792.6989110271298,819.1277488675161,792.7409200662354,820.9689287339169
1731139679.292032,787.7794786820814,817.4648683979185,792.9506991443893,817.6565761824025
1731139679.2943368,786.0009015929969,813.1443019135052,793.1534952146792,816.6053585676229
1731139679.295935,786.781378553083,809.0155918870076,793.3500329319698,817.0435908505088
1731139679.298429,788.4914951484325,807.9818434052158,793.547358730271,817.3750916035914
1731139679.2998374,789.9214653425148,810.9170932888038,793.7569622585239,816.7186460569761
1731139679.30374,790.7495783916431,815.882846921879,793.983948576563,815.6447236866615
1731139679.3076425,791.2211538827518,819.4343257914169,794.21112935541,815.3720137812613
1731139679.3099113,791.6668163941777,819.1425504794357,794.3944178612799,816.1874060569401
1731139679.3115451,792.2455724013907,815.3394189644479,794.4912121379429,816.6716876355603
1731139679.3154478,792.9427283727375,810.6779489796203,794.5242514954922,814.6225266648557
1731139679.3173056,793.6778930749853,807.9653421923422,794.6351306752357,808.9408588832587
1731139679.3193505,794.3925684952169,808.1452620927666,795.0358222307489,800.7284851209332
1731139679.3194551,795.0741582540638,809.9954018549579,795.7929620597488,792.5212074066333
1731139679.323253,795.7376196563764,811.4974047723166,796.5353399355297,786.4153563726734
1731139679.3254857,796.4003659656756,811.496031100117,796.4039577027655,783.0128806668487
1731139679.3271556,797.0699466183812,810.2931544663766,794.5945403451283,782.267506143892
1731139679.3310585,797.744916634794,808.9621107252277,791.3332054944023,785.125616108831
1731139679.3349607,798.4208315591982,808.2703735119136,788.342833665488,793.6012125711837
1731139679.336182,799.0946995670258,808.227741016601,787.8992966706459,808.2845922031653
1731139679.3388634,799.7659885851359,808.4668559134162,790.907703407133,825.3202603925829
1731139679.3410602,800.4355233865953,808.8058126826419,795.6980263351184,836.4709754430564
1731139679.342766,801.1041648784995,809.3076404762909,798.850827205729,833.7247074165776
1731139679.3466687,801.7722210135114,809.888087946282,797.5822454904114,815.435453942106
1731139679.3505712,802.4395402924403,810.1210125500231,791.7822628326452,788.6375376170085
1731139679.3543725,803.1058402787293,809.637197597828,784.0365685640895,764.8879130531056
1731139679.3544738,803.7709318526279,808.7329647765505,777.6464564984848,752.6412853318748
1731139679.3550582,804.4347584263624,808.4412962448571,774.3167605807212,752.3010127133549
1731139679.3566346,805.0973309488302,809.7986354648378,773.3666600338347,757.6237875517546
1731139679.3583765,805.7586586487037,812.8459880937824,772.8997156868513,761.573711864126
1731139679.3622787,806.4187214716632,816.2216538715701,771.6745001732995,761.3395126577248
1731139679.3661816,807.0774783176048,817.7664549222086,769.9967463673978,758.8228875007298
1731139679.3700843,807.7348861580131,815.7973270012134,769.0794062623847,757.3768058716904
1731139679.3722093,808.3909115479565,810.2370161886618,769.7587633945941,758.4963903661403
1731139679.3739347,809.0455295499763,802.8925419037935,771.817391257709,761.2134738875408
1731139679.373987,809.6987147121065,796.6748834276767,774.3130174323371,763.778541845277
1731139679.3778894,810.3504331962263,794.1211989412283,776.323760546004,765.2727662207171
1731139679.381792,811.0006457631928,795.9904948002264,777.3665750063124,765.6507085025501
1731139679.3856947,811.649326235,800.7709333557978,777.3305833251189,764.8552091326331
1731139679.3877838,812.2964861341408,805.5115654114663,776.2937288171865,762.5604200496748
1731139679.3892896,812.9421777923417,807.5971807517576,774.558318495894,759.0197638505905
1731139679.3895974,813.5864440519454,806.4129468710846,772.8447543565704,755.9035977771465
1731139679.3928113,814.2292178215612,803.7983486758023,772.3038697989064,755.7829726522937
1731139679.3935,814.8702512447823,802.8681544049822,774.095283777987,760.3171534536064
1731139679.3974023,815.5092165026708,805.8235493004632,778.6426203156376,768.7101623817654
1731139679.4013052,816.1460590787112,812.1644364426581,785.0440111885641,777.9536493702645
1731139679.4033582,816.7814246778571,818.6366290021472,791.1842855437819,784.7411305731039
1731139679.4052076,817.4166368777843,821.1558583857435,794.7063823805415,787.3953652062977
1731139679.4091103,818.0526620753163,817.5021166790162,794.3536529630227,786.2868283589427
1731139679.4116874,818.6882230182143,808.9109198851156,790.8104730930255,782.8174699184267
1731139679.413013,819.318673824276,799.4322127547129,786.437025881051,778.3570822612146
1731139679.4169157,819.9382819587946,793.5238731122294,784.0364892713494,774.216819123431
1731139679.418933,820.5471192502335,793.515356186501,785.40213078167,772.2788571406667
1731139679.420818,821.1586584285491,798.4966088872723,790.4508764121059,774.9395829342128
1731139679.4242067,821.7979676804924,805.1240275995613,797.3601783513204,783.679081228686
1731139679.4247208,822.4806546301236,809.6736004234185,803.6019900859949,797.2401655822184
1731139679.4286234,823.177628817059,810.0821408969468,807.2920572850924,811.3228158728873
1731139679.4305637,823.7980846014381,806.8586149453777,808.0162222353026,820.723321739564
1731139679.432526,824.2395802616518,802.4560696032637,806.570745808713,822.6960138570562
1731139679.4345071,824.5213209508266,799.6150517616132,803.9062896188982,818.9883026924309
1731139679.4364283,824.9169640320465,799.7894457547956,800.3272963941855,814.8250310050953
1731139679.4403312,825.8923268474936,802.608054192186,795.7830612700945,815.4430109372785
1731139679.444234,827.676891839685,806.5129852760465,790.9209744345353,822.6158318847159
1731139679.4481363,829.5974449948611,809.9153079092458,787.6395058281414,833.5184709980765
1731139679.4494402,829.799972818931,812.0407373446332,788.2604070499204,842.5427518909299
1731139679.4500816,826.1960050653482,813.0796006208961,793.809858646373,844.7614885613073
1731139679.452039,818.6262544757766,813.7703476622211,802.8528079645023,838.8909974487311
1731139679.4559417,810.365552598121,814.7586087511844,811.944978191298,828.0589218603853
1731139679.459124,806.446557699335,816.0801374463236,817.4894213958721,817.9880708309573
1731139679.4598444,809.1908810160376,817.0906954206661,817.7421807571294,813.6865254579961
1731139679.4637468,815.2574153686081,816.9789734601865,813.6273748526587,816.6338662609264
1731139679.465656,817.9279605588949,815.5194694990264,807.8417373877529,824.159597130305
1731139679.4676497,813.0646048698104,813.3577490269302,802.9007789009709,831.3085163995372
1731139679.4683166,803.156964054412,811.4991098341011,799.5580399682625,833.9234498382127
1731139679.471552,795.4929027083975,810.5341504098177,796.7832376768283,831.0215851845829
1731139679.4754546,795.9678870683298,810.3672529811488,793.2281940431161,825.1118935260894
1731139679.4793572,804.0474679257919,810.5416499375509,788.8037434041382,820.3848772677677
1731139679.4812305,813.2532086532086,810.6751163503894,784.8808903548835,819.9501032013261
1731139679.48326,816.5407376248813,810.6382116726254,782.9467090232998,823.8975867675256
1731139679.4871626,811.8213450792737,810.4851496063427,783.0614046377959,829.4996957414571
1731139679.4871929,803.1566119111002,810.3132985157997,783.6631873917266,833.3940785205531
1731139679.491065,797.0634609830125,810.1771163572901,782.9527937236855,834.0201048082977
1731139679.4940412,797.2349649822586,810.0783886133237,780.5785975298666,832.3262723646109
1731139679.4949677,801.873459415198,809.9950797763654,778.0802891443647,830.306655919132
1731139679.4968052,805.5575302811742,809.9086625503631,777.6991013571775,828.9448951422273
1731139679.4988704,804.0417026407096,809.8136866833387,780.5944667503118,827.618316042991
1731139679.5027728,798.086424243869,809.7137253381428,785.9563125021084,825.3920952163389
1731139679.5060694,793.0589119029967,809.6139958718932,791.6730511096566,822.6079944903515
1731139679.5066755,794.431680821504,809.5171609198178,795.9076215128716,820.9192196988596
1731139679.5105782,802.8901646106992,809.4231197125117,798.2589176956474,821.6880828673154
1731139679.5123796,813.3407633560156,809.3306447908917,799.6392344470079,824.489622659365
1731139679.5144808,818.8602307703297,809.238789292504,801.1319489083942,827.378963634517
1731139679.5183833,816.3027344925059,809.1473164126032,802.9312438210009,828.7212126376805
1731139679.522286,808.8060691138785,809.0564402587917,804.2891901863075,828.7497844844926
1731139679.5249455,803.1347105974035,808.9664324341718,804.377887083189,829.2869545715748
1731139679.5261886,804.1706409421511,808.8774162584481,803.1119703770618,831.8877439670362
1731139679.527954,811.0927666643669,808.789369840225,801.1434803104431,836.1779361109184
1731139679.5289586,818.2010046188451,808.7022173851489,799.2018101159267,839.9099871581016
1731139679.5300913,819.5373902563168,808.6159029829244,797.587741676881,840.622948107829
1731139679.5339935,813.5530797201006,808.5304128708973,796.2714701557179,837.4141405230495
1731139679.5378964,804.1926719950187,808.4457618661406,795.2517826606655,831.4344543139808
1731139679.5417993,797.6822265387061,808.3619683874149,794.6219348537095,824.9791013654741
1731139679.5435286,797.7103737496709,808.2790312576849,794.3262121100456,820.1092235927265
1731139679.543822,802.8857358977324,808.1969155000705,794.0699058976986,817.742964279382
1731139679.5457015,808.3823422649717,808.1155599017119,793.6084958742765,817.4980165602017
1731139679.5496042,810.2131231499143,808.0349206989392,793.0490854686278,818.1217485892431
1731139679.5535069,808.5014009816067,807.9550414737944,792.7020744339128,818.2838218105536
1731139679.5574095,807.092657876594,807.8760885171514,792.6011895361481,817.3929929907796
1731139679.559103,809.9283670475056,807.7982569114605,792.3129213505897,815.8890046094584
1731139679.561312,817.2296390340142,807.7215117402883,791.3821259579876,814.6854219393556
1731139679.5626986,824.7004806510918,807.6453203577126,789.9854949431435,814.2322336934538
1731139679.563876,826.630295151397,807.5687520750357,789.0254131876376,814.2083936843985
1731139679.5652146,820.6723562582399,807.4912876257893,789.4487592729472,814.2938850470714
1731139679.5691173,810.4430247862875,807.414103565259,791.4276806988647,815.1824293601385
1731139679.5730195,803.3712184733339,807.3405947887163,794.2210466529353,818.4195029274788
1731139679.5746777,804.9328285431694,807.2743649409357,796.8114541886931,824.6990064702952
1731139679.5769224,813.8066897020445,807.2142467495156,798.5848051086689,832.0722312993706
1731139679.580825,822.3681017002251,807.149650184995,799.3365426864846,836.1597495981739
1731139679.581575,822.7005199041097,807.0634324850148,798.7433421602861,832.9175688164585
1731139679.5847278,813.3358276006725,806.9480862502867,796.1398155637023,822.0250624811209
1731139679.5886302,800.878421442019,806.8293502356081,791.1365306279329,807.942161520699
1731139679.590252,794.8613690683796,806.7726749358229,784.5852510309284,797.3272379581082
1731139679.5925329,800.0163863386962,806.8401187067121,778.7689247106454,794.5319089396103
1731139679.5964355,812.3899902798083,806.993712377851,776.2434283825994,798.6437742694842
1731139679.598793,822.4843793678708,807.0120942523599,778.0588869511332,804.4244738046573
1731139679.6003382,822.7980250031746,806.5510080642599,782.8715112578168,806.3856264370897
1731139679.6004512,813.6828553893304,805.4246172644011,787.8455144553154,802.7804914160185
1731139679.604241,802.9470137015317,803.9498006221148,790.6884443912867,796.5054909535006
1731139679.6058266,799.6659666670402,802.9750054001346,791.1124954115875,792.5084588914077
1731139679.608143,807.1826901544626,803.381373795545,790.5403771209935,794.0138552787719
1731139679.612046,820.7969644594137,805.3799595431036,790.5290402939404,800.5041308420484
1731139679.6159484,831.8036487466803,808.2404888087797,791.5073352736274,808.6589167006014
1731139679.6193278,834.4241636830735,810.7423054186033,792.8482260628195,815.0231546307825
1731139679.619851,829.9649918517499,811.9732003881585,793.7900229340714,818.1037060789357
1731139679.6214013,825.0326648123082,811.8073283559761,794.0893675550649,818.5589669864368
1731139679.6237538,825.6302562566084,810.732163899253,793.9772242540993,817.9617628774889
1731139679.6276565,832.1864462098249,809.2885819638702,793.7887815115186,817.5183603379704
1731139679.631559,839.4783690699833,807.6740838891589,793.7091098972588,817.6092731704398
1731139679.6337104,841.2183437822387,805.834060777267,793.7478398484327,818.050139399456
1731139679.6354616,835.3795705339163,803.8890241851699,793.8347128639422,818.5380457744392
1731139679.6369755,825.9689113698184,802.4349049790204,793.9095332083814,818.9113448279912
1731139679.638204,819.9186617734583,802.3574730125214,793.9542068924734,819.1710800596439
1731139679.6393642,821.6168427394044,804.2442730670863,793.9800965481877,819.3878952507138
1731139679.643267,829.429739234771,807.884776271742,794.0041449330605,819.6183230400949
1731139679.6471694,837.0277763401568,812.316077505253,794.0351137407537,819.8775518878352
1731139679.651072,838.5053313334374,816.376638624492,794.0727764609708,820.1535308453044
1731139679.65255,833.1490013337907,819.2634843516646,794.1131860592676,820.4300441300561
1731139679.6549747,825.9234227248405,820.6590258741074,794.1532631364877,820.6992282153545
1731139679.6570804,823.2824720808592,820.5054878781095,794.1922254077573,820.9617314679606
1731139679.6588771,827.804622293788,818.8381696026645,794.2307664061761,821.2214629474864
1731139679.6627798,836.0656985148212,815.8795121641834,794.2697800600041,821.4812968489698
1731139679.6666825,841.4154599563797,812.1809929232189,794.3096872284365,821.7418720584899
1731139679.6681244,839.3432022742707,808.5253096661728,794.3504419421258,822.0024725621868
1731139679.6686275,831.1604069919733,805.607571616092,794.3918257065366,822.2622522211855
1731139679.670585,823.1823429888075,803.7686594362364,794.4336810025259,822.5208414710236
1731139679.6744876,822.1019153966939,802.9772953363956,794.4759718473128,822.7783075934194
1731139679.675957,830.0556938846114,803.0189933449483,794.5187321927718,823.0348607198049
1731139679.6783905,842.983958565074,803.7280739607002,794.5620004997103,823.2906358322606
1731139679.6822927,853.3744802244826,805.1208095852705,794.6057932531728,823.5456495188419
1731139679.683699,855.2822960075492,807.3391204072263,794.6501142880949,823.7998661821334
1731139679.6861954,847.9606284924412,810.3996715862494,794.6949691103916,824.0532699745561
1731139679.690098,835.608817771942,813.9101474323702,794.7403580027577,824.3058773303094
1731139679.6940007,823.7218607912434,817.0214181443115,794.7862479729484,824.5576843514281
1731139679.6948333,815.0515752743927,818.732047706212,794.8325560747357,824.8085989230318
1731139679.6979034,808.3394353018322,818.3552478381641,794.8791915926149,825.0584449198452
1731139679.699273,800.6422660040154,815.8433987119282,794.9261719207636,825.3071095313625
1731139679.7018058,791.0732978336846,811.8381985406908,794.9737364015241,825.5547906946538
1731139679.7035449,782.536800429528,807.4930825793604,795.0222867244461,825.8021106652575
1731139679.7057085,779.6624537261149,804.1051988771475,795.0720100618952,826.049755430177
1731139679.7096112,784.4714123648336,802.5852472427792,795.1223130104995,826.2975401448678
1731139679.7135136,793.597159505353,802.9806286425371,795.1716393049222,826.5435007920789
1731139679.7137096,799.9723303349978,804.4348899948977,795.2184457863666,826.7843676260355
1731139679.714848,798.1813267299303,805.7474950418051,795.2634542037512,827.0185641354637
1731139679.7174163,789.2020391099751,806.1705598862286,795.3115975294342,827.2507211831664
1731139679.721319,780.2648470434717,805.7979464747733,795.3704257970923,827.4931536452268
1731139679.7252216,779.4443843081845,805.2429633228086,795.4425914502876,827.7581232778522
1731139679.729124,789.1735899131512,804.9582083655823,795.5154817943366,828.0399114113957
1731139679.7304225,804.030871173486,804.8485829462232,795.5592768663107,828.2992394058392
1731139679.732586,814.7294810038958,804.4793983009737,795.5474063330347,828.4757823295193
1731139679.7330267,815.1568885014885,803.5892755619924,795.4992995021097,828.5477994767173
1731139679.7369294,806.8752537860383,802.3894081832382,795.512606542561,828.6145394452236
1731139679.738462,797.6031008650916,801.4190657649759,795.7233180313137,828.9113473420979
1731139679.740832,795.007945575555,801.1550066982622,796.1537539241112,829.6447263527795
1731139679.7447343,800.8121443700778,801.7253593992053,796.5134017487122,830.643630306931
1731139679.745997,809.8989885153543,802.9075502972814,796.1572657865836,831.0757996875064
1731139679.7486372,815.0262497787983,804.330568849968,794.4025818947672,829.6837144069784
1731139679.7514625,813.1231148531202,805.6704047324698,791.0971689684985,825.7508782529293
1731139679.75254,807.7993827008074,806.6846581452301,786.9572272115701,820.1549242976183
1731139679.7564423,805.9238091953335,807.1167683292629,783.295305791155,815.269374683667
1731139679.760345,811.2991608149846,806.6584602235246,781.3356694313183,813.370825273713
1731139679.7615714,821.0412706657991,805.1171332113353,781.6435992962073,814.9195353281406
1731139679.7642477,827.8729386576425,802.6892787402679,783.9500631952695,818.3544975411255
1731139679.7681503,826.2903594720135,800.0436191608584,787.3184021489787,821.4436195128059
1731139679.7703388,817.2051676860239,798.0299538377195,790.544647473485,822.7952599257787
1731139679.7720528,807.1420071185805,797.1851392014051,792.6824297556443,822.3506352162602
1731139679.773379,802.855653274989,797.4389879314258,793.4389514824371,820.8599272627969
1731139679.7759554,806.0161874811697,798.265378987765,793.1646534126294,819.0810179160912
1731139679.777146,812.3088710165871,799.1212582583148,792.468794275296,817.2950133874325
1731139679.779858,815.4678948054066,799.7774118213,791.8084342847469,815.301484275872
1731139679.7837603,812.7293692506705,800.3096632609344,791.3357310207832,812.8355021375993
1731139679.7876632,807.1669379451852,800.8938816489837,790.9917881377223,810.1754702671969
1731139679.789215,805.043879163014,801.7072831834485,790.6686947267078,808.4041667677961
1731139679.791566,810.4267945378062,803.0071527229852,790.3064933017538,808.7762553935186
1731139679.7927203,821.515208663935,805.1379587437261,789.903821757849,811.4013465614389
1731139679.7954686,831.7028353008363,808.2436360816342,789.4855264251918,814.4373574074743
1731139679.799371,834.5259734175407,811.8558773889004,789.0722525222634,814.9385027975981
1731139679.8032737,828.5293829046361,814.8304611683244,788.6699620689942,811.0589721231344
1731139679.8071764,818.2115133485759,815.8986976606659,788.2745915607572,803.8446482801298
1731139679.8080916,810.4301684780031,814.5302438511081,787.8803149101979,796.9941881398529
1731139679.8082948,809.2485459434397,811.4328523539298,787.4841957197754,794.6553653709835
1731139679.8082964,813.2732597998653,808.2334236281151,787.0863816147734,798.8631307169585
1731139679.8110788,817.401616475337,806.5160264231757,786.6882613535242,808.3427381032169
1731139679.8149817,817.4017267063252,806.8929448780756,786.2908978815041,819.3414321332508
1731139679.818884,813.5641901540702,808.7519848019692,785.8945589921207,827.8818324591724
1731139679.8227868,810.3884621063514,810.8088266330635,785.4990128300449,832.0090634603084
1731139679.8238697,812.4530747614713,812.013493902083,785.1039673844867,832.5739828158156
1731139679.8266892,819.8982532868524,812.1479731838763,784.7092975165306,832.023803492013
1731139679.826968,827.5432745959786,811.7354792473805,784.3150395689051,832.1359173552927
1731139679.830592,828.7480128072335,811.4169492484921,783.9212902842785,832.5093082263543
1731139679.8344946,820.9792979701393,811.3304043884299,783.5281275608692,831.0284897765865
1731139679.8383973,808.3136683968669,810.9843044735202,783.1355878000613,825.8349611694289
1731139679.839444,798.5188185430927,809.7001968443001,782.7436778543133,817.0689700907702
1731139679.8422997,796.9421665630539,807.2495981202566,782.352392488311,806.9254551891019
1731139679.8432138,802.227631620157,804.1812005242763,781.9617287736958,798.0706683385663
1731139679.8458445,807.4708921845315,801.5993011019676,781.5717048241584,791.7918287469247
1731139679.8462024,805.9982754419505,800.5570550068679,781.1823833899462,787.345235976337
1731139679.850105,797.1352705914433,801.4548957129878,780.7938762313365,782.934381446485
1731139679.8540075,787.190409484509,803.7861160365175,780.4062909882136,777.4813384752658
1731139679.8550184,784.6227048405716,806.3611512864195,780.0196146921908,771.7505052674271
1731139679.8579102,793.1188743509024,807.9066481004375,779.6336164812908,767.870998623778
1731139679.8618128,808.208949320581,807.7377271831813,779.2479371237929,767.5986589975471
1731139679.8647208,820.335507955698,806.1065735521078,778.8624847475857,770.7754570460144
1731139679.8657155,822.034460656343,803.9621303073224,778.4779687630447,775.3408586897888
1731139679.869618,813.4759664219922,802.2511474766363,778.0959792314654,778.8748625446601
1731139679.8705928,801.9922549330329,801.2965910462414,777.7178929192812,780.2531782215545
1731139679.8735206,796.1947895441888,800.7801475144515,777.3426394919321,779.9869271711209
1731139679.8774233,799.5641587727538,800.3128816122918,776.9650629755361,779.2176722765653
1731139679.878131,808.4616556510185,799.9796685901172,776.5780503607409,778.6204364926117
1731139679.8813255,815.6452040526418,800.2512313840161,776.1803312242974,778.2663279418873
1731139679.8835971,816.0580992631049,801.3426112080258,775.7861357775499,778.197720008438
1731139679.8852284,810.2909845600908,802.7448226597503,775.4251455570198,778.6925468049618
1731139679.8861673,803.3545279024423,803.5252668636163,775.1199584403455,779.7890896971618
1731139679.8891313,800.1742476246718,803.1814648789425,774.8440826249789,780.7360912913431
1731139679.8930335,801.6368980739187,802.207569578803,774.4959521356744,780.2473204520646
1731139679.8969362,804.3759422612135,801.773504127227,773.9487833837294,777.5819195980814
1731139679.9008389,804.3284260639142,802.7846208137117,773.2068418852158,773.5836224615316
1731139679.9017415,800.9035737628207,805.200295996296,772.5896168439051,770.7758450784552
1731139679.9024734,798.0216154731297,808.2266716305916,772.7362784925731,772.2725421380543
1731139679.9047415,800.9176840110376,811.1242851950306,774.256562056086,779.9843803761337
1731139679.9086442,811.3021059402848,813.7677215230162,777.1827655807091,793.0580600997572
1731139679.9125466,825.0383897358386,816.3915222979991,780.7100697583453,807.6033857964964
1731139679.9130485,834.5307668398477,818.8651922447938,783.5367419522344,818.283954463361
1731139679.9164493,834.1416599423035,820.3954207107497,784.5555056592846,821.1732362228786
1731139679.9173162,824.429639136934,820.1234882549086,783.386072681233,816.1067418334951
1731139679.920352,811.8624831738761,818.0966891405922,780.4813684834298,806.7601340184093
1731139679.92135,804.155944515417,815.6021887673892,776.8888044492352,798.2113426727486
1731139679.9242544,804.7411212885734,814.3999202616882,773.8738606324782,793.6806198584209
1731139679.928157,810.5358194929016,815.4317878601677,772.5121438710376,792.8059452172375
1731139679.9320598,814.7061904468703,818.0950539732834,773.2666219576223,792.5749397382142
1731139679.932891,812.2845703887298,820.6879935469974,775.6900407042937,789.9487427716003
1731139679.9359624,804.229957065647,821.6458447659082,778.5453587231091,784.0460640946009
1731139679.9398649,796.6439774055514,820.5725208279894,780.454540200235,776.3965784428543
1731139679.9402263,795.6898363021103,818.3208813801383,780.7215812728297,769.4947553642139
1731139679.9437675,802.3233430640938,816.1985571784796,779.7430737617684,765.120472466457
1731139679.9476702,811.247561977768,815.0413307442902,778.7310985978291,763.7120678518664
1731139679.9479654,815.1223594645367,814.8674107210886,779.0144311317971,764.9028091624258
1731139679.948465,810.6837167997802,815.211902163649,781.405852694017,768.3302561627803
1731139679.951573,801.705507718181,815.653929138966,785.892351477263,773.8015607453242
1731139679.955475,796.2012123167145,816.0155750963664,791.5934682092153,780.7193792197245
1731139679.9591026,799.9705440543939,816.1806026898723,796.906975203731,787.5336663966089
1731139679.959378,811.6777980945863,815.9088674669621,799.9357969071048,792.0890175476262
1731139679.963281,823.5098155603418,814.960312938646,799.2814064195535,792.9545370301341
1731139679.9640398,826.9798515529699,813.4108118644107,794.9426830853315,790.8161824196873
1731139679.967183,819.2915351989994,811.7670375796793,788.6981947307091,788.683412545476
1731139679.9710858,805.2625100224312,810.6784750106532,783.4464683041306,790.3867592257416
1731139679.9749885,793.4257349030803,810.4593923714726,781.6347963552635,798.1459630303893
1731139679.9779792,789.5609240440875,810.8183478716428,783.6841065681803,810.8680694804889
1731139679.9788911,792.7948817662935,811.0114338501343,787.5576658553698,824.488953035894
1731139679.9796145,797.1332655763093,810.3196473922909,789.985565963037,834.2242463584012
1731139679.9827936,796.8382502758186,808.5421751944808,788.6788744305849,837.1866924826844
1731139679.9828827,791.1037056711299,806.1654464880129,784.0167028974098,833.668001031511
1731139679.9866962,784.3343564072205,804.046685842524,778.9308409384031,826.5423608690098
1731139679.990599,782.1654856720862,802.8292123402492,776.998830383995,819.5717617240259
1731139679.9945014,786.8618329701933,802.576382538214,780.118424344243,815.7630132827537
1731139679.9951887,795.9297789480235,802.8947737262239,787.4370691796316,816.3864763486787
1731139679.9968555,804.6394306277016,803.3271789417585,796.1799218043807,820.7042196494959
1731139679.998404,809.7155517605427,803.6281678422403,803.5517012092841,826.3782537083946
1731139680.0023067,810.977134933914,803.7815767986067,808.2222321287013,830.5625776163768
1731139680.0062094,810.2632706515566,803.8749711320016,810.5052671231624,831.3389065827165
1731139680.0101118,809.4478862794107,803.9841875095567,811.5414225032359,828.6896015029699
1731139680.0107632,809.3547170540223,804.1321132163098,812.4826526536827,824.31292368751
1731139680.0140145,809.871544263155,804.3044029437585,814.2980964085573,820.4088029250019
1731139680.0157318,810.5637915469016,804.4796119185772,817.8880438280023,818.3670104695184
1731139680.0178,811.1330774352389,804.6466205312151,823.7814050747353,818.297134140998
1731139680.0179172,811.5270662066189,804.8056841084436,831.3216508492319,819.5658291428555
1731139680.0218196,811.8322492540416,804.9617803391171,838.2121944808201,821.6605345351498
1731139680.0257225,812.1408894854327,805.1188001593086,841.3485435089774,824.4852675787454
1731139680.0263376,812.4901508870996,805.2777300493195,838.7027930402004,827.8000926920741
1731139680.0296247,812.8703385456358,805.4376854236523,830.8218015334612,830.4847196890717
1731139680.0335276,813.2577115157059,805.5975237100988,820.6552928842974,830.7499710541422
1731139680.0346084,813.6373603718093,805.7566986663943,811.8822018125506,827.6887183945589
1731139680.03743,814.0075213546857,805.9152547561887,807.130788920694,823.0598366769576
1731139680.0413327,814.3732164066824,806.0734554237514,807.2829107257065,821.3850392102242
1731139680.0419123,814.7392792716296,806.2314862879294,811.8571984250389,827.4885407695925
1731139680.0452354,815.1074752874825,806.3893760020346,819.6628798937227,842.9548987738906
1731139680.0491378,815.4771804495864,806.5470601185401,829.1532776249827,864.4268507721517
1731139680.0527172,815.8471660552567,806.7044664969114,838.5842011158161,885.4600090599149
1731139680.0530405,816.2167433409332,806.8615565843859,846.3371535731383,900.580742554684
1731139680.053485,816.5859175258794,807.0183219491604,851.4526079069761,908.1902064470426
1731139680.0569432,816.9550194750825,807.1747638276033,854.0054174863949,910.1273392917349
1731139680.0574868,817.3243429680673,807.3308782803638,854.8992410164917,908.9082708017381
1731139680.060846,817.6940117642753,807.486653096188,855.0600756726915,905.6138849227564
1731139680.0647483,818.0640298673541,807.6420714996264,854.5976536006344,900.2226058543539
1731139680.068651,818.434379910925,807.7971159918565,852.7384091985975,893.376861314975
1731139680.072361,818.8050790010556,807.9517693855996,848.8001026763534,887.2023318313118
1731139680.0725536,819.176176226443,808.1060142304956,843.4578376744951,884.1333691769165
1731139680.0730612,819.5477210317828,808.2598334451429,839.0236181896695,885.0165034285428
1731139680.0764563,819.9197402512534,808.4132133964779,838.1584411758147,888.4880553918047
1731139680.0803587,820.2922489116852,808.5661468832719,841.8753725372563,892.1487008952499
1731139680.0842614,820.6652948489376,808.7186302682239,848.478192806322,894.1945745677051
1731139680.0876343,821.0390022058409,808.8706506967045,854.3594480376513,893.9344099296684
1731139680.088164,821.413549527383,809.0221690154226,856.0305911535955,891.0686940090682
1731139680.0886357,821.7890342653916,809.1731178733836,851.870116260265,884.9709107163385
1731139680.0912375,822.1652751764414,809.3234381191432,842.5498729561377,875.0308111405242
1731139680.0920663,822.5417587385039,809.4731514107489,830.2335687427244,861.7504444936292
1731139680.0959692,822.9179972760636,809.6224114584573,817.3384001431275,847.3008214294675
1731139680.099872,823.2943227597265,809.7714310084008,805.5947838372858,834.6808910808434
1731139680.1037743,823.6725395198922,809.9202258661273,795.7548107214191,825.980033027073
1731139680.10421,824.0552999191045,810.0683053911483,787.9388418359026,821.1446305262283
1731139680.107677,824.4434168676005,810.2146884101414,782.2700125674298,818.2294571141948
1731139680.110114,824.8322833560164,810.3586531146765,779.2077021187623,814.8465670300432
1731139680.1115797,825.2114193869003,810.5011044824099,779.1812326912227,809.6553894304348
1731139680.1154823,825.5719535146484,810.645390559716,781.7933298111767,802.9822777850609
1731139680.1193848,825.9216888042357,810.7956498058647,785.4099959482436,796.5297580210284
1731139680.1197846,826.2959136185112,810.9518165827998,787.7106365208887,792.636784132744
1731139680.1225517,826.7425993367118,811.1041114280376,786.8950207194654,793.3702622538055
1731139680.1232874,827.2695334680341,811.2343397258486,782.6398817964971,799.4876373447264
1731139680.12719,827.7797681918374,811.331135106302,776.1625722635378,809.5894365555822
1731139680.1289902,828.0737893687307,811.4154637833476,769.4934914433965,820.2216116496644
1731139680.1310928,828.0039660582474,811.5528559017104,764.4962912924752,827.4116732790125
1731139680.1349952,827.7593977386937,811.8167610154974,762.0906066180719,828.9754998379694
1731139680.1353593,828.042006511079,812.190800092316,761.926727099267,825.9437367811445
1731139680.138898,829.7396240817366,812.4689172583008,762.6784672621749,821.8197886047562
1731139680.1428006,832.9225122598053,812.2895288755623,762.926713187917,820.0535903157436
1731139680.1467032,835.7813717205202,811.412506350225,762.1736863655882,821.6603763500508
1731139680.1478667,834.9572981243539,810.1241531582161,761.2650686971863,824.8456887751622
1731139680.1506057,828.089093277788,809.3682377449121,761.8331657946586,826.7849682923041
1731139680.1509335,816.8444954675282,810.2462757341514,765.0902084599703,825.8831425653011
1731139680.1545084,807.0181586482006,813.0932830944869,770.7599957867885,822.567291382406
